Read Model from: ./ucf7s2ndx/
Export Model to: ./ucf7s2ndx/ucf7s2ndx_fhf.json
idx_in [0, 1, 2, 3, 4, 5, 6]
idx_out [7, 8, 9, 10]
make_mimo_block stable2ndx
H1s[0][0]  Real Poles: [-131.97583454  -64.95701848] Freqs [Hz]: []
H1s[0][1]  Real Poles: [-141.21044401  -57.09355034] Freqs [Hz]: []
H1s[0][2]  Real Poles: [-152.09371802  -47.46219268] Freqs [Hz]: []
H1s[0][3]  Real Poles: [-100.61863867  -75.49868467] Freqs [Hz]: []
H1s[1][0]  Real Poles: [-85.01370251 -85.01370251] Freqs [Hz]: [2.046404531221527]
H1s[1][1]  Real Poles: [-107.63174817 -107.63174817] Freqs [Hz]: [1.520878461718739]
H1s[1][2]  Real Poles: [-140.03083582  -59.60774496] Freqs [Hz]: []
H1s[1][3]  Real Poles: [-70.12726963 -70.12726963] Freqs [Hz]: [4.571216603678865]
H1s[2][0]  Real Poles: [-83.78380835 -83.78380835] Freqs [Hz]: [6.112563824417709]
H1s[2][1]  Real Poles: [-90.12039527 -90.12039527] Freqs [Hz]: [3.985855714414274]
H1s[2][2]  Real Poles: [-119.38195974 -119.38195974] Freqs [Hz]: [3.569486997669295]
H1s[2][3]  Real Poles: [-114.76783548  -84.89178167] Freqs [Hz]: []
H1s[3][0]  Real Poles: [-76.35617107 -76.35617107] Freqs [Hz]: [3.762663947740754]
H1s[3][1]  Real Poles: [-96.39291279 -96.39291279] Freqs [Hz]: [5.176436134362949]
H1s[3][2]  Real Poles: [-119.42013749  -79.067531  ] Freqs [Hz]: []
H1s[3][3]  Real Poles: [-72.34496176 -72.34496176] Freqs [Hz]: [7.305662387659551]
model_folder = ./ucf7s2ndx/
model_root = ucf7s2ndx
data_path = d:/data/ucf3/ucf7.hdf5
idx_in [0, 1, 2, 3, 4, 5, 6]
idx_out [7, 8, 9, 10]
read 3600 dataframes
dt=0.010000 data_len=401 n_io=11 n_case=3600
['G', 'Ud', 'Uq', 'Vd', 'Vq', 'GVrms', 'Ctrl'] ['Vdc', 'Idc', 'Id', 'Iq'] (3600, 401, 11)
make_mimo_block stable2ndx
prepending initial conditions (3600, 100, 11) (3600, 401, 11) float32 float32
results in (3600, 501, 11)
Idx,Vdc,Idc,Id,Iq
#,RMSE,RMSE,RMSE,RMSE
Total,0.0081,0.0578,0.0782,0.0158
0,0.0051,0.0714,0.1174,0.0048
1,0.0051,0.0714,0.1174,0.0048
2,0.0045,0.0932,0.1293,0.0051
3,0.0050,0.0559,0.0937,0.0045
4,0.0036,0.0805,0.1252,0.0049
5,0.0036,0.0805,0.1252,0.0049
6,0.0036,0.0805,0.1252,0.0049
7,0.0040,0.0848,0.1274,0.0048
8,0.0040,0.0848,0.1274,0.0048
9,0.0059,0.0932,0.1306,0.0046
10,0.0079,0.1032,0.1344,0.0045
11,0.0090,0.1100,0.1370,0.0045
12,0.0086,0.1116,0.1383,0.0046
13,0.0069,0.1083,0.1382,0.0047
14,0.0050,0.0559,0.0937,0.0045
15,0.0048,0.1020,0.1369,0.0049
16,0.0048,0.0954,0.1352,0.0052
17,0.0084,0.0896,0.1328,0.0055
18,0.0139,0.0877,0.1301,0.0060
19,0.0059,0.0932,0.1306,0.0046
20,0.0079,0.1054,0.1189,0.0683
21,0.0080,0.0992,0.1203,0.0599
22,0.0076,0.0919,0.1210,0.0518
23,0.0066,0.0851,0.1213,0.0443
24,0.0055,0.0783,0.1214,0.0373
25,0.0050,0.0559,0.0937,0.0045
26,0.0046,0.0739,0.1216,0.0310
27,0.0042,0.0727,0.1225,0.0253
28,0.0039,0.0733,0.1235,0.0197
29,0.0037,0.0746,0.1243,0.0143
30,0.0036,0.0777,0.1250,0.0092
31,0.0079,0.1032,0.1344,0.0045
32,0.0037,0.0827,0.1246,0.0051
33,0.0040,0.0841,0.1234,0.0097
34,0.0047,0.0856,0.1219,0.0151
35,0.0056,0.0868,0.1200,0.0211
36,0.0040,0.0597,0.0957,0.0044
37,0.0071,0.0882,0.1179,0.0275
38,0.0090,0.0909,0.1159,0.0345
39,0.0107,0.0948,0.1139,0.0420
40,0.0117,0.0958,0.1112,0.0496
41,0.0115,0.0945,0.1076,0.0572
42,0.0103,0.0915,0.1036,0.0645
43,0.0090,0.1100,0.1370,0.0045
44,0.0036,0.0805,0.1252,0.0049
45,0.0036,0.0805,0.1252,0.0049
46,0.0036,0.0805,0.1252,0.0049
47,0.0040,0.0597,0.0957,0.0044
48,0.0036,0.0805,0.1252,0.0049
49,0.0036,0.0805,0.1252,0.0049
50,0.0036,0.0805,0.1252,0.0049
51,0.0036,0.0805,0.1252,0.0049
52,0.0036,0.0805,0.1252,0.0049
53,0.0036,0.0805,0.1252,0.0049
54,0.0036,0.0805,0.1252,0.0049
55,0.0086,0.1116,0.1383,0.0046
56,0.0036,0.0805,0.1252,0.0049
57,0.0036,0.0805,0.1252,0.0049
58,0.0046,0.0678,0.0986,0.0043
59,0.0036,0.0805,0.1252,0.0049
60,0.0036,0.0805,0.1252,0.0049
61,0.0036,0.0805,0.1252,0.0049
62,0.0036,0.0805,0.1252,0.0049
63,0.0036,0.0805,0.1252,0.0049
64,0.0036,0.0805,0.1252,0.0049
65,0.0036,0.0805,0.1252,0.0049
66,0.0036,0.0805,0.1252,0.0049
67,0.0069,0.1083,0.1382,0.0047
68,0.0036,0.0805,0.1252,0.0049
69,0.0061,0.0773,0.1018,0.0042
70,0.0036,0.0805,0.1252,0.0049
71,0.0036,0.0805,0.1252,0.0049
72,0.0036,0.0805,0.1252,0.0049
73,0.0036,0.0805,0.1252,0.0049
74,0.0036,0.0805,0.1252,0.0049
75,0.0036,0.0805,0.1252,0.0049
76,0.0036,0.0805,0.1252,0.0049
77,0.0036,0.0805,0.1252,0.0049
78,0.0036,0.0805,0.1252,0.0049
79,0.0048,0.1020,0.1369,0.0049
80,0.0072,0.0832,0.1038,0.0042
81,0.0036,0.0805,0.1252,0.0049
82,0.0036,0.0805,0.1252,0.0049
83,0.0036,0.0805,0.1252,0.0049
84,0.0036,0.0805,0.1252,0.0049
85,0.0036,0.0805,0.1252,0.0049
86,0.0101,0.0804,0.1085,0.0081
87,0.0093,0.0780,0.1100,0.0075
88,0.0087,0.0759,0.1115,0.0070
89,0.0080,0.0744,0.1130,0.0065
90,0.0069,0.1083,0.1382,0.0047
91,0.0069,0.0833,0.1046,0.0043
92,0.0048,0.0954,0.1352,0.0052
93,0.0065,0.0737,0.1162,0.0057
94,0.0057,0.0732,0.1178,0.0055
95,0.0050,0.0744,0.1195,0.0053
96,0.0045,0.0761,0.1214,0.0051
97,0.0039,0.0777,0.1233,0.0050
98,0.0040,0.0848,0.1274,0.0048
99,0.0059,0.0932,0.1306,0.0046
100,0.0079,0.1032,0.1344,0.0045
101,0.0090,0.1100,0.1370,0.0045
102,0.0055,0.0793,0.1042,0.0044
103,0.0086,0.1116,0.1383,0.0046
104,0.0084,0.0896,0.1328,0.0055
105,0.0069,0.1083,0.1382,0.0047
106,0.0048,0.1020,0.1369,0.0049
107,0.0048,0.0954,0.1352,0.0052
108,0.0084,0.0896,0.1328,0.0055
109,0.0139,0.0877,0.1301,0.0060
110,0.0079,0.1054,0.1189,0.0683
111,0.0080,0.0992,0.1203,0.0599
112,0.0076,0.0919,0.1210,0.0518
113,0.0061,0.0877,0.1277,0.0054
114,0.0044,0.0733,0.1029,0.0046
115,0.0036,0.0642,0.1011,0.0047
116,0.0036,0.0642,0.1011,0.0047
117,0.0036,0.0642,0.1011,0.0047
118,0.0040,0.0683,0.1032,0.0046
119,0.0040,0.0683,0.1032,0.0046
120,0.0061,0.0764,0.1061,0.0044
121,0.0082,0.0859,0.1094,0.0044
122,0.0091,0.0921,0.1114,0.0044
123,0.0087,0.0922,0.1122,0.0045
124,0.0069,0.0880,0.1117,0.0045
125,0.0060,0.0687,0.1012,0.0048
126,0.0048,0.0814,0.1103,0.0047
127,0.0047,0.0754,0.1085,0.0049
128,0.0083,0.0715,0.1061,0.0051
129,0.0139,0.0734,0.1034,0.0055
130,0.0061,0.0764,0.1061,0.0044
131,0.0078,0.0844,0.0955,0.0538
132,0.0079,0.0795,0.0968,0.0468
133,0.0076,0.0735,0.0975,0.0404
134,0.0067,0.0682,0.0979,0.0345
135,0.0056,0.0619,0.0978,0.0291
136,0.0101,0.0678,0.0991,0.0051
137,0.0047,0.0582,0.0980,0.0244
138,0.0042,0.0572,0.0988,0.0199
139,0.0039,0.0574,0.0997,0.0157
140,0.0037,0.0589,0.1004,0.0115
141,0.0036,0.0615,0.1010,0.0076
142,0.0082,0.0859,0.1094,0.0044
143,0.0037,0.0659,0.1006,0.0050
144,0.0040,0.0673,0.0995,0.0083
145,0.0046,0.0688,0.0980,0.0126
146,0.0057,0.0704,0.0964,0.0172
147,0.0157,0.0737,0.0967,0.0054
148,0.0072,0.0714,0.0943,0.0222
149,0.0091,0.0735,0.0925,0.0277
150,0.0108,0.0767,0.0907,0.0336
151,0.0116,0.0769,0.0882,0.0398
152,0.0114,0.0748,0.0851,0.0459
153,0.0101,0.0724,0.0820,0.0517
154,0.0091,0.0921,0.1114,0.0044
155,0.0036,0.0642,0.1011,0.0047
156,0.0036,0.0642,0.1011,0.0047
157,0.0036,0.0642,0.1011,0.0047
158,0.0046,0.0678,0.0986,0.0043
159,0.0036,0.0642,0.1011,0.0047
160,0.0036,0.0642,0.1011,0.0047
161,0.0036,0.0642,0.1011,0.0047
162,0.0036,0.0642,0.1011,0.0047
163,0.0036,0.0642,0.1011,0.0047
164,0.0036,0.0642,0.1011,0.0047
165,0.0036,0.0642,0.1011,0.0047
166,0.0087,0.0922,0.1122,0.0045
167,0.0036,0.0642,0.1011,0.0047
168,0.0036,0.0642,0.1011,0.0047
169,0.0072,0.0809,0.0892,0.0552
170,0.0036,0.0642,0.1011,0.0047
171,0.0036,0.0642,0.1011,0.0047
172,0.0036,0.0642,0.1011,0.0047
173,0.0036,0.0642,0.1011,0.0047
174,0.0036,0.0642,0.1011,0.0047
175,0.0036,0.0642,0.1011,0.0047
176,0.0036,0.0642,0.1011,0.0047
177,0.0036,0.0642,0.1011,0.0047
178,0.0069,0.0880,0.1117,0.0045
179,0.0036,0.0642,0.1011,0.0047
180,0.0068,0.0761,0.0904,0.0482
181,0.0036,0.0642,0.1011,0.0047
182,0.0036,0.0642,0.1011,0.0047
183,0.0036,0.0642,0.1011,0.0047
184,0.0036,0.0642,0.1011,0.0047
185,0.0036,0.0642,0.1011,0.0047
186,0.0036,0.0642,0.1011,0.0047
187,0.0036,0.0642,0.1011,0.0047
188,0.0036,0.0642,0.1011,0.0047
189,0.0036,0.0642,0.1011,0.0047
190,0.0048,0.0814,0.1103,0.0047
191,0.0063,0.0700,0.0911,0.0415
192,0.0036,0.0642,0.1011,0.0047
193,0.0036,0.0642,0.1011,0.0047
194,0.0036,0.0642,0.1011,0.0047
195,0.0036,0.0642,0.1011,0.0047
196,0.0036,0.0642,0.1011,0.0047
197,0.0101,0.0688,0.0887,0.0072
198,0.0094,0.0661,0.0898,0.0066
199,0.0087,0.0633,0.0908,0.0061
200,0.0080,0.0617,0.0919,0.0057
201,0.0069,0.0880,0.1117,0.0045
202,0.0056,0.0645,0.0913,0.0354
203,0.0047,0.0754,0.1085,0.0049
204,0.0065,0.0593,0.0942,0.0051
205,0.0057,0.0586,0.0954,0.0049
206,0.0050,0.0597,0.0968,0.0048
207,0.0044,0.0606,0.0981,0.0048
208,0.0039,0.0617,0.0996,0.0047
209,0.0040,0.0683,0.1032,0.0046
210,0.0061,0.0764,0.1061,0.0044
211,0.0082,0.0859,0.1094,0.0044
212,0.0091,0.0921,0.1114,0.0044
213,0.0051,0.0581,0.0911,0.0297
214,0.0087,0.0922,0.1122,0.0045
215,0.0083,0.0715,0.1061,0.0051
216,0.0069,0.0880,0.1117,0.0045
217,0.0048,0.0814,0.1103,0.0047
218,0.0047,0.0754,0.1085,0.0049
219,0.0083,0.0715,0.1061,0.0051
220,0.0139,0.0734,0.1034,0.0055
221,0.0078,0.0844,0.0955,0.0538
222,0.0079,0.0795,0.0968,0.0468
223,0.0076,0.0735,0.0975,0.0404
224,0.0103,0.0838,0.1254,0.0057
225,0.0051,0.0540,0.0911,0.0247
226,0.0036,0.0340,0.0536,0.0049
227,0.0036,0.0340,0.0536,0.0049
228,0.0036,0.0340,0.0536,0.0049
229,0.0042,0.0374,0.0549,0.0049
230,0.0042,0.0374,0.0549,0.0049
231,0.0064,0.0442,0.0568,0.0048
232,0.0085,0.0522,0.0590,0.0047
233,0.0094,0.0561,0.0603,0.0047
234,0.0090,0.0552,0.0602,0.0048
235,0.0071,0.0501,0.0593,0.0048
236,0.0053,0.0526,0.0918,0.0201
237,0.0049,0.0433,0.0577,0.0049
238,0.0046,0.0417,0.0561,0.0051
239,0.0082,0.0484,0.0544,0.0054
240,0.0137,0.0640,0.0533,0.0057
241,0.0064,0.0442,0.0568,0.0048
242,0.0076,0.0480,0.0500,0.0266
243,0.0078,0.0445,0.0507,0.0234
244,0.0076,0.0418,0.0513,0.0209
245,0.0068,0.0381,0.0513,0.0190
246,0.0058,0.0359,0.0514,0.0173
247,0.0055,0.0518,0.0924,0.0156
248,0.0048,0.0339,0.0514,0.0158
249,0.0042,0.0325,0.0519,0.0140
250,0.0039,0.0316,0.0525,0.0118
251,0.0037,0.0310,0.0531,0.0093
252,0.0036,0.0324,0.0535,0.0069
253,0.0085,0.0522,0.0590,0.0047
254,0.0037,0.0356,0.0532,0.0046
255,0.0041,0.0368,0.0523,0.0060
256,0.0047,0.0376,0.0511,0.0081
257,0.0058,0.0384,0.0499,0.0104
258,0.0054,0.0524,0.0931,0.0114
259,0.0075,0.0392,0.0486,0.0128
260,0.0094,0.0410,0.0475,0.0153
261,0.0108,0.0419,0.0466,0.0180
262,0.0115,0.0413,0.0457,0.0208
263,0.0112,0.0397,0.0455,0.0238
264,0.0098,0.0414,0.0470,0.0267
265,0.0094,0.0561,0.0603,0.0047
266,0.0036,0.0340,0.0536,0.0049
267,0.0036,0.0340,0.0536,0.0049
268,0.0036,0.0340,0.0536,0.0049
269,0.0053,0.0541,0.0936,0.0075
270,0.0036,0.0340,0.0536,0.0049
271,0.0036,0.0340,0.0536,0.0049
272,0.0036,0.0340,0.0536,0.0049
273,0.0036,0.0340,0.0536,0.0049
274,0.0036,0.0340,0.0536,0.0049
275,0.0036,0.0340,0.0536,0.0049
276,0.0036,0.0340,0.0536,0.0049
277,0.0090,0.0552,0.0602,0.0048
278,0.0036,0.0340,0.0536,0.0049
279,0.0036,0.0340,0.0536,0.0049
280,0.0061,0.0773,0.1018,0.0042
281,0.0036,0.0340,0.0536,0.0049
282,0.0036,0.0340,0.0536,0.0049
283,0.0036,0.0340,0.0536,0.0049
284,0.0036,0.0340,0.0536,0.0049
285,0.0036,0.0340,0.0536,0.0049
286,0.0036,0.0340,0.0536,0.0049
287,0.0036,0.0340,0.0536,0.0049
288,0.0036,0.0340,0.0536,0.0049
289,0.0071,0.0501,0.0593,0.0048
290,0.0036,0.0340,0.0536,0.0049
291,0.0049,0.0567,0.0931,0.0049
292,0.0036,0.0340,0.0536,0.0049
293,0.0036,0.0340,0.0536,0.0049
294,0.0036,0.0340,0.0536,0.0049
295,0.0036,0.0340,0.0536,0.0049
296,0.0036,0.0340,0.0536,0.0049
297,0.0036,0.0340,0.0536,0.0049
298,0.0036,0.0340,0.0536,0.0049
299,0.0036,0.0340,0.0536,0.0049
300,0.0036,0.0340,0.0536,0.0049
301,0.0049,0.0433,0.0577,0.0049
302,0.0046,0.0574,0.0921,0.0084
303,0.0036,0.0340,0.0536,0.0049
304,0.0036,0.0340,0.0536,0.0049
305,0.0036,0.0340,0.0536,0.0049
306,0.0036,0.0340,0.0536,0.0049
307,0.0036,0.0340,0.0536,0.0049
308,0.0103,0.0466,0.0496,0.0059
309,0.0095,0.0424,0.0497,0.0053
310,0.0088,0.0392,0.0499,0.0049
311,0.0080,0.0370,0.0502,0.0046
312,0.0071,0.0501,0.0593,0.0048
313,0.0045,0.0580,0.0906,0.0126
314,0.0046,0.0417,0.0561,0.0051
315,0.0065,0.0335,0.0508,0.0045
316,0.0058,0.0326,0.0511,0.0045
317,0.0051,0.0322,0.0517,0.0046
318,0.0044,0.0327,0.0522,0.0048
319,0.0039,0.0332,0.0529,0.0049
320,0.0042,0.0374,0.0549,0.0049
321,0.0064,0.0442,0.0568,0.0048
322,0.0085,0.0522,0.0590,0.0047
323,0.0094,0.0561,0.0603,0.0047
324,0.0047,0.0591,0.0892,0.0172
325,0.0090,0.0552,0.0602,0.0048
326,0.0082,0.0484,0.0544,0.0054
327,0.0071,0.0501,0.0593,0.0048
328,0.0049,0.0433,0.0577,0.0049
329,0.0046,0.0417,0.0561,0.0051
330,0.0082,0.0484,0.0544,0.0054
331,0.0137,0.0640,0.0533,0.0057
332,0.0076,0.0480,0.0500,0.0266
333,0.0078,0.0445,0.0507,0.0234
334,0.0076,0.0418,0.0513,0.0209
335,0.0159,0.0847,0.1229,0.0062
336,0.0056,0.0597,0.0873,0.0221
337,0.0036,0.0224,0.0223,0.0054
338,0.0036,0.0224,0.0223,0.0054
339,0.0036,0.0224,0.0223,0.0054
340,0.0043,0.0226,0.0225,0.0053
341,0.0043,0.0226,0.0225,0.0053
342,0.0068,0.0262,0.0232,0.0052
343,0.0086,0.0307,0.0239,0.0051
344,0.0095,0.0331,0.0244,0.0051
345,0.0091,0.0321,0.0243,0.0051
346,0.0072,0.0279,0.0242,0.0052
347,0.0071,0.0615,0.0859,0.0275
348,0.0049,0.0277,0.0244,0.0053
349,0.0046,0.0373,0.0260,0.0056
350,0.0080,0.0546,0.0287,0.0059
351,0.0135,0.0773,0.0330,0.0064
352,0.0068,0.0262,0.0232,0.0052
353,0.0075,0.0356,0.0242,0.0162
354,0.0078,0.0334,0.0237,0.0170
355,0.0076,0.0330,0.0235,0.0179
356,0.0068,0.0332,0.0232,0.0186
357,0.0058,0.0339,0.0230,0.0187
358,0.0086,0.0647,0.0844,0.0333
359,0.0049,0.0340,0.0227,0.0181
360,0.0042,0.0326,0.0226,0.0165
361,0.0039,0.0298,0.0224,0.0141
362,0.0037,0.0261,0.0222,0.0112
363,0.0036,0.0239,0.0224,0.0082
364,0.0086,0.0307,0.0239,0.0051
365,0.0037,0.0220,0.0222,0.0042
366,0.0041,0.0221,0.0220,0.0053
367,0.0049,0.0222,0.0222,0.0075
368,0.0059,0.0225,0.0228,0.0095
369,0.0093,0.0651,0.0823,0.0393
370,0.0076,0.0229,0.0235,0.0111
371,0.0094,0.0234,0.0250,0.0122
372,0.0107,0.0233,0.0272,0.0128
373,0.0113,0.0241,0.0309,0.0132
374,0.0109,0.0277,0.0362,0.0134
375,0.0095,0.0391,0.0440,0.0138
376,0.0095,0.0331,0.0244,0.0051
377,0.0036,0.0224,0.0223,0.0054
378,0.0036,0.0224,0.0223,0.0054
379,0.0036,0.0224,0.0223,0.0054
380,0.0092,0.0639,0.0798,0.0453
381,0.0036,0.0224,0.0223,0.0054
382,0.0036,0.0224,0.0223,0.0054
383,0.0036,0.0224,0.0223,0.0054
384,0.0036,0.0224,0.0223,0.0054
385,0.0036,0.0224,0.0223,0.0054
386,0.0036,0.0224,0.0223,0.0054
387,0.0036,0.0224,0.0223,0.0054
388,0.0091,0.0321,0.0243,0.0051
389,0.0036,0.0224,0.0223,0.0054
390,0.0036,0.0224,0.0223,0.0054
391,0.0082,0.0640,0.0775,0.0510
392,0.0036,0.0224,0.0223,0.0054
393,0.0036,0.0224,0.0223,0.0054
394,0.0036,0.0224,0.0223,0.0054
395,0.0036,0.0224,0.0223,0.0054
396,0.0036,0.0224,0.0223,0.0054
397,0.0036,0.0224,0.0223,0.0054
398,0.0036,0.0224,0.0223,0.0054
399,0.0036,0.0224,0.0223,0.0054
400,0.0072,0.0279,0.0242,0.0052
401,0.0036,0.0224,0.0223,0.0054
402,0.0072,0.0832,0.1038,0.0042
403,0.0036,0.0224,0.0223,0.0054
404,0.0036,0.0224,0.0223,0.0054
405,0.0036,0.0224,0.0223,0.0054
406,0.0036,0.0224,0.0223,0.0054
407,0.0036,0.0224,0.0223,0.0054
408,0.0036,0.0224,0.0223,0.0054
409,0.0036,0.0224,0.0223,0.0054
410,0.0036,0.0224,0.0223,0.0054
411,0.0036,0.0224,0.0223,0.0054
412,0.0049,0.0277,0.0244,0.0053
413,0.0050,0.0559,0.0937,0.0045
414,0.0036,0.0224,0.0223,0.0054
415,0.0036,0.0224,0.0223,0.0054
416,0.0036,0.0224,0.0223,0.0054
417,0.0036,0.0224,0.0223,0.0054
418,0.0036,0.0224,0.0223,0.0054
419,0.0104,0.0314,0.0231,0.0052
420,0.0096,0.0281,0.0228,0.0048
421,0.0089,0.0250,0.0226,0.0045
422,0.0082,0.0232,0.0224,0.0044
423,0.0072,0.0279,0.0242,0.0052
424,0.0050,0.0559,0.0937,0.0045
425,0.0046,0.0373,0.0260,0.0056
426,0.0066,0.0220,0.0221,0.0045
427,0.0058,0.0220,0.0220,0.0047
428,0.0051,0.0222,0.0220,0.0050
429,0.0044,0.0225,0.0220,0.0051
430,0.0039,0.0227,0.0221,0.0053
431,0.0043,0.0226,0.0225,0.0053
432,0.0068,0.0262,0.0232,0.0052
433,0.0086,0.0307,0.0239,0.0051
434,0.0095,0.0331,0.0244,0.0051
435,0.0050,0.0559,0.0937,0.0045
436,0.0091,0.0321,0.0243,0.0051
437,0.0080,0.0546,0.0287,0.0059
438,0.0072,0.0279,0.0242,0.0052
439,0.0049,0.0277,0.0244,0.0053
440,0.0046,0.0373,0.0260,0.0056
441,0.0080,0.0546,0.0287,0.0059
442,0.0135,0.0773,0.0330,0.0064
443,0.0075,0.0356,0.0242,0.0162
444,0.0078,0.0334,0.0237,0.0170
445,0.0076,0.0330,0.0235,0.0179
446,0.0046,0.0840,0.1229,0.0045
447,0.0050,0.0559,0.0937,0.0045
448,0.0036,0.0250,0.0179,0.0056
449,0.0036,0.0250,0.0179,0.0056
450,0.0036,0.0250,0.0179,0.0056
451,0.0044,0.0229,0.0174,0.0055
452,0.0044,0.0229,0.0174,0.0055
453,0.0069,0.0235,0.0166,0.0053
454,0.0087,0.0261,0.0163,0.0052
455,0.0097,0.0281,0.0165,0.0052
456,0.0091,0.0272,0.0171,0.0052
457,0.0072,0.0255,0.0188,0.0053
458,0.0050,0.0559,0.0937,0.0045
459,0.0050,0.0301,0.0217,0.0055
460,0.0046,0.0437,0.0262,0.0058
461,0.0080,0.0630,0.0314,0.0062
462,0.0135,0.0859,0.0378,0.0068
463,0.0069,0.0235,0.0166,0.0053
464,0.0075,0.0391,0.0243,0.0193
465,0.0077,0.0366,0.0230,0.0206
466,0.0076,0.0371,0.0223,0.0215
467,0.0068,0.0381,0.0219,0.0221
468,0.0059,0.0395,0.0215,0.0219
469,0.0050,0.0559,0.0937,0.0045
470,0.0049,0.0395,0.0208,0.0209
471,0.0043,0.0381,0.0201,0.0189
472,0.0039,0.0350,0.0192,0.0160
473,0.0037,0.0306,0.0184,0.0125
474,0.0036,0.0276,0.0180,0.0089
475,0.0087,0.0261,0.0163,0.0052
476,0.0037,0.0236,0.0183,0.0041
477,0.0042,0.0226,0.0190,0.0057
478,0.0049,0.0223,0.0204,0.0083
479,0.0060,0.0224,0.0223,0.0109
480,0.0050,0.0559,0.0937,0.0045
481,0.0077,0.0224,0.0245,0.0128
482,0.0095,0.0227,0.0273,0.0142
483,0.0107,0.0234,0.0309,0.0149
484,0.0113,0.0256,0.0358,0.0151
485,0.0108,0.0319,0.0424,0.0151
486,0.0093,0.0459,0.0513,0.0152
487,0.0097,0.0281,0.0165,0.0052
488,0.0036,0.0250,0.0179,0.0056
489,0.0036,0.0250,0.0179,0.0056
490,0.0036,0.0250,0.0179,0.0056
491,0.0050,0.0559,0.0937,0.0045
492,0.0036,0.0250,0.0179,0.0056
493,0.0036,0.0250,0.0179,0.0056
494,0.0036,0.0250,0.0179,0.0056
495,0.0036,0.0250,0.0179,0.0056
496,0.0036,0.0250,0.0179,0.0056
497,0.0036,0.0250,0.0179,0.0056
498,0.0036,0.0250,0.0179,0.0056
499,0.0091,0.0272,0.0171,0.0052
500,0.0036,0.0250,0.0179,0.0056
501,0.0036,0.0250,0.0179,0.0056
502,0.0050,0.0559,0.0937,0.0045
503,0.0036,0.0250,0.0179,0.0056
504,0.0036,0.0250,0.0179,0.0056
505,0.0036,0.0250,0.0179,0.0056
506,0.0036,0.0250,0.0179,0.0056
507,0.0036,0.0250,0.0179,0.0056
508,0.0036,0.0250,0.0179,0.0056
509,0.0036,0.0250,0.0179,0.0056
510,0.0036,0.0250,0.0179,0.0056
511,0.0072,0.0255,0.0188,0.0053
512,0.0036,0.0250,0.0179,0.0056
513,0.0050,0.0559,0.0937,0.0045
514,0.0036,0.0250,0.0179,0.0056
515,0.0036,0.0250,0.0179,0.0056
516,0.0036,0.0250,0.0179,0.0056
517,0.0036,0.0250,0.0179,0.0056
518,0.0036,0.0250,0.0179,0.0056
519,0.0036,0.0250,0.0179,0.0056
520,0.0036,0.0250,0.0179,0.0056
521,0.0036,0.0250,0.0179,0.0056
522,0.0036,0.0250,0.0179,0.0056
523,0.0050,0.0301,0.0217,0.0055
524,0.0069,0.0833,0.1046,0.0043
525,0.0036,0.0250,0.0179,0.0056
526,0.0036,0.0250,0.0179,0.0056
527,0.0036,0.0250,0.0179,0.0056
528,0.0036,0.0250,0.0179,0.0056
529,0.0036,0.0250,0.0179,0.0056
530,0.0105,0.0269,0.0170,0.0050
531,0.0097,0.0239,0.0170,0.0046
532,0.0090,0.0219,0.0171,0.0044
533,0.0082,0.0214,0.0171,0.0043
534,0.0072,0.0255,0.0188,0.0053
535,0.0050,0.0559,0.0937,0.0045
536,0.0046,0.0437,0.0262,0.0058
537,0.0066,0.0226,0.0174,0.0046
538,0.0058,0.0235,0.0175,0.0049
539,0.0051,0.0243,0.0178,0.0051
540,0.0044,0.0250,0.0178,0.0053
541,0.0039,0.0253,0.0180,0.0055
542,0.0044,0.0229,0.0174,0.0055
543,0.0069,0.0235,0.0166,0.0053
544,0.0087,0.0261,0.0163,0.0052
545,0.0097,0.0281,0.0165,0.0052
546,0.0050,0.0559,0.0937,0.0045
547,0.0091,0.0272,0.0171,0.0052
548,0.0080,0.0630,0.0314,0.0062
549,0.0072,0.0255,0.0188,0.0053
550,0.0050,0.0301,0.0217,0.0055
551,0.0046,0.0437,0.0262,0.0058
552,0.0080,0.0630,0.0314,0.0062
553,0.0135,0.0859,0.0378,0.0068
554,0.0075,0.0391,0.0243,0.0193
555,0.0077,0.0366,0.0230,0.0206
556,0.0076,0.0371,0.0223,0.0215
557,0.0072,0.1013,0.1122,0.0698
558,0.0050,0.0559,0.0937,0.0045
559,0.0050,0.0559,0.0937,0.0045
560,0.0050,0.0559,0.0937,0.0045
561,0.0050,0.0559,0.0937,0.0045
562,0.0050,0.0559,0.0937,0.0045
563,0.0050,0.0559,0.0937,0.0045
564,0.0050,0.0559,0.0937,0.0045
565,0.0050,0.0559,0.0937,0.0045
566,0.0055,0.0793,0.1042,0.0044
567,0.0050,0.0559,0.0937,0.0045
568,0.0068,0.0951,0.1135,0.0613
569,0.0050,0.0559,0.0937,0.0045
570,0.0050,0.0559,0.0937,0.0045
571,0.0050,0.0559,0.0937,0.0045
572,0.0050,0.0559,0.0937,0.0045
573,0.0050,0.0559,0.0937,0.0045
574,0.0050,0.0559,0.0937,0.0045
575,0.0050,0.0559,0.0937,0.0045
576,0.0050,0.0559,0.0937,0.0045
577,0.0050,0.0559,0.0937,0.0045
578,0.0044,0.0733,0.1029,0.0046
579,0.0063,0.0879,0.1143,0.0530
580,0.0050,0.0559,0.0937,0.0045
581,0.0050,0.0559,0.0937,0.0045
582,0.0050,0.0559,0.0937,0.0045
583,0.0050,0.0559,0.0937,0.0045
584,0.0050,0.0559,0.0937,0.0045
585,0.0132,0.0567,0.0809,0.0067
586,0.0125,0.0544,0.0820,0.0061
587,0.0118,0.0521,0.0830,0.0057
588,0.0110,0.0509,0.0842,0.0053
589,0.0055,0.0793,0.1042,0.0044
590,0.0056,0.0809,0.1144,0.0453
591,0.0060,0.0687,0.1012,0.0048
592,0.0094,0.0496,0.0866,0.0048
593,0.0086,0.0491,0.0877,0.0047
594,0.0077,0.0506,0.0892,0.0046
595,0.0069,0.0519,0.0906,0.0046
596,0.0060,0.0532,0.0920,0.0045
597,0.0040,0.0597,0.0957,0.0044
598,0.0046,0.0678,0.0986,0.0043
599,0.0061,0.0773,0.1018,0.0042
600,0.0072,0.0832,0.1038,0.0042
601,0.0052,0.0736,0.1143,0.0380
602,0.0069,0.0833,0.1046,0.0043
603,0.0101,0.0678,0.0991,0.0051
604,0.0055,0.0793,0.1042,0.0044
605,0.0044,0.0733,0.1029,0.0046
606,0.0060,0.0687,0.1012,0.0048
607,0.0101,0.0678,0.0991,0.0051
608,0.0157,0.0737,0.0967,0.0054
609,0.0072,0.0809,0.0892,0.0552
610,0.0068,0.0761,0.0904,0.0482
611,0.0063,0.0700,0.0911,0.0415
612,0.0051,0.0714,0.1174,0.0048
613,0.0053,0.0686,0.1144,0.0315
614,0.0049,0.0292,0.0472,0.0046
615,0.0049,0.0292,0.0472,0.0046
616,0.0049,0.0292,0.0472,0.0046
617,0.0038,0.0315,0.0484,0.0045
618,0.0038,0.0315,0.0484,0.0045
619,0.0046,0.0373,0.0502,0.0043
620,0.0064,0.0447,0.0522,0.0042
621,0.0074,0.0481,0.0534,0.0042
622,0.0071,0.0474,0.0534,0.0042
623,0.0056,0.0431,0.0528,0.0043
624,0.0055,0.0669,0.1152,0.0256
625,0.0044,0.0389,0.0517,0.0044
626,0.0057,0.0419,0.0507,0.0045
627,0.0098,0.0535,0.0499,0.0047
628,0.0155,0.0723,0.0499,0.0050
629,0.0046,0.0373,0.0502,0.0043
630,0.0072,0.0462,0.0453,0.0275
631,0.0068,0.0430,0.0459,0.0241
632,0.0064,0.0404,0.0463,0.0211
633,0.0057,0.0371,0.0462,0.0189
634,0.0050,0.0354,0.0461,0.0170
635,0.0056,0.0668,0.1160,0.0199
636,0.0049,0.0339,0.0460,0.0153
637,0.0050,0.0325,0.0463,0.0134
638,0.0052,0.0310,0.0466,0.0112
639,0.0052,0.0292,0.0469,0.0087
640,0.0052,0.0291,0.0472,0.0064
641,0.0064,0.0447,0.0522,0.0042
642,0.0047,0.0296,0.0468,0.0045
643,0.0044,0.0299,0.0461,0.0061
644,0.0044,0.0301,0.0452,0.0083
645,0.0046,0.0305,0.0444,0.0107
646,0.0056,0.0672,0.1167,0.0143
647,0.0057,0.0310,0.0436,0.0130
648,0.0073,0.0324,0.0432,0.0154
649,0.0086,0.0333,0.0430,0.0180
650,0.0093,0.0340,0.0431,0.0207
651,0.0090,0.0358,0.0443,0.0234
652,0.0080,0.0435,0.0475,0.0262
653,0.0074,0.0481,0.0534,0.0042
654,0.0049,0.0292,0.0472,0.0046
655,0.0049,0.0292,0.0472,0.0046
656,0.0049,0.0292,0.0472,0.0046
657,0.0054,0.0694,0.1173,0.0091
658,0.0049,0.0292,0.0472,0.0046
659,0.0049,0.0292,0.0472,0.0046
660,0.0049,0.0292,0.0472,0.0046
661,0.0049,0.0292,0.0472,0.0046
662,0.0049,0.0292,0.0472,0.0046
663,0.0049,0.0292,0.0472,0.0046
664,0.0049,0.0292,0.0472,0.0046
665,0.0071,0.0474,0.0534,0.0042
666,0.0049,0.0292,0.0472,0.0046
667,0.0049,0.0292,0.0472,0.0046
668,0.0060,0.0942,0.1267,0.0045
669,0.0049,0.0292,0.0472,0.0046
670,0.0049,0.0292,0.0472,0.0046
671,0.0049,0.0292,0.0472,0.0046
672,0.0049,0.0292,0.0472,0.0046
673,0.0049,0.0292,0.0472,0.0046
674,0.0049,0.0292,0.0472,0.0046
675,0.0049,0.0292,0.0472,0.0046
676,0.0049,0.0292,0.0472,0.0046
677,0.0056,0.0431,0.0528,0.0043
678,0.0049,0.0292,0.0472,0.0046
679,0.0049,0.0727,0.1169,0.0051
680,0.0049,0.0292,0.0472,0.0046
681,0.0049,0.0292,0.0472,0.0046
682,0.0049,0.0292,0.0472,0.0046
683,0.0049,0.0292,0.0472,0.0046
684,0.0049,0.0292,0.0472,0.0046
685,0.0049,0.0292,0.0472,0.0046
686,0.0049,0.0292,0.0472,0.0046
687,0.0049,0.0292,0.0472,0.0046
688,0.0049,0.0292,0.0472,0.0046
689,0.0044,0.0389,0.0517,0.0044
690,0.0047,0.0733,0.1157,0.0097
691,0.0049,0.0292,0.0472,0.0046
692,0.0049,0.0292,0.0472,0.0046
693,0.0049,0.0292,0.0472,0.0046
694,0.0049,0.0292,0.0472,0.0046
695,0.0049,0.0292,0.0472,0.0046
696,0.0134,0.0360,0.0428,0.0055
697,0.0126,0.0325,0.0430,0.0050
698,0.0119,0.0304,0.0432,0.0047
699,0.0111,0.0291,0.0435,0.0045
700,0.0056,0.0431,0.0528,0.0043
701,0.0045,0.0742,0.1143,0.0152
702,0.0057,0.0419,0.0507,0.0045
703,0.0095,0.0276,0.0442,0.0044
704,0.0086,0.0273,0.0446,0.0044
705,0.0077,0.0274,0.0452,0.0045
706,0.0068,0.0282,0.0459,0.0046
707,0.0058,0.0286,0.0465,0.0046
708,0.0038,0.0315,0.0484,0.0045
709,0.0046,0.0373,0.0502,0.0043
710,0.0064,0.0447,0.0522,0.0042
711,0.0074,0.0481,0.0534,0.0042
712,0.0047,0.0748,0.1125,0.0211
713,0.0071,0.0474,0.0534,0.0042
714,0.0098,0.0535,0.0499,0.0047
715,0.0056,0.0431,0.0528,0.0043
716,0.0044,0.0389,0.0517,0.0044
717,0.0057,0.0419,0.0507,0.0045
718,0.0098,0.0535,0.0499,0.0047
719,0.0155,0.0723,0.0499,0.0050
720,0.0072,0.0462,0.0453,0.0275
721,0.0068,0.0430,0.0459,0.0241
722,0.0064,0.0404,0.0463,0.0211
723,0.0042,0.0756,0.1197,0.0047
724,0.0055,0.0758,0.1106,0.0275
725,0.0048,0.0263,0.0215,0.0050
726,0.0048,0.0263,0.0215,0.0050
727,0.0048,0.0263,0.0215,0.0050
728,0.0037,0.0241,0.0212,0.0048
729,0.0037,0.0241,0.0212,0.0048
730,0.0048,0.0240,0.0211,0.0046
731,0.0065,0.0267,0.0213,0.0045
732,0.0076,0.0284,0.0218,0.0044
733,0.0073,0.0280,0.0222,0.0044
734,0.0057,0.0271,0.0233,0.0045
735,0.0070,0.0784,0.1089,0.0343
736,0.0043,0.0324,0.0253,0.0046
737,0.0056,0.0460,0.0287,0.0047
738,0.0096,0.0653,0.0330,0.0050
739,0.0153,0.0893,0.0386,0.0054
740,0.0048,0.0240,0.0211,0.0046
741,0.0072,0.0373,0.0262,0.0150
742,0.0068,0.0350,0.0252,0.0157
743,0.0064,0.0351,0.0247,0.0165
744,0.0057,0.0360,0.0244,0.0172
745,0.0050,0.0373,0.0240,0.0173
746,0.0085,0.0820,0.1072,0.0416
747,0.0047,0.0378,0.0235,0.0168
748,0.0048,0.0370,0.0230,0.0154
749,0.0049,0.0348,0.0224,0.0131
750,0.0049,0.0311,0.0218,0.0104
751,0.0050,0.0286,0.0216,0.0075
752,0.0065,0.0267,0.0213,0.0045
753,0.0046,0.0251,0.0217,0.0042
754,0.0043,0.0243,0.0221,0.0057
755,0.0043,0.0241,0.0231,0.0080
756,0.0047,0.0244,0.0245,0.0101
757,0.0094,0.0832,0.1048,0.0492
758,0.0058,0.0246,0.0262,0.0118
759,0.0074,0.0250,0.0286,0.0129
760,0.0085,0.0264,0.0317,0.0136
761,0.0091,0.0300,0.0362,0.0139
762,0.0088,0.0372,0.0423,0.0141
763,0.0078,0.0522,0.0508,0.0145
764,0.0076,0.0284,0.0218,0.0044
765,0.0048,0.0263,0.0215,0.0050
766,0.0048,0.0263,0.0215,0.0050
767,0.0048,0.0263,0.0215,0.0050
768,0.0093,0.0823,0.1016,0.0566
769,0.0048,0.0263,0.0215,0.0050
770,0.0048,0.0263,0.0215,0.0050
771,0.0048,0.0263,0.0215,0.0050
772,0.0048,0.0263,0.0215,0.0050
773,0.0048,0.0263,0.0215,0.0050
774,0.0048,0.0263,0.0215,0.0050
775,0.0048,0.0263,0.0215,0.0050
776,0.0073,0.0280,0.0222,0.0044
777,0.0048,0.0263,0.0215,0.0050
778,0.0048,0.0263,0.0215,0.0050
779,0.0083,0.0810,0.0982,0.0637
780,0.0048,0.0263,0.0215,0.0050
781,0.0048,0.0263,0.0215,0.0050
782,0.0048,0.0263,0.0215,0.0050
783,0.0048,0.0263,0.0215,0.0050
784,0.0048,0.0263,0.0215,0.0050
785,0.0048,0.0263,0.0215,0.0050
786,0.0048,0.0263,0.0215,0.0050
787,0.0048,0.0263,0.0215,0.0050
788,0.0057,0.0271,0.0233,0.0045
789,0.0048,0.0263,0.0215,0.0050
790,0.0070,0.1010,0.1293,0.0045
791,0.0048,0.0263,0.0215,0.0050
792,0.0048,0.0263,0.0215,0.0050
793,0.0048,0.0263,0.0215,0.0050
794,0.0048,0.0263,0.0215,0.0050
795,0.0048,0.0263,0.0215,0.0050
796,0.0048,0.0263,0.0215,0.0050
797,0.0048,0.0263,0.0215,0.0050
798,0.0048,0.0263,0.0215,0.0050
799,0.0048,0.0263,0.0215,0.0050
800,0.0043,0.0324,0.0253,0.0046
801,0.0051,0.0714,0.1174,0.0048
802,0.0048,0.0263,0.0215,0.0050
803,0.0048,0.0263,0.0215,0.0050
804,0.0048,0.0263,0.0215,0.0050
805,0.0048,0.0263,0.0215,0.0050
806,0.0048,0.0263,0.0215,0.0050
807,0.0135,0.0241,0.0203,0.0049
808,0.0128,0.0227,0.0203,0.0045
809,0.0121,0.0222,0.0205,0.0044
810,0.0113,0.0227,0.0205,0.0043
811,0.0057,0.0271,0.0233,0.0045
812,0.0051,0.0714,0.1174,0.0048
813,0.0056,0.0460,0.0287,0.0047
814,0.0096,0.0248,0.0208,0.0045
815,0.0086,0.0258,0.0208,0.0047
816,0.0077,0.0264,0.0211,0.0048
817,0.0068,0.0269,0.0212,0.0049
818,0.0059,0.0270,0.0214,0.0050
819,0.0037,0.0241,0.0212,0.0048
820,0.0048,0.0240,0.0211,0.0046
821,0.0065,0.0267,0.0213,0.0045
822,0.0076,0.0284,0.0218,0.0044
823,0.0051,0.0714,0.1174,0.0048
824,0.0073,0.0280,0.0222,0.0044
825,0.0096,0.0653,0.0330,0.0050
826,0.0057,0.0271,0.0233,0.0045
827,0.0043,0.0324,0.0253,0.0046
828,0.0056,0.0460,0.0287,0.0047
829,0.0096,0.0653,0.0330,0.0050
830,0.0153,0.0893,0.0386,0.0054
831,0.0072,0.0373,0.0262,0.0150
832,0.0068,0.0350,0.0252,0.0157
833,0.0064,0.0351,0.0247,0.0165
834,0.0042,0.0756,0.1197,0.0047
835,0.0051,0.0714,0.1174,0.0048
836,0.0047,0.0316,0.0232,0.0051
837,0.0047,0.0316,0.0232,0.0051
838,0.0047,0.0316,0.0232,0.0051
839,0.0036,0.0280,0.0223,0.0049
840,0.0036,0.0280,0.0223,0.0049
841,0.0049,0.0252,0.0211,0.0047
842,0.0066,0.0257,0.0205,0.0045
843,0.0077,0.0264,0.0205,0.0045
844,0.0073,0.0267,0.0217,0.0045
845,0.0058,0.0293,0.0246,0.0045
846,0.0051,0.0714,0.1174,0.0048
847,0.0043,0.0381,0.0285,0.0047
848,0.0056,0.0541,0.0337,0.0049
849,0.0096,0.0746,0.0395,0.0052
850,0.0152,0.0984,0.0463,0.0056
851,0.0049,0.0252,0.0211,0.0047
852,0.0072,0.0419,0.0302,0.0174
853,0.0068,0.0394,0.0287,0.0187
854,0.0064,0.0403,0.0280,0.0197
855,0.0057,0.0418,0.0276,0.0204
856,0.0050,0.0434,0.0272,0.0203
857,0.0051,0.0714,0.1174,0.0048
858,0.0047,0.0443,0.0265,0.0195
859,0.0047,0.0437,0.0256,0.0177
860,0.0048,0.0410,0.0247,0.0149
861,0.0049,0.0371,0.0237,0.0117
862,0.0049,0.0344,0.0232,0.0082
863,0.0066,0.0257,0.0205,0.0045
864,0.0046,0.0302,0.0238,0.0042
865,0.0042,0.0288,0.0247,0.0061
866,0.0042,0.0286,0.0265,0.0089
867,0.0047,0.0292,0.0288,0.0115
868,0.0051,0.0714,0.1174,0.0048
869,0.0058,0.0292,0.0313,0.0136
870,0.0074,0.0298,0.0344,0.0151
871,0.0085,0.0319,0.0383,0.0159
872,0.0091,0.0364,0.0434,0.0162
873,0.0088,0.0449,0.0502,0.0163
874,0.0078,0.0611,0.0592,0.0164
875,0.0077,0.0264,0.0205,0.0045
876,0.0047,0.0316,0.0232,0.0051
877,0.0047,0.0316,0.0232,0.0051
878,0.0047,0.0316,0.0232,0.0051
879,0.0051,0.0714,0.1174,0.0048
880,0.0047,0.0316,0.0232,0.0051
881,0.0047,0.0316,0.0232,0.0051
882,0.0047,0.0316,0.0232,0.0051
883,0.0047,0.0316,0.0232,0.0051
884,0.0047,0.0316,0.0232,0.0051
885,0.0047,0.0316,0.0232,0.0051
886,0.0047,0.0316,0.0232,0.0051
887,0.0073,0.0267,0.0217,0.0045
888,0.0047,0.0316,0.0232,0.0051
889,0.0047,0.0316,0.0232,0.0051
890,0.0051,0.0714,0.1174,0.0048
891,0.0047,0.0316,0.0232,0.0051
892,0.0047,0.0316,0.0232,0.0051
893,0.0047,0.0316,0.0232,0.0051
894,0.0047,0.0316,0.0232,0.0051
895,0.0047,0.0316,0.0232,0.0051
896,0.0047,0.0316,0.0232,0.0051
897,0.0047,0.0316,0.0232,0.0051
898,0.0047,0.0316,0.0232,0.0051
899,0.0058,0.0293,0.0246,0.0045
900,0.0047,0.0316,0.0232,0.0051
901,0.0051,0.0714,0.1174,0.0048
902,0.0047,0.0316,0.0232,0.0051
903,0.0047,0.0316,0.0232,0.0051
904,0.0047,0.0316,0.0232,0.0051
905,0.0047,0.0316,0.0232,0.0051
906,0.0047,0.0316,0.0232,0.0051
907,0.0047,0.0316,0.0232,0.0051
908,0.0047,0.0316,0.0232,0.0051
909,0.0047,0.0316,0.0232,0.0051
910,0.0047,0.0316,0.0232,0.0051
911,0.0043,0.0381,0.0285,0.0047
912,0.0068,0.1024,0.1305,0.0046
913,0.0047,0.0316,0.0232,0.0051
914,0.0047,0.0316,0.0232,0.0051
915,0.0047,0.0316,0.0232,0.0051
916,0.0047,0.0316,0.0232,0.0051
917,0.0047,0.0316,0.0232,0.0051
918,0.0136,0.0223,0.0193,0.0048
919,0.0128,0.0221,0.0198,0.0045
920,0.0121,0.0233,0.0204,0.0043
921,0.0114,0.0251,0.0209,0.0043
922,0.0058,0.0293,0.0246,0.0045
923,0.0051,0.0714,0.1174,0.0048
924,0.0056,0.0541,0.0337,0.0049
925,0.0096,0.0290,0.0218,0.0046
926,0.0087,0.0304,0.0221,0.0048
927,0.0077,0.0313,0.0226,0.0050
928,0.0068,0.0322,0.0228,0.0051
929,0.0058,0.0323,0.0231,0.0051
930,0.0036,0.0280,0.0223,0.0049
931,0.0049,0.0252,0.0211,0.0047
932,0.0066,0.0257,0.0205,0.0045
933,0.0077,0.0264,0.0205,0.0045
934,0.0051,0.0714,0.1174,0.0048
935,0.0073,0.0267,0.0217,0.0045
936,0.0096,0.0746,0.0395,0.0052
937,0.0058,0.0293,0.0246,0.0045
938,0.0043,0.0381,0.0285,0.0047
939,0.0056,0.0541,0.0337,0.0049
940,0.0096,0.0746,0.0395,0.0052
941,0.0152,0.0984,0.0463,0.0056
942,0.0072,0.0419,0.0302,0.0174
943,0.0068,0.0394,0.0287,0.0187
944,0.0064,0.0403,0.0280,0.0197
945,0.0046,0.0840,0.1229,0.0045
946,0.0051,0.0714,0.1174,0.0048
947,0.0082,0.0651,0.1108,0.0049
948,0.0082,0.0651,0.1108,0.0049
949,0.0082,0.0651,0.1108,0.0049
950,0.0066,0.0692,0.1130,0.0049
951,0.0066,0.0692,0.1130,0.0049
952,0.0052,0.0775,0.1163,0.0048
953,0.0050,0.0876,0.1201,0.0049
954,0.0057,0.0940,0.1225,0.0050
955,0.0056,0.0954,0.1237,0.0052
956,0.0049,0.0922,0.1236,0.0054
957,0.0051,0.0714,0.1174,0.0048
958,0.0053,0.0866,0.1226,0.0058
959,0.0080,0.0822,0.1211,0.0061
960,0.0123,0.0803,0.1191,0.0065
961,0.0180,0.0842,0.1169,0.0069
962,0.0052,0.0775,0.1163,0.0048
963,0.0078,0.0985,0.1064,0.0717
964,0.0069,0.0926,0.1077,0.0630
965,0.0064,0.0854,0.1084,0.0546
966,0.0063,0.0782,0.1085,0.0466
967,0.0068,0.0707,0.1083,0.0391
968,0.0051,0.0714,0.1174,0.0048
969,0.0077,0.0655,0.1083,0.0323
970,0.0083,0.0634,0.1089,0.0262
971,0.0086,0.0627,0.1096,0.0204
972,0.0088,0.0624,0.1102,0.0146
973,0.0086,0.0639,0.1107,0.0094
974,0.0050,0.0876,0.1201,0.0049
975,0.0078,0.0657,0.1103,0.0050
976,0.0073,0.0658,0.1092,0.0096
977,0.0066,0.0662,0.1079,0.0150
978,0.0059,0.0663,0.1063,0.0209
979,0.0051,0.0714,0.1174,0.0048
980,0.0057,0.0670,0.1045,0.0272
981,0.0060,0.0693,0.1031,0.0339
982,0.0068,0.0729,0.1016,0.0411
983,0.0075,0.0742,0.0996,0.0485
984,0.0075,0.0741,0.0968,0.0558
985,0.0072,0.0747,0.0940,0.0629
986,0.0057,0.0940,0.1225,0.0050
987,0.0082,0.0651,0.1108,0.0049
988,0.0082,0.0651,0.1108,0.0049
989,0.0082,0.0651,0.1108,0.0049
990,0.0051,0.0714,0.1174,0.0048
991,0.0082,0.0651,0.1108,0.0049
992,0.0082,0.0651,0.1108,0.0049
993,0.0082,0.0651,0.1108,0.0049
994,0.0082,0.0651,0.1108,0.0049
995,0.0082,0.0651,0.1108,0.0049
996,0.0082,0.0651,0.1108,0.0049
997,0.0082,0.0651,0.1108,0.0049
998,0.0056,0.0954,0.1237,0.0052
999,0.0082,0.0651,0.1108,0.0049
1000,0.0082,0.0651,0.1108,0.0049
1001,0.0051,0.0714,0.1174,0.0048
1002,0.0082,0.0651,0.1108,0.0049
1003,0.0082,0.0651,0.1108,0.0049
1004,0.0082,0.0651,0.1108,0.0049
1005,0.0082,0.0651,0.1108,0.0049
1006,0.0082,0.0651,0.1108,0.0049
1007,0.0082,0.0651,0.1108,0.0049
1008,0.0082,0.0651,0.1108,0.0049
1009,0.0082,0.0651,0.1108,0.0049
1010,0.0049,0.0922,0.1236,0.0054
1011,0.0082,0.0651,0.1108,0.0049
1012,0.0051,0.0714,0.1174,0.0048
1013,0.0082,0.0651,0.1108,0.0049
1014,0.0082,0.0651,0.1108,0.0049
1015,0.0082,0.0651,0.1108,0.0049
1016,0.0082,0.0651,0.1108,0.0049
1017,0.0082,0.0651,0.1108,0.0049
1018,0.0082,0.0651,0.1108,0.0049
1019,0.0082,0.0651,0.1108,0.0049
1020,0.0082,0.0651,0.1108,0.0049
1021,0.0082,0.0651,0.1108,0.0049
1022,0.0053,0.0866,0.1226,0.0058
1023,0.0051,0.0714,0.1174,0.0048
1024,0.0082,0.0651,0.1108,0.0049
1025,0.0082,0.0651,0.1108,0.0049
1026,0.0082,0.0651,0.1108,0.0049
1027,0.0082,0.0651,0.1108,0.0049
1028,0.0082,0.0651,0.1108,0.0049
1029,0.0173,0.0584,0.0935,0.0071
1030,0.0165,0.0567,0.0951,0.0066
1031,0.0159,0.0555,0.0966,0.0061
1032,0.0151,0.0548,0.0982,0.0058
1033,0.0049,0.0922,0.1236,0.0054
1034,0.0055,0.0992,0.1304,0.0048
1035,0.0080,0.0822,0.1211,0.0061
1036,0.0134,0.0558,0.1016,0.0053
1037,0.0125,0.0559,0.1032,0.0052
1038,0.0115,0.0578,0.1050,0.0051
1039,0.0105,0.0601,0.1070,0.0050
1040,0.0094,0.0620,0.1088,0.0049
1041,0.0066,0.0692,0.1130,0.0049
1042,0.0052,0.0775,0.1163,0.0048
1043,0.0050,0.0876,0.1201,0.0049
1044,0.0057,0.0940,0.1225,0.0050
1045,0.0051,0.0714,0.1174,0.0048
1046,0.0056,0.0954,0.1237,0.0052
1047,0.0123,0.0803,0.1191,0.0065
1048,0.0049,0.0922,0.1236,0.0054
1049,0.0053,0.0866,0.1226,0.0058
1050,0.0080,0.0822,0.1211,0.0061
1051,0.0123,0.0803,0.1191,0.0065
1052,0.0180,0.0842,0.1169,0.0069
1053,0.0078,0.0985,0.1064,0.0717
1054,0.0069,0.0926,0.1077,0.0630
1055,0.0064,0.0854,0.1084,0.0546
1056,0.0060,0.0942,0.1267,0.0045
1057,0.0051,0.0714,0.1174,0.0048
1058,0.0081,0.0504,0.0873,0.0044
1059,0.0081,0.0504,0.0873,0.0044
1060,0.0081,0.0504,0.0873,0.0044
1061,0.0063,0.0540,0.0893,0.0044
1062,0.0063,0.0540,0.0893,0.0044
1063,0.0049,0.0616,0.0921,0.0044
1064,0.0050,0.0709,0.0953,0.0044
1065,0.0057,0.0765,0.0972,0.0045
1066,0.0056,0.0764,0.0980,0.0046
1067,0.0048,0.0727,0.0977,0.0048
1068,0.0051,0.0714,0.1174,0.0048
1069,0.0052,0.0675,0.0965,0.0050
1070,0.0078,0.0647,0.0951,0.0053
1071,0.0121,0.0668,0.0933,0.0055
1072,0.0178,0.0762,0.0913,0.0059
1073,0.0049,0.0616,0.0921,0.0044
1074,0.0078,0.0785,0.0838,0.0570
1075,0.0069,0.0738,0.0849,0.0498
1076,0.0064,0.0679,0.0855,0.0429
1077,0.0061,0.0624,0.0857,0.0366
1078,0.0066,0.0558,0.0853,0.0306
1079,0.0051,0.0714,0.1174,0.0048
1080,0.0074,0.0516,0.0853,0.0253
1081,0.0080,0.0499,0.0859,0.0206
1082,0.0085,0.0487,0.0864,0.0159
1083,0.0085,0.0485,0.0869,0.0116
1084,0.0085,0.0494,0.0873,0.0075
1085,0.0050,0.0709,0.0953,0.0044
1086,0.0077,0.0505,0.0868,0.0048
1087,0.0072,0.0505,0.0858,0.0083
1088,0.0065,0.0507,0.0846,0.0125
1089,0.0058,0.0515,0.0833,0.0171
1090,0.0051,0.0714,0.1174,0.0048
1091,0.0055,0.0517,0.0817,0.0219
1092,0.0060,0.0533,0.0805,0.0272
1093,0.0068,0.0565,0.0794,0.0329
1094,0.0075,0.0573,0.0777,0.0387
1095,0.0075,0.0575,0.0758,0.0446
1096,0.0072,0.0606,0.0744,0.0501
1097,0.0057,0.0765,0.0972,0.0045
1098,0.0081,0.0504,0.0873,0.0044
1099,0.0081,0.0504,0.0873,0.0044
1100,0.0081,0.0504,0.0873,0.0044
1101,0.0051,0.0714,0.1174,0.0048
1102,0.0081,0.0504,0.0873,0.0044
1103,0.0081,0.0504,0.0873,0.0044
1104,0.0081,0.0504,0.0873,0.0044
1105,0.0081,0.0504,0.0873,0.0044
1106,0.0081,0.0504,0.0873,0.0044
1107,0.0081,0.0504,0.0873,0.0044
1108,0.0081,0.0504,0.0873,0.0044
1109,0.0056,0.0764,0.0980,0.0046
1110,0.0081,0.0504,0.0873,0.0044
1111,0.0081,0.0504,0.0873,0.0044
1112,0.0051,0.0714,0.1174,0.0048
1113,0.0081,0.0504,0.0873,0.0044
1114,0.0081,0.0504,0.0873,0.0044
1115,0.0081,0.0504,0.0873,0.0044
1116,0.0081,0.0504,0.0873,0.0044
1117,0.0081,0.0504,0.0873,0.0044
1118,0.0081,0.0504,0.0873,0.0044
1119,0.0081,0.0504,0.0873,0.0044
1120,0.0081,0.0504,0.0873,0.0044
1121,0.0048,0.0727,0.0977,0.0048
1122,0.0081,0.0504,0.0873,0.0044
1123,0.0051,0.0714,0.1174,0.0048
1124,0.0081,0.0504,0.0873,0.0044
1125,0.0081,0.0504,0.0873,0.0044
1126,0.0081,0.0504,0.0873,0.0044
1127,0.0081,0.0504,0.0873,0.0044
1128,0.0081,0.0504,0.0873,0.0044
1129,0.0081,0.0504,0.0873,0.0044
1130,0.0081,0.0504,0.0873,0.0044
1131,0.0081,0.0504,0.0873,0.0044
1132,0.0081,0.0504,0.0873,0.0044
1133,0.0052,0.0675,0.0965,0.0050
1134,0.0051,0.0714,0.1174,0.0048
1135,0.0081,0.0504,0.0873,0.0044
1136,0.0081,0.0504,0.0873,0.0044
1137,0.0081,0.0504,0.0873,0.0044
1138,0.0081,0.0504,0.0873,0.0044
1139,0.0081,0.0504,0.0873,0.0044
1140,0.0173,0.0477,0.0743,0.0063
1141,0.0166,0.0458,0.0754,0.0058
1142,0.0159,0.0442,0.0764,0.0054
1143,0.0151,0.0436,0.0777,0.0051
1144,0.0048,0.0727,0.0977,0.0048
1145,0.0051,0.0714,0.1174,0.0048
1146,0.0078,0.0647,0.0951,0.0053
1147,0.0134,0.0432,0.0801,0.0047
1148,0.0125,0.0432,0.0813,0.0046
1149,0.0114,0.0449,0.0828,0.0045
1150,0.0104,0.0465,0.0843,0.0045
1151,0.0093,0.0479,0.0857,0.0045
1152,0.0063,0.0540,0.0893,0.0044
1153,0.0049,0.0616,0.0921,0.0044
1154,0.0050,0.0709,0.0953,0.0044
1155,0.0057,0.0765,0.0972,0.0045
1156,0.0045,0.0932,0.1293,0.0051
1157,0.0056,0.0764,0.0980,0.0046
1158,0.0121,0.0668,0.0933,0.0055
1159,0.0048,0.0727,0.0977,0.0048
1160,0.0052,0.0675,0.0965,0.0050
1161,0.0078,0.0647,0.0951,0.0053
1162,0.0121,0.0668,0.0933,0.0055
1163,0.0178,0.0762,0.0913,0.0059
1164,0.0078,0.0785,0.0838,0.0570
1165,0.0069,0.0738,0.0849,0.0498
1166,0.0064,0.0679,0.0855,0.0429
1167,0.0070,0.1010,0.1293,0.0045
1168,0.0051,0.0714,0.1174,0.0048
1169,0.0078,0.0280,0.0426,0.0042
1170,0.0078,0.0280,0.0426,0.0042
1171,0.0078,0.0280,0.0426,0.0042
1172,0.0058,0.0289,0.0435,0.0041
1173,0.0058,0.0289,0.0435,0.0041
1174,0.0044,0.0331,0.0451,0.0040
1175,0.0050,0.0394,0.0469,0.0041
1176,0.0058,0.0425,0.0480,0.0041
1177,0.0057,0.0418,0.0481,0.0041
1178,0.0048,0.0387,0.0478,0.0042
1179,0.0051,0.0714,0.1174,0.0048
1180,0.0049,0.0376,0.0473,0.0043
1181,0.0074,0.0449,0.0471,0.0044
1182,0.0118,0.0599,0.0474,0.0045
1183,0.0174,0.0809,0.0486,0.0046
1184,0.0044,0.0331,0.0451,0.0040
1185,0.0079,0.0452,0.0422,0.0288
1186,0.0068,0.0421,0.0425,0.0251
1187,0.0062,0.0398,0.0427,0.0218
1188,0.0059,0.0368,0.0425,0.0191
1189,0.0061,0.0355,0.0424,0.0169
1190,0.0051,0.0714,0.1174,0.0048
1191,0.0068,0.0346,0.0421,0.0149
1192,0.0075,0.0334,0.0422,0.0129
1193,0.0080,0.0319,0.0423,0.0106
1194,0.0081,0.0296,0.0424,0.0081
1195,0.0082,0.0287,0.0426,0.0058
1196,0.0050,0.0394,0.0469,0.0041
1197,0.0075,0.0277,0.0423,0.0045
1198,0.0069,0.0275,0.0417,0.0063
1199,0.0062,0.0275,0.0412,0.0086
1200,0.0056,0.0279,0.0408,0.0109
1201,0.0051,0.0714,0.1174,0.0048
1202,0.0053,0.0284,0.0406,0.0132
1203,0.0060,0.0294,0.0407,0.0155
1204,0.0069,0.0310,0.0413,0.0179
1205,0.0075,0.0334,0.0425,0.0204
1206,0.0074,0.0384,0.0449,0.0231
1207,0.0071,0.0502,0.0496,0.0257
1208,0.0058,0.0425,0.0480,0.0041
1209,0.0078,0.0280,0.0426,0.0042
1210,0.0078,0.0280,0.0426,0.0042
1211,0.0078,0.0280,0.0426,0.0042
1212,0.0051,0.0714,0.1174,0.0048
1213,0.0078,0.0280,0.0426,0.0042
1214,0.0078,0.0280,0.0426,0.0042
1215,0.0078,0.0280,0.0426,0.0042
1216,0.0078,0.0280,0.0426,0.0042
1217,0.0078,0.0280,0.0426,0.0042
1218,0.0078,0.0280,0.0426,0.0042
1219,0.0078,0.0280,0.0426,0.0042
1220,0.0057,0.0418,0.0481,0.0041
1221,0.0078,0.0280,0.0426,0.0042
1222,0.0078,0.0280,0.0426,0.0042
1223,0.0131,0.0680,0.1005,0.0075
1224,0.0078,0.0280,0.0426,0.0042
1225,0.0078,0.0280,0.0426,0.0042
1226,0.0078,0.0280,0.0426,0.0042
1227,0.0078,0.0280,0.0426,0.0042
1228,0.0078,0.0280,0.0426,0.0042
1229,0.0078,0.0280,0.0426,0.0042
1230,0.0078,0.0280,0.0426,0.0042
1231,0.0078,0.0280,0.0426,0.0042
1232,0.0048,0.0387,0.0478,0.0042
1233,0.0078,0.0280,0.0426,0.0042
1234,0.0124,0.0658,0.1020,0.0070
1235,0.0078,0.0280,0.0426,0.0042
1236,0.0078,0.0280,0.0426,0.0042
1237,0.0078,0.0280,0.0426,0.0042
1238,0.0078,0.0280,0.0426,0.0042
1239,0.0078,0.0280,0.0426,0.0042
1240,0.0078,0.0280,0.0426,0.0042
1241,0.0078,0.0280,0.0426,0.0042
1242,0.0078,0.0280,0.0426,0.0042
1243,0.0078,0.0280,0.0426,0.0042
1244,0.0049,0.0376,0.0473,0.0043
1245,0.0117,0.0641,0.1035,0.0064
1246,0.0078,0.0280,0.0426,0.0042
1247,0.0078,0.0280,0.0426,0.0042
1248,0.0078,0.0280,0.0426,0.0042
1249,0.0078,0.0280,0.0426,0.0042
1250,0.0078,0.0280,0.0426,0.0042
1251,0.0175,0.0290,0.0376,0.0052
1252,0.0168,0.0269,0.0378,0.0048
1253,0.0160,0.0261,0.0382,0.0045
1254,0.0152,0.0259,0.0386,0.0044
1255,0.0048,0.0387,0.0478,0.0042
1256,0.0110,0.0630,0.1050,0.0060
1257,0.0074,0.0449,0.0471,0.0044
1258,0.0134,0.0262,0.0395,0.0043
1259,0.0124,0.0264,0.0399,0.0043
1260,0.0114,0.0267,0.0405,0.0043
1261,0.0103,0.0274,0.0412,0.0043
1262,0.0091,0.0278,0.0419,0.0043
1263,0.0058,0.0289,0.0435,0.0041
1264,0.0044,0.0331,0.0451,0.0040
1265,0.0050,0.0394,0.0469,0.0041
1266,0.0058,0.0425,0.0480,0.0041
1267,0.0055,0.0992,0.1304,0.0048
1268,0.0057,0.0418,0.0481,0.0041
1269,0.0118,0.0599,0.0474,0.0045
1270,0.0048,0.0387,0.0478,0.0042
1271,0.0049,0.0376,0.0473,0.0043
1272,0.0074,0.0449,0.0471,0.0044
1273,0.0118,0.0599,0.0474,0.0045
1274,0.0174,0.0809,0.0486,0.0046
1275,0.0079,0.0452,0.0422,0.0288
1276,0.0068,0.0421,0.0425,0.0251
1277,0.0062,0.0398,0.0427,0.0218
1278,0.0068,0.1024,0.1305,0.0046
1279,0.0061,0.0877,0.1277,0.0054
1280,0.0076,0.0312,0.0241,0.0044
1281,0.0076,0.0312,0.0241,0.0044
1282,0.0076,0.0312,0.0241,0.0044
1283,0.0054,0.0278,0.0235,0.0043
1284,0.0054,0.0278,0.0235,0.0043
1285,0.0041,0.0250,0.0228,0.0041
1286,0.0050,0.0259,0.0226,0.0040
1287,0.0059,0.0269,0.0229,0.0040
1288,0.0058,0.0274,0.0238,0.0041
1289,0.0048,0.0299,0.0260,0.0041
1290,0.0094,0.0631,0.1083,0.0054
1291,0.0047,0.0389,0.0293,0.0041
1292,0.0072,0.0548,0.0337,0.0042
1293,0.0115,0.0752,0.0390,0.0043
1294,0.0172,0.1000,0.0453,0.0046
1295,0.0041,0.0250,0.0228,0.0041
1296,0.0079,0.0388,0.0301,0.0141
1297,0.0068,0.0364,0.0288,0.0144
1298,0.0062,0.0368,0.0282,0.0150
1299,0.0058,0.0381,0.0278,0.0156
1300,0.0058,0.0397,0.0274,0.0158
1301,0.0086,0.0629,0.1098,0.0052
1302,0.0064,0.0409,0.0268,0.0153
1303,0.0071,0.0407,0.0261,0.0140
1304,0.0075,0.0389,0.0253,0.0119
1305,0.0077,0.0356,0.0245,0.0093
1306,0.0078,0.0333,0.0241,0.0066
1307,0.0050,0.0259,0.0226,0.0040
1308,0.0073,0.0301,0.0245,0.0043
1309,0.0066,0.0294,0.0253,0.0063
1310,0.0059,0.0297,0.0268,0.0087
1311,0.0053,0.0305,0.0288,0.0108
1312,0.0078,0.0644,0.1117,0.0051
1313,0.0052,0.0310,0.0310,0.0126
1314,0.0060,0.0318,0.0338,0.0138
1315,0.0069,0.0342,0.0373,0.0145
1316,0.0074,0.0393,0.0421,0.0148
1317,0.0073,0.0480,0.0486,0.0150
1318,0.0071,0.0645,0.0574,0.0153
1319,0.0059,0.0269,0.0229,0.0040
1320,0.0076,0.0312,0.0241,0.0044
1321,0.0076,0.0312,0.0241,0.0044
1322,0.0076,0.0312,0.0241,0.0044
1323,0.0069,0.0665,0.1136,0.0050
1324,0.0076,0.0312,0.0241,0.0044
1325,0.0076,0.0312,0.0241,0.0044
1326,0.0076,0.0312,0.0241,0.0044
1327,0.0076,0.0312,0.0241,0.0044
1328,0.0076,0.0312,0.0241,0.0044
1329,0.0076,0.0312,0.0241,0.0044
1330,0.0076,0.0312,0.0241,0.0044
1331,0.0058,0.0274,0.0238,0.0041
1332,0.0076,0.0312,0.0241,0.0044
1333,0.0076,0.0312,0.0241,0.0044
1334,0.0060,0.0683,0.1155,0.0049
1335,0.0076,0.0312,0.0241,0.0044
1336,0.0076,0.0312,0.0241,0.0044
1337,0.0076,0.0312,0.0241,0.0044
1338,0.0076,0.0312,0.0241,0.0044
1339,0.0076,0.0312,0.0241,0.0044
1340,0.0076,0.0312,0.0241,0.0044
1341,0.0076,0.0312,0.0241,0.0044
1342,0.0076,0.0312,0.0241,0.0044
1343,0.0048,0.0299,0.0260,0.0041
1344,0.0076,0.0312,0.0241,0.0044
1345,0.0042,0.0756,0.1197,0.0047
1346,0.0076,0.0312,0.0241,0.0044
1347,0.0076,0.0312,0.0241,0.0044
1348,0.0076,0.0312,0.0241,0.0044
1349,0.0076,0.0312,0.0241,0.0044
1350,0.0076,0.0312,0.0241,0.0044
1351,0.0076,0.0312,0.0241,0.0044
1352,0.0076,0.0312,0.0241,0.0044
1353,0.0076,0.0312,0.0241,0.0044
1354,0.0076,0.0312,0.0241,0.0044
1355,0.0047,0.0389,0.0293,0.0041
1356,0.0046,0.0840,0.1229,0.0045
1357,0.0076,0.0312,0.0241,0.0044
1358,0.0076,0.0312,0.0241,0.0044
1359,0.0076,0.0312,0.0241,0.0044
1360,0.0076,0.0312,0.0241,0.0044
1361,0.0076,0.0312,0.0241,0.0044
1362,0.0177,0.0224,0.0212,0.0047
1363,0.0169,0.0230,0.0216,0.0044
1364,0.0162,0.0247,0.0220,0.0043
1365,0.0153,0.0265,0.0224,0.0043
1366,0.0048,0.0299,0.0260,0.0041
1367,0.0060,0.0942,0.1267,0.0045
1368,0.0072,0.0548,0.0337,0.0042
1369,0.0135,0.0298,0.0230,0.0044
1370,0.0124,0.0310,0.0232,0.0045
1371,0.0113,0.0316,0.0236,0.0045
1372,0.0102,0.0320,0.0238,0.0045
1373,0.0090,0.0320,0.0240,0.0045
1374,0.0054,0.0278,0.0235,0.0043
1375,0.0041,0.0250,0.0228,0.0041
1376,0.0050,0.0259,0.0226,0.0040
1377,0.0059,0.0269,0.0229,0.0040
1378,0.0070,0.1010,0.1293,0.0045
1379,0.0058,0.0274,0.0238,0.0041
1380,0.0115,0.0752,0.0390,0.0043
1381,0.0048,0.0299,0.0260,0.0041
1382,0.0047,0.0389,0.0293,0.0041
1383,0.0072,0.0548,0.0337,0.0042
1384,0.0115,0.0752,0.0390,0.0043
1385,0.0172,0.1000,0.0453,0.0046
1386,0.0079,0.0388,0.0301,0.0141
1387,0.0068,0.0364,0.0288,0.0144
1388,0.0062,0.0368,0.0282,0.0150
1389,0.0055,0.0992,0.1304,0.0048
1390,0.0068,0.1024,0.1305,0.0046
1391,0.0075,0.0375,0.0296,0.0045
1392,0.0075,0.0375,0.0296,0.0045
1393,0.0075,0.0375,0.0296,0.0045
1394,0.0052,0.0331,0.0287,0.0043
1395,0.0052,0.0331,0.0287,0.0043
1396,0.0041,0.0290,0.0274,0.0041
1397,0.0050,0.0280,0.0267,0.0041
1398,0.0060,0.0281,0.0269,0.0041
1399,0.0058,0.0295,0.0284,0.0041
1400,0.0048,0.0353,0.0317,0.0041
1401,0.0103,0.0838,0.1254,0.0057
1402,0.0047,0.0464,0.0361,0.0041
1403,0.0071,0.0638,0.0416,0.0042
1404,0.0114,0.0852,0.0477,0.0044
1405,0.0170,0.1096,0.0547,0.0047
1406,0.0041,0.0290,0.0274,0.0041
1407,0.0079,0.0442,0.0366,0.0153
1408,0.0068,0.0416,0.0350,0.0166
1409,0.0062,0.0427,0.0343,0.0177
1410,0.0058,0.0444,0.0340,0.0185
1411,0.0057,0.0465,0.0336,0.0185
1412,0.0055,0.0992,0.1304,0.0048
1413,0.0062,0.0475,0.0328,0.0178
1414,0.0069,0.0474,0.0320,0.0161
1415,0.0074,0.0454,0.0310,0.0136
1416,0.0076,0.0421,0.0300,0.0105
1417,0.0078,0.0398,0.0296,0.0072
1418,0.0050,0.0280,0.0267,0.0041
1419,0.0072,0.0366,0.0303,0.0044
1420,0.0065,0.0356,0.0314,0.0068
1421,0.0058,0.0358,0.0333,0.0097
1422,0.0053,0.0372,0.0357,0.0124
1423,0.0045,0.0932,0.1293,0.0051
1424,0.0052,0.0377,0.0384,0.0146
1425,0.0060,0.0390,0.0415,0.0161
1426,0.0069,0.0419,0.0455,0.0170
1427,0.0074,0.0474,0.0507,0.0174
1428,0.0073,0.0570,0.0575,0.0176
1429,0.0072,0.0742,0.0666,0.0178
1430,0.0060,0.0281,0.0269,0.0041
1431,0.0075,0.0375,0.0296,0.0045
1432,0.0075,0.0375,0.0296,0.0045
1433,0.0075,0.0375,0.0296,0.0045
1434,0.0061,0.0877,0.1277,0.0054
1435,0.0075,0.0375,0.0296,0.0045
1436,0.0075,0.0375,0.0296,0.0045
1437,0.0075,0.0375,0.0296,0.0045
1438,0.0075,0.0375,0.0296,0.0045
1439,0.0075,0.0375,0.0296,0.0045
1440,0.0075,0.0375,0.0296,0.0045
1441,0.0075,0.0375,0.0296,0.0045
1442,0.0058,0.0295,0.0284,0.0041
1443,0.0075,0.0375,0.0296,0.0045
1444,0.0075,0.0375,0.0296,0.0045
1445,0.0103,0.0838,0.1254,0.0057
1446,0.0075,0.0375,0.0296,0.0045
1447,0.0075,0.0375,0.0296,0.0045
1448,0.0075,0.0375,0.0296,0.0045
1449,0.0075,0.0375,0.0296,0.0045
1450,0.0075,0.0375,0.0296,0.0045
1451,0.0075,0.0375,0.0296,0.0045
1452,0.0075,0.0375,0.0296,0.0045
1453,0.0075,0.0375,0.0296,0.0045
1454,0.0048,0.0353,0.0317,0.0041
1455,0.0075,0.0375,0.0296,0.0045
1456,0.0159,0.0847,0.1229,0.0062
1457,0.0075,0.0375,0.0296,0.0045
1458,0.0075,0.0375,0.0296,0.0045
1459,0.0075,0.0375,0.0296,0.0045
1460,0.0075,0.0375,0.0296,0.0045
1461,0.0075,0.0375,0.0296,0.0045
1462,0.0075,0.0375,0.0296,0.0045
1463,0.0075,0.0375,0.0296,0.0045
1464,0.0075,0.0375,0.0296,0.0045
1465,0.0075,0.0375,0.0296,0.0045
1466,0.0047,0.0464,0.0361,0.0041
1467,0.0072,0.1013,0.1122,0.0698
1468,0.0075,0.0375,0.0296,0.0045
1469,0.0075,0.0375,0.0296,0.0045
1470,0.0075,0.0375,0.0296,0.0045
1471,0.0075,0.0375,0.0296,0.0045
1472,0.0075,0.0375,0.0296,0.0045
1473,0.0177,0.0236,0.0244,0.0046
1474,0.0170,0.0256,0.0252,0.0044
1475,0.0162,0.0285,0.0260,0.0043
1476,0.0154,0.0310,0.0267,0.0043
1477,0.0048,0.0353,0.0317,0.0041
1478,0.0068,0.0951,0.1135,0.0613
1479,0.0071,0.0638,0.0416,0.0042
1480,0.0135,0.0354,0.0279,0.0045
1481,0.0124,0.0367,0.0282,0.0046
1482,0.0113,0.0374,0.0288,0.0047
1483,0.0102,0.0383,0.0291,0.0047
1484,0.0090,0.0384,0.0295,0.0046
1485,0.0052,0.0331,0.0287,0.0043
1486,0.0041,0.0290,0.0274,0.0041
1487,0.0050,0.0280,0.0267,0.0041
1488,0.0060,0.0281,0.0269,0.0041
1489,0.0063,0.0879,0.1143,0.0530
1490,0.0058,0.0295,0.0284,0.0041
1491,0.0114,0.0852,0.0477,0.0044
1492,0.0048,0.0353,0.0317,0.0041
1493,0.0047,0.0464,0.0361,0.0041
1494,0.0071,0.0638,0.0416,0.0042
1495,0.0114,0.0852,0.0477,0.0044
1496,0.0170,0.1096,0.0547,0.0047
1497,0.0079,0.0442,0.0366,0.0153
1498,0.0068,0.0416,0.0350,0.0166
1499,0.0062,0.0427,0.0343,0.0177
1500,0.0100,0.0819,0.1253,0.0044
1501,0.0100,0.0819,0.1253,0.0044
1502,0.0088,0.1041,0.1377,0.0059
1503,0.0208,0.0786,0.0791,0.0640
1504,0.0075,0.0421,0.0449,0.0042
1505,0.0077,0.0352,0.0295,0.0041
1506,0.0075,0.0421,0.0449,0.0042
1507,0.0063,0.0397,0.0471,0.0039
1508,0.0073,0.0504,0.0598,0.0044
1509,0.0075,0.0421,0.0449,0.0042
1510,0.0075,0.0421,0.0449,0.0042
1511,0.0077,0.0352,0.0295,0.0041
1512,0.0075,0.0421,0.0449,0.0042
1513,0.0073,0.0504,0.0598,0.0044
1514,0.0202,0.0750,0.0839,0.0619
1515,0.0077,0.0352,0.0295,0.0041
1516,0.0075,0.0421,0.0449,0.0042
1517,0.0075,0.0421,0.0449,0.0042
1518,0.0077,0.0352,0.0295,0.0041
1519,0.0057,0.0600,0.0667,0.0041
1520,0.0075,0.0421,0.0449,0.0042
1521,0.0077,0.0352,0.0295,0.0041
1522,0.0075,0.0421,0.0449,0.0042
1523,0.0075,0.0421,0.0449,0.0042
1524,0.0073,0.0504,0.0598,0.0044
1525,0.0194,0.0744,0.0886,0.0603
1526,0.0180,0.0322,0.0408,0.0040
1527,0.0172,0.0336,0.0414,0.0038
1528,0.0166,0.0290,0.0275,0.0036
1529,0.0154,0.0377,0.0425,0.0038
1530,0.0063,0.0488,0.0631,0.0040
1531,0.0073,0.0557,0.0397,0.0040
1532,0.0134,0.0412,0.0435,0.0041
1533,0.0123,0.0423,0.0438,0.0042
1534,0.0114,0.0355,0.0291,0.0041
1535,0.0099,0.0515,0.0592,0.0045
1536,0.0183,0.0757,0.0930,0.0591
1537,0.0089,0.0430,0.0448,0.0043
1538,0.0058,0.0320,0.0285,0.0039
1539,0.0054,0.0349,0.0432,0.0039
1540,0.0066,0.0338,0.0428,0.0039
1541,0.0075,0.0404,0.0589,0.0040
1542,0.0074,0.0349,0.0443,0.0039
1543,0.0110,0.0865,0.0612,0.0043
1544,0.0065,0.0335,0.0307,0.0039
1545,0.0057,0.0496,0.0508,0.0040
1546,0.0072,0.0768,0.0713,0.0042
1547,0.0175,0.0770,0.0972,0.0581
1548,0.0109,0.0759,0.0454,0.0041
1549,0.0163,0.1108,0.0676,0.0046
1550,0.0080,0.0513,0.0509,0.0204
1551,0.0070,0.0413,0.0348,0.0150
1552,0.0064,0.0582,0.0639,0.0265
1553,0.0157,0.0394,0.0623,0.0236
1554,0.0151,0.0410,0.0633,0.0263
1555,0.0146,0.0502,0.0645,0.0290
1556,0.0137,0.0626,0.0659,0.0312
1557,0.0131,0.0735,0.0670,0.0329
1558,0.0099,0.0679,0.1029,0.0040
1559,0.0050,0.0729,0.1205,0.0050
1560,0.0050,0.0729,0.1205,0.0050
1561,0.0051,0.0714,0.1174,0.0048
1562,0.0041,0.0764,0.1226,0.0048
1563,0.0041,0.0790,0.1274,0.0050
1564,0.0046,0.0841,0.1229,0.0045
1565,0.0061,0.0931,0.1293,0.0046
1566,0.0071,0.0994,0.1318,0.0046
1567,0.0068,0.1025,0.1305,0.0046
1568,0.0055,0.0999,0.1378,0.0049
1569,0.0099,0.0679,0.1029,0.0040
1570,0.0045,0.0942,0.1324,0.0051
1571,0.0061,0.0877,0.1277,0.0054
1572,0.0104,0.0896,0.1297,0.0058
1573,0.0160,0.0937,0.1279,0.0063
1574,0.0047,0.0853,0.1302,0.0048
1575,0.0073,0.1028,0.1161,0.0710
1576,0.0069,0.0969,0.1173,0.0626
1577,0.0063,0.0879,0.1143,0.0530
1578,0.0057,0.0834,0.1181,0.0469
1579,0.0052,0.0812,0.1233,0.0415
1580,0.0099,0.0679,0.1029,0.0040
1581,0.0053,0.0687,0.1144,0.0315
1582,0.0053,0.0703,0.1186,0.0270
1583,0.0054,0.0698,0.1193,0.0211
1584,0.0056,0.0671,0.1167,0.0143
1585,0.0051,0.0756,0.1254,0.0101
1586,0.0061,0.0931,0.1293,0.0046
1587,0.0049,0.0727,0.1169,0.0051
1588,0.0046,0.0746,0.1190,0.0103
1589,0.0044,0.0754,0.1177,0.0161
1590,0.0047,0.0790,0.1217,0.0235
1591,0.0087,0.0721,0.1048,0.0042
1592,0.0056,0.0770,0.1145,0.0288
1593,0.0070,0.0796,0.1132,0.0358
1594,0.0085,0.0820,0.1072,0.0416
1595,0.0094,0.0850,0.1100,0.0507
1596,0.0092,0.0904,0.1151,0.0600
1597,0.0083,0.0810,0.0982,0.0637
1598,0.0071,0.0994,0.1318,0.0046
1599,0.0050,0.0729,0.1205,0.0050
1600,0.0051,0.0714,0.1174,0.0048
1601,0.0048,0.0764,0.1255,0.0051
1602,0.0085,0.0739,0.1115,0.0041
1603,0.0050,0.0729,0.1205,0.0050
1604,0.0051,0.0714,0.1174,0.0048
1605,0.0050,0.0729,0.1205,0.0050
1606,0.0050,0.0729,0.1205,0.0050
1607,0.0048,0.0764,0.1255,0.0051
1608,0.0050,0.0729,0.1205,0.0050
1609,0.0050,0.0729,0.1205,0.0050
1610,0.0068,0.1025,0.1305,0.0046
1611,0.0050,0.0729,0.1205,0.0050
1612,0.0048,0.0764,0.1255,0.0051
1613,0.0094,0.0977,0.1367,0.0060
1614,0.0083,0.0805,0.1074,0.0045
1615,0.0051,0.0714,0.1174,0.0048
1616,0.0050,0.0729,0.1205,0.0050
1617,0.0050,0.0729,0.1205,0.0050
1618,0.0051,0.0714,0.1174,0.0048
1619,0.0048,0.0764,0.1255,0.0051
1620,0.0050,0.0729,0.1205,0.0050
1621,0.0051,0.0714,0.1174,0.0048
1622,0.0050,0.0729,0.1205,0.0050
1623,0.0054,0.0986,0.1332,0.0049
1624,0.0048,0.0764,0.1255,0.0051
1625,0.0092,0.0898,0.1105,0.0048
1626,0.0050,0.0729,0.1205,0.0050
1627,0.0050,0.0729,0.1205,0.0050
1628,0.0051,0.0714,0.1174,0.0048
1629,0.0050,0.0729,0.1205,0.0050
1630,0.0048,0.0764,0.1255,0.0051
1631,0.0051,0.0714,0.1174,0.0048
1632,0.0050,0.0729,0.1205,0.0050
1633,0.0050,0.0729,0.1205,0.0050
1634,0.0051,0.0714,0.1174,0.0048
1635,0.0045,0.0972,0.1375,0.0052
1636,0.0101,0.0960,0.1125,0.0050
1637,0.0050,0.0729,0.1205,0.0050
1638,0.0051,0.0714,0.1174,0.0048
1639,0.0050,0.0729,0.1205,0.0050
1640,0.0050,0.0729,0.1205,0.0050
1641,0.0048,0.0764,0.1255,0.0051
1642,0.0129,0.0697,0.1039,0.0076
1643,0.0122,0.0678,0.1054,0.0071
1644,0.0117,0.0641,0.1035,0.0064
1645,0.0108,0.0655,0.1085,0.0062
1646,0.0055,0.0999,0.1378,0.0049
1647,0.0101,0.0959,0.1134,0.0052
1648,0.0061,0.0877,0.1277,0.0054
1649,0.0092,0.0658,0.1117,0.0056
1650,0.0084,0.0657,0.1132,0.0054
1651,0.0078,0.0644,0.1117,0.0051
1652,0.0066,0.0729,0.1218,0.0053
1653,0.0058,0.0704,0.1187,0.0051
1654,0.0042,0.0755,0.1197,0.0047
1655,0.0046,0.0838,0.1256,0.0047
1656,0.0061,0.0931,0.1293,0.0046
1657,0.0071,0.0996,0.1361,0.0047
1658,0.0093,0.0917,0.1200,0.0051
1659,0.0068,0.1009,0.1330,0.0047
1660,0.0104,0.0896,0.1297,0.0058
1661,0.0055,0.0992,0.1304,0.0048
1662,0.0045,0.0942,0.1324,0.0051
1663,0.0062,0.0957,0.1368,0.0055
1664,0.0102,0.0838,0.1254,0.0057
1665,0.0160,0.0937,0.1279,0.0063
1666,0.0073,0.1028,0.1161,0.0710
1667,0.0068,0.0951,0.1135,0.0613
1668,0.0065,0.0935,0.1234,0.0563
1669,0.0087,0.0852,0.1127,0.0054
1670,0.0178,0.0750,0.0705,0.0636
1671,0.0172,0.0682,0.0758,0.0616
1672,0.0158,0.0660,0.0808,0.0602
1673,0.0141,0.0668,0.0856,0.0591
1674,0.0125,0.0693,0.0904,0.0585
1675,0.0049,0.0583,0.0978,0.0047
1676,0.0049,0.0583,0.0978,0.0047
1677,0.0050,0.0559,0.0937,0.0045
1678,0.0040,0.0612,0.0996,0.0046
1679,0.0039,0.0648,0.1056,0.0047
1680,0.0093,0.0794,0.1117,0.0054
1681,0.0046,0.0678,0.0986,0.0043
1682,0.0062,0.0764,0.1053,0.0044
1683,0.0072,0.0817,0.1071,0.0044
1684,0.0069,0.0832,0.1046,0.0043
1685,0.0055,0.0816,0.1140,0.0047
1686,0.0044,0.0754,0.1072,0.0047
1687,0.0060,0.0687,0.1012,0.0048
1688,0.0102,0.0757,0.1048,0.0053
1689,0.0158,0.0848,0.1034,0.0057
1690,0.0047,0.0702,0.1080,0.0046
1691,0.0119,0.0761,0.1104,0.0055
1692,0.0072,0.0834,0.0942,0.0570
1693,0.0069,0.0786,0.0953,0.0500
1694,0.0063,0.0701,0.0911,0.0415
1695,0.0057,0.0681,0.0960,0.0375
1696,0.0051,0.0684,0.1025,0.0343
1697,0.0051,0.0540,0.0911,0.0247
1698,0.0051,0.0574,0.0963,0.0220
1699,0.0053,0.0561,0.0968,0.0172
1700,0.0054,0.0524,0.0931,0.0114
1701,0.0050,0.0625,0.1040,0.0088
1702,0.0165,0.0794,0.1090,0.0055
1703,0.0062,0.0764,0.1053,0.0044
1704,0.0049,0.0567,0.0931,0.0049
1705,0.0045,0.0593,0.0963,0.0091
1706,0.0044,0.0599,0.0952,0.0137
1707,0.0047,0.0650,0.1009,0.0202
1708,0.0056,0.0617,0.0926,0.0238
1709,0.0071,0.0635,0.0915,0.0294
1710,0.0086,0.0647,0.0844,0.0333
1711,0.0093,0.0680,0.0891,0.0413
1712,0.0090,0.0753,0.0970,0.0497
1713,0.0082,0.0808,0.1138,0.0044
1714,0.0082,0.0640,0.0775,0.0510
1715,0.0072,0.0817,0.1071,0.0044
1716,0.0049,0.0583,0.0978,0.0047
1717,0.0050,0.0559,0.0937,0.0045
1718,0.0047,0.0630,0.1040,0.0049
1719,0.0049,0.0583,0.0978,0.0047
1720,0.0050,0.0559,0.0937,0.0045
1721,0.0049,0.0583,0.0978,0.0047
1722,0.0049,0.0583,0.0978,0.0047
1723,0.0047,0.0630,0.1040,0.0049
1724,0.0121,0.0922,0.1350,0.0062
1725,0.0101,0.0913,0.0996,0.0568
1726,0.0049,0.0583,0.0978,0.0047
1727,0.0049,0.0583,0.0978,0.0047
1728,0.0069,0.0832,0.1046,0.0043
1729,0.0049,0.0583,0.0978,0.0047
1730,0.0047,0.0630,0.1040,0.0049
1731,0.0050,0.0559,0.0937,0.0045
1732,0.0049,0.0583,0.0978,0.0047
1733,0.0049,0.0583,0.0978,0.0047
1734,0.0050,0.0559,0.0937,0.0045
1735,0.0047,0.0630,0.1040,0.0049
1736,0.0093,0.0868,0.1006,0.0495
1737,0.0049,0.0583,0.0978,0.0047
1738,0.0050,0.0559,0.0937,0.0045
1739,0.0049,0.0583,0.0978,0.0047
1740,0.0055,0.0793,0.1080,0.0046
1741,0.0047,0.0630,0.1040,0.0049
1742,0.0049,0.0583,0.0978,0.0047
1743,0.0049,0.0583,0.0978,0.0047
1744,0.0050,0.0559,0.0937,0.0045
1745,0.0049,0.0583,0.0978,0.0047
1746,0.0047,0.0630,0.1040,0.0049
1747,0.0089,0.0809,0.1011,0.0426
1748,0.0050,0.0559,0.0937,0.0045
1749,0.0049,0.0583,0.0978,0.0047
1750,0.0049,0.0583,0.0978,0.0047
1751,0.0050,0.0559,0.0937,0.0045
1752,0.0044,0.0797,0.1137,0.0049
1753,0.0049,0.0583,0.0978,0.0047
1754,0.0050,0.0559,0.0937,0.0045
1755,0.0049,0.0583,0.0978,0.0047
1756,0.0049,0.0583,0.0978,0.0047
1757,0.0047,0.0630,0.1040,0.0049
1758,0.0087,0.0755,0.1012,0.0361
1759,0.0130,0.0587,0.0852,0.0068
1760,0.0123,0.0567,0.0863,0.0062
1761,0.0118,0.0521,0.0830,0.0057
1762,0.0108,0.0540,0.0885,0.0055
1763,0.0055,0.0816,0.1140,0.0047
1764,0.0060,0.0687,0.1012,0.0048
1765,0.0092,0.0532,0.0909,0.0050
1766,0.0084,0.0529,0.0921,0.0049
1767,0.0077,0.0506,0.0892,0.0046
1768,0.0065,0.0605,0.1011,0.0050
1769,0.0086,0.0730,0.1084,0.0320
1770,0.0058,0.0563,0.0962,0.0048
1771,0.0040,0.0597,0.0957,0.0044
1772,0.0046,0.0680,0.1022,0.0044
1773,0.0062,0.0764,0.1053,0.0044
1774,0.0072,0.0825,0.1127,0.0045
1775,0.0069,0.0820,0.1080,0.0044
1776,0.0102,0.0757,0.1048,0.0053
1777,0.0055,0.0793,0.1042,0.0044
1778,0.0044,0.0754,0.1072,0.0047
1779,0.0061,0.0802,0.1132,0.0051
1780,0.0093,0.0653,0.1009,0.0248
1781,0.0101,0.0679,0.0991,0.0051
1782,0.0158,0.0848,0.1034,0.0057
1783,0.0072,0.0834,0.0942,0.0570
1784,0.0068,0.0760,0.0904,0.0481
1785,0.0065,0.0778,0.1026,0.0460
1786,0.0171,0.0664,0.0625,0.0524
1787,0.0169,0.0598,0.0665,0.0505
1788,0.0156,0.0582,0.0704,0.0493
1789,0.0139,0.0598,0.0740,0.0486
1790,0.0124,0.0635,0.0775,0.0482
1791,0.0097,0.0639,0.1015,0.0199
1792,0.0047,0.0353,0.0556,0.0048
1793,0.0047,0.0353,0.0556,0.0048
1794,0.0049,0.0293,0.0472,0.0046
1795,0.0037,0.0360,0.0565,0.0047
1796,0.0037,0.0432,0.0671,0.0049
1797,0.0046,0.0372,0.0502,0.0043
1798,0.0065,0.0448,0.0595,0.0044
1799,0.0075,0.0476,0.0606,0.0044
1800,0.0071,0.0472,0.0534,0.0042
1801,0.0056,0.0514,0.0719,0.0047
1802,0.0101,0.0633,0.1019,0.0152
1803,0.0044,0.0452,0.0608,0.0046
1804,0.0057,0.0419,0.0507,0.0045
1805,0.0099,0.0654,0.0617,0.0050
1806,0.0156,0.0853,0.0629,0.0054
1807,0.0048,0.0446,0.0682,0.0047
1808,0.0072,0.0520,0.0552,0.0316
1809,0.0069,0.0490,0.0556,0.0284
1810,0.0064,0.0404,0.0463,0.0212
1811,0.0057,0.0445,0.0556,0.0233
1812,0.0051,0.0527,0.0669,0.0249
1813,0.0101,0.0644,0.1024,0.0107
1814,0.0049,0.0339,0.0460,0.0153
1815,0.0049,0.0411,0.0553,0.0164
1816,0.0051,0.0391,0.0554,0.0135
1817,0.0052,0.0292,0.0469,0.0087
1818,0.0048,0.0449,0.0665,0.0080
1819,0.0065,0.0448,0.0595,0.0044
1820,0.0047,0.0296,0.0468,0.0045
1821,0.0044,0.0352,0.0549,0.0070
1822,0.0043,0.0355,0.0546,0.0100
1823,0.0046,0.0437,0.0662,0.0152
1824,0.0099,0.0691,0.1097,0.0069
1825,0.0057,0.0365,0.0542,0.0159
1826,0.0073,0.0380,0.0545,0.0188
1827,0.0086,0.0333,0.0429,0.0180
1828,0.0092,0.0417,0.0561,0.0245
1829,0.0089,0.0573,0.0723,0.0317
1830,0.0080,0.0435,0.0475,0.0262
1831,0.0075,0.0476,0.0606,0.0044
1832,0.0047,0.0353,0.0556,0.0048
1833,0.0049,0.0293,0.0472,0.0046
1834,0.0046,0.0437,0.0664,0.0050
1835,0.0166,0.0912,0.1332,0.0064
1836,0.0092,0.0898,0.1105,0.0048
1837,0.0047,0.0353,0.0556,0.0048
1838,0.0049,0.0293,0.0472,0.0046
1839,0.0047,0.0353,0.0556,0.0048
1840,0.0047,0.0353,0.0556,0.0048
1841,0.0046,0.0437,0.0664,0.0050
1842,0.0047,0.0353,0.0556,0.0048
1843,0.0047,0.0353,0.0556,0.0048
1844,0.0071,0.0472,0.0534,0.0042
1845,0.0047,0.0353,0.0556,0.0048
1846,0.0046,0.0437,0.0664,0.0050
1847,0.0098,0.0688,0.1025,0.0058
1848,0.0049,0.0293,0.0472,0.0046
1849,0.0047,0.0353,0.0556,0.0048
1850,0.0047,0.0353,0.0556,0.0048
1851,0.0049,0.0293,0.0472,0.0046
1852,0.0046,0.0437,0.0664,0.0050
1853,0.0047,0.0353,0.0556,0.0048
1854,0.0049,0.0293,0.0472,0.0046
1855,0.0047,0.0353,0.0556,0.0048
1856,0.0056,0.0455,0.0610,0.0045
1857,0.0046,0.0437,0.0664,0.0050
1858,0.0094,0.0696,0.1016,0.0099
1859,0.0047,0.0353,0.0556,0.0048
1860,0.0047,0.0353,0.0556,0.0048
1861,0.0049,0.0293,0.0472,0.0046
1862,0.0047,0.0353,0.0556,0.0048
1863,0.0046,0.0437,0.0664,0.0050
1864,0.0049,0.0293,0.0472,0.0046
1865,0.0047,0.0353,0.0556,0.0048
1866,0.0047,0.0353,0.0556,0.0048
1867,0.0049,0.0293,0.0472,0.0046
1868,0.0043,0.0544,0.0725,0.0048
1869,0.0092,0.0702,0.1005,0.0145
1870,0.0047,0.0353,0.0556,0.0048
1871,0.0049,0.0293,0.0472,0.0046
1872,0.0047,0.0353,0.0556,0.0048
1873,0.0047,0.0353,0.0556,0.0048
1874,0.0046,0.0437,0.0664,0.0050
1875,0.0132,0.0392,0.0506,0.0056
1876,0.0124,0.0366,0.0510,0.0051
1877,0.0119,0.0304,0.0432,0.0047
1878,0.0109,0.0347,0.0518,0.0046
1879,0.0056,0.0514,0.0719,0.0047
1880,0.0090,0.0735,0.1068,0.0210
1881,0.0057,0.0419,0.0507,0.0045
1882,0.0093,0.0342,0.0526,0.0046
1883,0.0085,0.0344,0.0531,0.0047
1884,0.0077,0.0274,0.0452,0.0045
1885,0.0065,0.0436,0.0652,0.0050
1886,0.0057,0.0352,0.0550,0.0048
1887,0.0038,0.0314,0.0484,0.0045
1888,0.0047,0.0393,0.0578,0.0045
1889,0.0065,0.0448,0.0595,0.0044
1890,0.0075,0.0508,0.0707,0.0046
1891,0.0094,0.0720,0.0979,0.0245
1892,0.0071,0.0473,0.0609,0.0044
1893,0.0099,0.0654,0.0617,0.0050
1894,0.0056,0.0429,0.0528,0.0043
1895,0.0044,0.0452,0.0608,0.0046
1896,0.0058,0.0631,0.0734,0.0050
1897,0.0098,0.0535,0.0499,0.0047
1898,0.0156,0.0853,0.0629,0.0054
1899,0.0072,0.0520,0.0552,0.0316
1900,0.0068,0.0429,0.0459,0.0241
1901,0.0065,0.0552,0.0673,0.0300
1902,0.0101,0.0739,0.0968,0.0300
1903,0.0158,0.0497,0.0524,0.0323
1904,0.0159,0.0448,0.0543,0.0318
1905,0.0151,0.0461,0.0561,0.0319
1906,0.0136,0.0522,0.0577,0.0325
1907,0.0121,0.0597,0.0592,0.0330
1908,0.0046,0.0341,0.0371,0.0052
1909,0.0046,0.0341,0.0371,0.0052
1910,0.0048,0.0263,0.0215,0.0050
1911,0.0036,0.0313,0.0368,0.0050
1912,0.0036,0.0405,0.0522,0.0053
1913,0.0112,0.0767,0.0958,0.0359
1914,0.0049,0.0241,0.0211,0.0046
1915,0.0066,0.0292,0.0366,0.0047
1916,0.0076,0.0301,0.0369,0.0046
1917,0.0073,0.0281,0.0222,0.0044
1918,0.0057,0.0433,0.0556,0.0049
1919,0.0043,0.0421,0.0420,0.0048
1920,0.0056,0.0460,0.0287,0.0047
1921,0.0097,0.0767,0.0500,0.0054
1922,0.0153,0.1010,0.0553,0.0058
1923,0.0050,0.0371,0.0519,0.0050
1924,0.0118,0.0771,0.0943,0.0419
1925,0.0072,0.0457,0.0415,0.0224
1926,0.0069,0.0436,0.0408,0.0223
1927,0.0064,0.0351,0.0247,0.0165
1928,0.0057,0.0447,0.0400,0.0223
1929,0.0051,0.0556,0.0548,0.0256
1930,0.0047,0.0378,0.0235,0.0168
1931,0.0047,0.0458,0.0386,0.0182
1932,0.0048,0.0431,0.0380,0.0153
1933,0.0049,0.0311,0.0218,0.0104
1934,0.0046,0.0463,0.0524,0.0091
1935,0.0117,0.0795,0.1020,0.0503
1936,0.0066,0.0292,0.0366,0.0047
1937,0.0046,0.0251,0.0217,0.0042
1938,0.0042,0.0319,0.0379,0.0067
1939,0.0042,0.0320,0.0391,0.0097
1940,0.0046,0.0420,0.0559,0.0148
1941,0.0058,0.0329,0.0423,0.0150
1942,0.0074,0.0338,0.0446,0.0169
1943,0.0085,0.0265,0.0317,0.0136
1944,0.0091,0.0404,0.0517,0.0194
1945,0.0087,0.0608,0.0722,0.0261
1946,0.0083,0.0954,0.1356,0.0047
1947,0.0114,0.0743,0.0910,0.0537
1948,0.0078,0.0521,0.0508,0.0145
1949,0.0076,0.0301,0.0369,0.0046
1950,0.0046,0.0341,0.0371,0.0052
1951,0.0048,0.0263,0.0215,0.0050
1952,0.0045,0.0436,0.0524,0.0054
1953,0.0046,0.0341,0.0371,0.0052
1954,0.0048,0.0263,0.0215,0.0050
1955,0.0046,0.0341,0.0371,0.0052
1956,0.0046,0.0341,0.0371,0.0052
1957,0.0045,0.0436,0.0524,0.0054
1958,0.0101,0.0960,0.1125,0.0050
1959,0.0046,0.0341,0.0371,0.0052
1960,0.0046,0.0341,0.0371,0.0052
1961,0.0073,0.0281,0.0222,0.0044
1962,0.0046,0.0341,0.0371,0.0052
1963,0.0045,0.0436,0.0524,0.0054
1964,0.0048,0.0263,0.0215,0.0050
1965,0.0046,0.0341,0.0371,0.0052
1966,0.0046,0.0341,0.0371,0.0052
1967,0.0048,0.0263,0.0215,0.0050
1968,0.0045,0.0436,0.0524,0.0054
1969,0.0099,0.0679,0.1029,0.0040
1970,0.0046,0.0341,0.0371,0.0052
1971,0.0048,0.0263,0.0215,0.0050
1972,0.0046,0.0341,0.0371,0.0052
1973,0.0057,0.0337,0.0395,0.0047
1974,0.0045,0.0436,0.0524,0.0054
1975,0.0046,0.0341,0.0371,0.0052
1976,0.0046,0.0341,0.0371,0.0052
1977,0.0048,0.0263,0.0215,0.0050
1978,0.0046,0.0341,0.0371,0.0052
1979,0.0045,0.0436,0.0524,0.0054
1980,0.0099,0.0679,0.1029,0.0040
1981,0.0048,0.0263,0.0215,0.0050
1982,0.0046,0.0341,0.0371,0.0052
1983,0.0046,0.0341,0.0371,0.0052
1984,0.0048,0.0263,0.0215,0.0050
1985,0.0043,0.0534,0.0583,0.0051
1986,0.0046,0.0341,0.0371,0.0052
1987,0.0048,0.0263,0.0215,0.0050
1988,0.0046,0.0341,0.0371,0.0052
1989,0.0046,0.0341,0.0371,0.0052
1990,0.0045,0.0436,0.0524,0.0054
1991,0.0097,0.0705,0.1098,0.0040
1992,0.0133,0.0288,0.0340,0.0050
1993,0.0126,0.0283,0.0343,0.0047
1994,0.0121,0.0222,0.0205,0.0044
1995,0.0110,0.0297,0.0350,0.0045
1996,0.0057,0.0433,0.0556,0.0049
1997,0.0056,0.0460,0.0287,0.0047
1998,0.0094,0.0326,0.0357,0.0047
1999,0.0085,0.0338,0.0360,0.0049
2000,0.0077,0.0264,0.0211,0.0048
2001,0.0064,0.0441,0.0517,0.0054
2002,0.0099,0.0679,0.1029,0.0040
2003,0.0056,0.0350,0.0369,0.0052
2004,0.0037,0.0241,0.0213,0.0048
2005,0.0049,0.0290,0.0365,0.0048
2006,0.0066,0.0292,0.0366,0.0047
2007,0.0076,0.0369,0.0526,0.0049
2008,0.0073,0.0308,0.0378,0.0046
2009,0.0097,0.0767,0.0500,0.0054
2010,0.0057,0.0272,0.0233,0.0045
2011,0.0043,0.0421,0.0420,0.0048
2012,0.0057,0.0686,0.0619,0.0054
2013,0.0099,0.0679,0.1029,0.0040
2014,0.0096,0.0653,0.0330,0.0050
2015,0.0153,0.1010,0.0553,0.0058
2016,0.0072,0.0457,0.0415,0.0224
2017,0.0068,0.0350,0.0252,0.0157
2018,0.0065,0.0535,0.0555,0.0277
2019,0.0156,0.0395,0.0529,0.0238
2020,0.0148,0.0368,0.0538,0.0256
2021,0.0146,0.0431,0.0549,0.0277
2022,0.0133,0.0535,0.0560,0.0299
2023,0.0119,0.0646,0.0570,0.0316
2024,0.0099,0.0679,0.1029,0.0040
2025,0.0046,0.0388,0.0383,0.0054
2026,0.0046,0.0388,0.0383,0.0054
2027,0.0047,0.0316,0.0232,0.0051
2028,0.0036,0.0350,0.0377,0.0052
2029,0.0036,0.0438,0.0530,0.0054
2030,0.0049,0.0252,0.0211,0.0047
2031,0.0067,0.0292,0.0364,0.0048
2032,0.0078,0.0293,0.0366,0.0047
2033,0.0073,0.0267,0.0217,0.0045
2034,0.0057,0.0465,0.0567,0.0050
2035,0.0099,0.0679,0.1029,0.0040
2036,0.0043,0.0474,0.0443,0.0050
2037,0.0056,0.0541,0.0337,0.0049
2038,0.0097,0.0852,0.0548,0.0056
2039,0.0153,0.1097,0.0612,0.0061
2040,0.0051,0.0391,0.0523,0.0051
2041,0.0072,0.0501,0.0443,0.0243
2042,0.0068,0.0478,0.0432,0.0247
2043,0.0064,0.0403,0.0280,0.0197
2044,0.0058,0.0499,0.0422,0.0250
2045,0.0051,0.0607,0.0566,0.0279
2046,0.0097,0.0705,0.1098,0.0040
2047,0.0047,0.0442,0.0265,0.0195
2048,0.0046,0.0515,0.0405,0.0203
2049,0.0047,0.0487,0.0396,0.0169
2050,0.0048,0.0371,0.0237,0.0117
2051,0.0046,0.0508,0.0535,0.0097
2052,0.0067,0.0292,0.0364,0.0048
2053,0.0046,0.0302,0.0238,0.0042
2054,0.0042,0.0361,0.0398,0.0070
2055,0.0042,0.0361,0.0415,0.0105
2056,0.0047,0.0459,0.0583,0.0159
2057,0.0101,0.1105,0.1209,0.0714
2058,0.0099,0.0679,0.1029,0.0040
2059,0.0059,0.0370,0.0459,0.0165
2060,0.0074,0.0382,0.0488,0.0186
2061,0.0085,0.0320,0.0384,0.0159
2062,0.0091,0.0460,0.0573,0.0212
2063,0.0086,0.0669,0.0775,0.0275
2064,0.0077,0.0611,0.0593,0.0165
2065,0.0078,0.0293,0.0366,0.0047
2066,0.0046,0.0388,0.0383,0.0054
2067,0.0047,0.0316,0.0232,0.0051
2068,0.0045,0.0477,0.0534,0.0056
2069,0.0099,0.0679,0.1029,0.0040
2070,0.0046,0.0388,0.0383,0.0054
2071,0.0047,0.0316,0.0232,0.0051
2072,0.0046,0.0388,0.0383,0.0054
2073,0.0046,0.0388,0.0383,0.0054
2074,0.0045,0.0477,0.0534,0.0056
2075,0.0046,0.0388,0.0383,0.0054
2076,0.0046,0.0388,0.0383,0.0054
2077,0.0073,0.0267,0.0217,0.0045
2078,0.0046,0.0388,0.0383,0.0054
2079,0.0045,0.0477,0.0534,0.0056
2080,0.0101,0.0959,0.1134,0.0052
2081,0.0047,0.0316,0.0232,0.0051
2082,0.0046,0.0388,0.0383,0.0054
2083,0.0046,0.0388,0.0383,0.0054
2084,0.0047,0.0316,0.0232,0.0051
2085,0.0045,0.0477,0.0534,0.0056
2086,0.0046,0.0388,0.0383,0.0054
2087,0.0047,0.0316,0.0232,0.0051
2088,0.0046,0.0388,0.0383,0.0054
2089,0.0057,0.0366,0.0406,0.0048
2090,0.0045,0.0477,0.0534,0.0056
2091,0.0099,0.0679,0.1029,0.0040
2092,0.0046,0.0388,0.0383,0.0054
2093,0.0046,0.0388,0.0383,0.0054
2094,0.0047,0.0316,0.0232,0.0051
2095,0.0046,0.0388,0.0383,0.0054
2096,0.0045,0.0477,0.0534,0.0056
2097,0.0047,0.0316,0.0232,0.0051
2098,0.0046,0.0388,0.0383,0.0054
2099,0.0046,0.0388,0.0383,0.0054
2100,0.0047,0.0316,0.0232,0.0051
2101,0.0043,0.0584,0.0603,0.0052
2102,0.0097,0.0705,0.1098,0.0040
2103,0.0046,0.0388,0.0383,0.0054
2104,0.0047,0.0316,0.0232,0.0051
2105,0.0046,0.0388,0.0383,0.0054
2106,0.0046,0.0388,0.0383,0.0054
2107,0.0045,0.0477,0.0534,0.0056
2108,0.0134,0.0274,0.0335,0.0049
2109,0.0126,0.0279,0.0341,0.0046
2110,0.0121,0.0234,0.0204,0.0043
2111,0.0111,0.0318,0.0353,0.0045
2112,0.0057,0.0465,0.0567,0.0050
2113,0.0099,0.0679,0.1029,0.0040
2114,0.0056,0.0541,0.0337,0.0049
2115,0.0094,0.0361,0.0364,0.0049
2116,0.0085,0.0376,0.0369,0.0050
2117,0.0077,0.0313,0.0226,0.0050
2118,0.0064,0.0481,0.0526,0.0055
2119,0.0056,0.0397,0.0381,0.0054
2120,0.0036,0.0280,0.0223,0.0050
2121,0.0050,0.0307,0.0368,0.0049
2122,0.0067,0.0292,0.0364,0.0048
2123,0.0077,0.0370,0.0526,0.0049
2124,0.0099,0.0679,0.1029,0.0040
2125,0.0073,0.0308,0.0379,0.0047
2126,0.0097,0.0852,0.0548,0.0056
2127,0.0058,0.0294,0.0246,0.0045
2128,0.0043,0.0474,0.0443,0.0050
2129,0.0056,0.0755,0.0648,0.0055
2130,0.0096,0.0746,0.0395,0.0052
2131,0.0153,0.1097,0.0612,0.0061
2132,0.0072,0.0501,0.0443,0.0243
2133,0.0068,0.0395,0.0287,0.0187
2134,0.0065,0.0580,0.0574,0.0300
2135,0.0099,0.0679,0.1029,0.0040
2136,0.0157,0.0362,0.0553,0.0240
2137,0.0144,0.0354,0.0562,0.0267
2138,0.0144,0.0439,0.0572,0.0295
2139,0.0132,0.0561,0.0584,0.0321
2140,0.0118,0.0681,0.0597,0.0341
2141,0.0036,0.0816,0.1278,0.0051
2142,0.0036,0.0816,0.1278,0.0051
2143,0.0036,0.0805,0.1252,0.0049
2144,0.0040,0.0850,0.1297,0.0050
2145,0.0041,0.0868,0.1339,0.0051
2146,0.0099,0.0679,0.1029,0.0040
2147,0.0059,0.0932,0.1306,0.0046
2148,0.0081,0.1018,0.1365,0.0047
2149,0.0091,0.1081,0.1389,0.0046
2150,0.0086,0.1116,0.1383,0.0046
2151,0.0069,0.1075,0.1443,0.0050
2152,0.0048,0.1021,0.1395,0.0051
2153,0.0048,0.0954,0.1352,0.0052
2154,0.0085,0.0941,0.1364,0.0058
2155,0.0140,0.0952,0.1343,0.0063
2156,0.0061,0.0935,0.1368,0.0049
2157,0.0097,0.0705,0.1098,0.0040
2158,0.0080,0.1067,0.1222,0.0697
2159,0.0082,0.1007,0.1234,0.0614
2160,0.0076,0.0919,0.1210,0.0518
2161,0.0068,0.0875,0.1244,0.0461
2162,0.0058,0.0850,0.1291,0.0412
2163,0.0046,0.0738,0.1216,0.0310
2164,0.0042,0.0755,0.1254,0.0268
2165,0.0039,0.0757,0.1263,0.0210
2166,0.0037,0.0746,0.1243,0.0143
2167,0.0035,0.0823,0.1319,0.0103
2168,0.0093,0.1048,0.1221,0.0627
2169,0.0099,0.0679,0.1029,0.0040
2170,0.0081,0.1018,0.1365,0.0047
2171,0.0037,0.0828,0.1246,0.0051
2172,0.0040,0.0848,0.1262,0.0102
2173,0.0047,0.0860,0.1247,0.0160
2174,0.0057,0.0888,0.1277,0.0234
2175,0.0072,0.0883,0.1211,0.0288
2176,0.0091,0.0911,0.1195,0.0359
2177,0.0107,0.0948,0.1139,0.0420
2178,0.0117,0.0964,0.1156,0.0510
2179,0.0114,0.0994,0.1195,0.0604
2180,0.0099,0.0679,0.1029,0.0040
2181,0.0103,0.0914,0.1036,0.0645
2182,0.0091,0.1081,0.1389,0.0046
2183,0.0036,0.0816,0.1278,0.0051
2184,0.0036,0.0805,0.1252,0.0049
2185,0.0035,0.0842,0.1320,0.0053
2186,0.0036,0.0816,0.1278,0.0051
2187,0.0036,0.0805,0.1252,0.0049
2188,0.0036,0.0816,0.1278,0.0051
2189,0.0036,0.0816,0.1278,0.0051
2190,0.0035,0.0842,0.1320,0.0053
2191,0.0099,0.0679,0.1029,0.0040
2192,0.0036,0.0816,0.1278,0.0051
2193,0.0036,0.0816,0.1278,0.0051
2194,0.0086,0.1116,0.1383,0.0046
2195,0.0036,0.0816,0.1278,0.0051
2196,0.0035,0.0842,0.1320,0.0053
2197,0.0036,0.0805,0.1252,0.0049
2198,0.0036,0.0816,0.1278,0.0051
2199,0.0036,0.0816,0.1278,0.0051
2200,0.0036,0.0805,0.1252,0.0049
2201,0.0035,0.0842,0.1320,0.0053
2202,0.0094,0.0917,0.1135,0.0053
2203,0.0036,0.0816,0.1278,0.0051
2204,0.0036,0.0805,0.1252,0.0049
2205,0.0036,0.0816,0.1278,0.0051
2206,0.0068,0.1070,0.1403,0.0048
2207,0.0035,0.0842,0.1320,0.0053
2208,0.0036,0.0816,0.1278,0.0051
2209,0.0036,0.0816,0.1278,0.0051
2210,0.0036,0.0805,0.1252,0.0049
2211,0.0036,0.0816,0.1278,0.0051
2212,0.0035,0.0842,0.1320,0.0053
2213,0.0097,0.0705,0.1098,0.0040
2214,0.0036,0.0805,0.1252,0.0049
2215,0.0036,0.0816,0.1278,0.0051
2216,0.0036,0.0816,0.1278,0.0051
2217,0.0036,0.0805,0.1252,0.0049
2218,0.0048,0.1039,0.1438,0.0052
2219,0.0036,0.0816,0.1278,0.0051
2220,0.0036,0.0805,0.1252,0.0049
2221,0.0036,0.0816,0.1278,0.0051
2222,0.0036,0.0816,0.1278,0.0051
2223,0.0035,0.0842,0.1320,0.0053
2224,0.0099,0.0679,0.1029,0.0040
2225,0.0100,0.0816,0.1113,0.0082
2226,0.0092,0.0793,0.1128,0.0076
2227,0.0087,0.0759,0.1115,0.0070
2228,0.0078,0.0762,0.1159,0.0066
2229,0.0069,0.1075,0.1443,0.0050
2230,0.0048,0.0954,0.1352,0.0052
2231,0.0064,0.0758,0.1190,0.0059
2232,0.0057,0.0751,0.1205,0.0057
2233,0.0050,0.0744,0.1195,0.0053
2234,0.0042,0.0811,0.1285,0.0055
2235,0.0099,0.0679,0.1029,0.0040
2236,0.0038,0.0791,0.1259,0.0052
2237,0.0040,0.0847,0.1274,0.0048
2238,0.0060,0.0924,0.1328,0.0048
2239,0.0081,0.1018,0.1365,0.0047
2240,0.0090,0.1078,0.1426,0.0048
2241,0.0086,0.1096,0.1402,0.0047
2242,0.0085,0.0941,0.1364,0.0058
2243,0.0069,0.1083,0.1381,0.0047
2244,0.0048,0.1021,0.1395,0.0051
2245,0.0048,0.1011,0.1429,0.0056
2246,0.0099,0.0679,0.1029,0.0040
2247,0.0084,0.0898,0.1329,0.0055
2248,0.0140,0.0952,0.1343,0.0063
2249,0.0080,0.1067,0.1222,0.0697
2250,0.0080,0.0992,0.1202,0.0599
2251,0.0080,0.0970,0.1290,0.0555
2252,0.0160,0.0750,0.0730,0.0659
2253,0.0165,0.0703,0.0789,0.0631
2254,0.0168,0.0697,0.0846,0.0610
2255,0.0158,0.0706,0.0899,0.0596
2256,0.0143,0.0726,0.0949,0.0587
2257,0.0099,0.0679,0.1029,0.0040
2258,0.0036,0.0660,0.1045,0.0049
2259,0.0036,0.0660,0.1045,0.0049
2260,0.0036,0.0642,0.1011,0.0047
2261,0.0041,0.0688,0.1063,0.0048
2262,0.0042,0.0714,0.1115,0.0050
2263,0.0061,0.0765,0.1061,0.0044
2264,0.0083,0.0845,0.1121,0.0046
2265,0.0092,0.0901,0.1140,0.0046
2266,0.0087,0.0921,0.1122,0.0045
2267,0.0069,0.0883,0.1198,0.0049
2268,0.0097,0.0705,0.1098,0.0040
2269,0.0048,0.0822,0.1138,0.0049
2270,0.0047,0.0754,0.1085,0.0049
2271,0.0083,0.0776,0.1108,0.0055
2272,0.0139,0.0830,0.1090,0.0059
2273,0.0063,0.0775,0.1140,0.0048
2274,0.0079,0.0866,0.0997,0.0557
2275,0.0081,0.0816,0.1009,0.0489
2276,0.0076,0.0735,0.0975,0.0404
2277,0.0069,0.0713,0.1018,0.0369
2278,0.0059,0.0710,0.1077,0.0341
2279,0.0089,0.0976,0.1227,0.0542
2280,0.0099,0.0679,0.1029,0.0040
2281,0.0047,0.0582,0.0980,0.0244
2282,0.0042,0.0613,0.1026,0.0220
2283,0.0039,0.0608,0.1033,0.0173
2284,0.0037,0.0588,0.1004,0.0115
2285,0.0035,0.0678,0.1098,0.0090
2286,0.0083,0.0845,0.1121,0.0046
2287,0.0037,0.0660,0.1006,0.0050
2288,0.0041,0.0685,0.1031,0.0089
2289,0.0046,0.0697,0.1017,0.0136
2290,0.0058,0.0735,0.1062,0.0200
2291,0.0099,0.0679,0.1029,0.0040
2292,0.0073,0.0720,0.0986,0.0238
2293,0.0091,0.0739,0.0971,0.0294
2294,0.0108,0.0767,0.0907,0.0336
2295,0.0116,0.0783,0.0940,0.0416
2296,0.0113,0.0821,0.1003,0.0500
2297,0.0101,0.0724,0.0820,0.0517
2298,0.0092,0.0901,0.1140,0.0046
2299,0.0036,0.0660,0.1045,0.0049
2300,0.0036,0.0642,0.1011,0.0047
2301,0.0035,0.0694,0.1099,0.0051
2302,0.0099,0.0679,0.1029,0.0040
2303,0.0036,0.0660,0.1045,0.0049
2304,0.0036,0.0642,0.1011,0.0047
2305,0.0036,0.0660,0.1045,0.0049
2306,0.0036,0.0660,0.1045,0.0049
2307,0.0035,0.0694,0.1099,0.0051
2308,0.0036,0.0660,0.1045,0.0049
2309,0.0036,0.0660,0.1045,0.0049
2310,0.0087,0.0921,0.1122,0.0045
2311,0.0036,0.0660,0.1045,0.0049
2312,0.0035,0.0694,0.1099,0.0051
2313,0.0099,0.0679,0.1029,0.0040
2314,0.0036,0.0642,0.1011,0.0047
2315,0.0036,0.0660,0.1045,0.0049
2316,0.0036,0.0660,0.1045,0.0049
2317,0.0036,0.0642,0.1011,0.0047
2318,0.0035,0.0694,0.1099,0.0051
2319,0.0036,0.0660,0.1045,0.0049
2320,0.0036,0.0642,0.1011,0.0047
2321,0.0036,0.0660,0.1045,0.0049
2322,0.0069,0.0871,0.1147,0.0048
2323,0.0035,0.0694,0.1099,0.0051
2324,0.0087,0.0870,0.1198,0.0052
2325,0.0036,0.0660,0.1045,0.0049
2326,0.0036,0.0660,0.1045,0.0049
2327,0.0036,0.0642,0.1011,0.0047
2328,0.0036,0.0660,0.1045,0.0049
2329,0.0035,0.0694,0.1099,0.0051
2330,0.0036,0.0642,0.1011,0.0047
2331,0.0036,0.0660,0.1045,0.0049
2332,0.0036,0.0660,0.1045,0.0049
2333,0.0036,0.0642,0.1011,0.0047
2334,0.0048,0.0851,0.1193,0.0051
2335,0.0099,0.0679,0.1029,0.0040
2336,0.0036,0.0660,0.1045,0.0049
2337,0.0036,0.0642,0.1011,0.0047
2338,0.0036,0.0660,0.1045,0.0049
2339,0.0036,0.0660,0.1045,0.0049
2340,0.0035,0.0694,0.1099,0.0051
2341,0.0100,0.0702,0.0922,0.0073
2342,0.0093,0.0677,0.0933,0.0067
2343,0.0087,0.0633,0.0908,0.0061
2344,0.0078,0.0639,0.0955,0.0058
2345,0.0069,0.0883,0.1198,0.0049
2346,0.0099,0.0679,0.1029,0.0040
2347,0.0047,0.0754,0.1085,0.0049
2348,0.0064,0.0619,0.0978,0.0053
2349,0.0057,0.0612,0.0989,0.0051
2350,0.0050,0.0597,0.0968,0.0048
2351,0.0042,0.0670,0.1071,0.0052
2352,0.0038,0.0638,0.1030,0.0049
2353,0.0040,0.0683,0.1032,0.0046
2354,0.0062,0.0759,0.1089,0.0047
2355,0.0083,0.0845,0.1121,0.0046
2356,0.0092,0.0902,0.1187,0.0048
2357,0.0099,0.0679,0.1029,0.0040
2358,0.0087,0.0901,0.1148,0.0046
2359,0.0083,0.0776,0.1108,0.0055
2360,0.0069,0.0879,0.1117,0.0045
2361,0.0048,0.0822,0.1138,0.0049
2362,0.0047,0.0838,0.1186,0.0054
2363,0.0083,0.0716,0.1061,0.0052
2364,0.0139,0.0830,0.1090,0.0059
2365,0.0079,0.0866,0.0997,0.0557
2366,0.0079,0.0794,0.0968,0.0468
2367,0.0079,0.0805,0.1076,0.0453
2368,0.0099,0.0679,0.1029,0.0040
2369,0.0157,0.0660,0.0640,0.0545
2370,0.0156,0.0606,0.0686,0.0521
2371,0.0163,0.0610,0.0732,0.0501
2372,0.0155,0.0624,0.0773,0.0490
2373,0.0140,0.0653,0.0811,0.0485
2374,0.0036,0.0384,0.0603,0.0052
2375,0.0036,0.0384,0.0603,0.0052
2376,0.0036,0.0341,0.0536,0.0049
2377,0.0043,0.0400,0.0612,0.0051
2378,0.0043,0.0454,0.0704,0.0053
2379,0.0097,0.0705,0.1098,0.0040
2380,0.0064,0.0442,0.0568,0.0048
2381,0.0086,0.0513,0.0646,0.0050
2382,0.0095,0.0545,0.0658,0.0050
2383,0.0090,0.0551,0.0602,0.0048
2384,0.0071,0.0546,0.0751,0.0053
2385,0.0049,0.0474,0.0650,0.0052
2386,0.0046,0.0417,0.0561,0.0051
2387,0.0082,0.0594,0.0642,0.0058
2388,0.0137,0.0767,0.0645,0.0062
2389,0.0067,0.0486,0.0717,0.0052
2390,0.0087,0.0906,0.1228,0.0462
2391,0.0205,0.0652,0.0904,0.0060
2392,0.0077,0.0532,0.0583,0.0311
2393,0.0080,0.0499,0.0588,0.0281
2394,0.0076,0.0418,0.0513,0.0209
2395,0.0070,0.0448,0.0592,0.0236
2396,0.0061,0.0520,0.0693,0.0255
2397,0.0048,0.0339,0.0514,0.0158
2398,0.0042,0.0404,0.0593,0.0170
2399,0.0039,0.0388,0.0597,0.0142
2400,0.0037,0.0309,0.0531,0.0093
2401,0.0035,0.0452,0.0697,0.0085
2402,0.0195,0.0637,0.0915,0.0055
2403,0.0086,0.0513,0.0646,0.0050
2404,0.0037,0.0356,0.0532,0.0046
2405,0.0041,0.0399,0.0594,0.0068
2406,0.0047,0.0405,0.0587,0.0097
2407,0.0059,0.0465,0.0684,0.0148
2408,0.0075,0.0418,0.0573,0.0156
2409,0.0094,0.0436,0.0570,0.0185
2410,0.0108,0.0419,0.0466,0.0180
2411,0.0115,0.0456,0.0571,0.0245
2412,0.0111,0.0557,0.0715,0.0316
2413,0.0186,0.0623,0.0925,0.0051
2414,0.0098,0.0413,0.0469,0.0267
2415,0.0095,0.0545,0.0658,0.0050
2416,0.0036,0.0384,0.0603,0.0052
2417,0.0036,0.0341,0.0536,0.0049
2418,0.0035,0.0450,0.0697,0.0054
2419,0.0036,0.0384,0.0603,0.0052
2420,0.0036,0.0341,0.0536,0.0049
2421,0.0036,0.0384,0.0603,0.0052
2422,0.0036,0.0384,0.0603,0.0052
2423,0.0035,0.0450,0.0697,0.0054
2424,0.0176,0.0614,0.0936,0.0047
2425,0.0036,0.0384,0.0603,0.0052
2426,0.0036,0.0384,0.0603,0.0052
2427,0.0090,0.0551,0.0602,0.0048
2428,0.0036,0.0384,0.0603,0.0052
2429,0.0035,0.0450,0.0697,0.0054
2430,0.0036,0.0341,0.0536,0.0049
2431,0.0036,0.0384,0.0603,0.0052
2432,0.0036,0.0384,0.0603,0.0052
2433,0.0036,0.0341,0.0536,0.0049
2434,0.0035,0.0450,0.0697,0.0054
2435,0.0093,0.0917,0.1200,0.0051
2436,0.0036,0.0384,0.0603,0.0052
2437,0.0036,0.0341,0.0536,0.0049
2438,0.0036,0.0384,0.0603,0.0052
2439,0.0071,0.0506,0.0657,0.0051
2440,0.0035,0.0450,0.0697,0.0054
2441,0.0036,0.0384,0.0603,0.0052
2442,0.0036,0.0384,0.0603,0.0052
2443,0.0036,0.0341,0.0536,0.0049
2444,0.0036,0.0384,0.0603,0.0052
2445,0.0035,0.0450,0.0697,0.0054
2446,0.0093,0.0794,0.1117,0.0054
2447,0.0036,0.0341,0.0536,0.0049
2448,0.0036,0.0384,0.0603,0.0052
2449,0.0036,0.0384,0.0603,0.0052
2450,0.0036,0.0341,0.0536,0.0049
2451,0.0048,0.0544,0.0751,0.0055
2452,0.0036,0.0384,0.0603,0.0052
2453,0.0036,0.0341,0.0536,0.0049
2454,0.0036,0.0384,0.0603,0.0052
2455,0.0036,0.0384,0.0603,0.0052
2456,0.0035,0.0450,0.0697,0.0054
2457,0.0155,0.0608,0.0960,0.0042
2458,0.0101,0.0487,0.0558,0.0060
2459,0.0094,0.0450,0.0561,0.0055
2460,0.0088,0.0393,0.0499,0.0049
2461,0.0079,0.0407,0.0568,0.0048
2462,0.0071,0.0546,0.0751,0.0053
2463,0.0046,0.0417,0.0561,0.0051
2464,0.0064,0.0383,0.0575,0.0047
2465,0.0057,0.0376,0.0578,0.0048
2466,0.0051,0.0322,0.0517,0.0046
2467,0.0042,0.0449,0.0685,0.0052
2468,0.0143,0.0608,0.0971,0.0040
2469,0.0038,0.0378,0.0596,0.0051
2470,0.0042,0.0373,0.0549,0.0049
2471,0.0066,0.0448,0.0627,0.0050
2472,0.0086,0.0513,0.0646,0.0050
2473,0.0095,0.0562,0.0744,0.0052
2474,0.0090,0.0537,0.0659,0.0050
2475,0.0082,0.0594,0.0642,0.0058
2476,0.0071,0.0501,0.0593,0.0048
2477,0.0049,0.0474,0.0650,0.0052
2478,0.0046,0.0599,0.0755,0.0058
2479,0.0132,0.0622,0.0985,0.0039
2480,0.0082,0.0485,0.0544,0.0054
2481,0.0137,0.0767,0.0645,0.0062
2482,0.0077,0.0532,0.0583,0.0311
2483,0.0078,0.0445,0.0507,0.0234
2484,0.0080,0.0555,0.0695,0.0303
2485,0.0160,0.0494,0.0515,0.0336
2486,0.0143,0.0443,0.0537,0.0329
2487,0.0147,0.0463,0.0559,0.0325
2488,0.0148,0.0518,0.0579,0.0328
2489,0.0135,0.0582,0.0596,0.0333
2490,0.0119,0.0672,0.1069,0.0039
2491,0.0036,0.0298,0.0362,0.0056
2492,0.0036,0.0298,0.0362,0.0056
2493,0.0036,0.0224,0.0223,0.0054
2494,0.0044,0.0284,0.0360,0.0056
2495,0.0045,0.0369,0.0506,0.0058
2496,0.0068,0.0263,0.0232,0.0052
2497,0.0087,0.0312,0.0365,0.0053
2498,0.0096,0.0326,0.0369,0.0053
2499,0.0091,0.0321,0.0243,0.0051
2500,0.0072,0.0399,0.0535,0.0057
2501,0.0087,0.0863,0.1287,0.0400
2502,0.0110,0.0650,0.1014,0.0039
2503,0.0049,0.0361,0.0398,0.0057
2504,0.0046,0.0373,0.0260,0.0056
2505,0.0081,0.0662,0.0456,0.0064
2506,0.0136,0.0892,0.0501,0.0069
2507,0.0070,0.0357,0.0507,0.0056
2508,0.0076,0.0438,0.0391,0.0235
2509,0.0079,0.0417,0.0386,0.0236
2510,0.0076,0.0331,0.0235,0.0179
2511,0.0070,0.0420,0.0380,0.0236
2512,0.0061,0.0523,0.0526,0.0268
2513,0.0087,0.0721,0.1048,0.0042
2514,0.0049,0.0339,0.0227,0.0181
2515,0.0043,0.0413,0.0370,0.0193
2516,0.0039,0.0383,0.0366,0.0162
2517,0.0037,0.0261,0.0222,0.0112
2518,0.0035,0.0414,0.0508,0.0097
2519,0.0087,0.0312,0.0365,0.0053
2520,0.0037,0.0220,0.0223,0.0042
2521,0.0042,0.0283,0.0365,0.0063
2522,0.0049,0.0283,0.0371,0.0092
2523,0.0060,0.0372,0.0531,0.0143
2524,0.0083,0.0805,0.1074,0.0045
2525,0.0077,0.0289,0.0392,0.0143
2526,0.0095,0.0297,0.0410,0.0162
2527,0.0107,0.0234,0.0272,0.0128
2528,0.0113,0.0331,0.0469,0.0187
2529,0.0108,0.0509,0.0671,0.0253
2530,0.0095,0.0391,0.0440,0.0138
2531,0.0096,0.0326,0.0369,0.0053
2532,0.0036,0.0298,0.0362,0.0056
2533,0.0036,0.0224,0.0223,0.0054
2534,0.0036,0.0390,0.0507,0.0059
2535,0.0092,0.0898,0.1105,0.0048
2536,0.0036,0.0298,0.0362,0.0056
2537,0.0036,0.0224,0.0223,0.0054
2538,0.0036,0.0298,0.0362,0.0056
2539,0.0036,0.0298,0.0362,0.0056
2540,0.0036,0.0390,0.0507,0.0059
2541,0.0036,0.0298,0.0362,0.0056
2542,0.0036,0.0298,0.0362,0.0056
2543,0.0091,0.0321,0.0243,0.0051
2544,0.0036,0.0298,0.0362,0.0056
2545,0.0036,0.0390,0.0507,0.0059
2546,0.0100,0.0948,0.1186,0.0049
2547,0.0036,0.0224,0.0223,0.0054
2548,0.0036,0.0298,0.0362,0.0056
2549,0.0036,0.0298,0.0362,0.0056
2550,0.0036,0.0224,0.0223,0.0054
2551,0.0036,0.0390,0.0507,0.0059
2552,0.0036,0.0298,0.0362,0.0056
2553,0.0036,0.0224,0.0223,0.0054
2554,0.0036,0.0298,0.0362,0.0056
2555,0.0072,0.0318,0.0383,0.0055
2556,0.0036,0.0390,0.0507,0.0059
2557,0.0101,0.0959,0.1134,0.0052
2558,0.0036,0.0298,0.0362,0.0056
2559,0.0036,0.0298,0.0362,0.0056
2560,0.0036,0.0224,0.0223,0.0054
2561,0.0036,0.0298,0.0362,0.0056
2562,0.0036,0.0390,0.0507,0.0059
2563,0.0036,0.0224,0.0223,0.0054
2564,0.0036,0.0298,0.0362,0.0056
2565,0.0036,0.0298,0.0362,0.0056
2566,0.0036,0.0224,0.0223,0.0054
2567,0.0049,0.0470,0.0555,0.0060
2568,0.0119,0.0761,0.1104,0.0055
2569,0.0036,0.0298,0.0362,0.0056
2570,0.0036,0.0224,0.0223,0.0054
2571,0.0036,0.0298,0.0362,0.0056
2572,0.0036,0.0298,0.0362,0.0056
2573,0.0036,0.0390,0.0507,0.0059
2574,0.0103,0.0344,0.0347,0.0053
2575,0.0095,0.0319,0.0348,0.0049
2576,0.0089,0.0250,0.0226,0.0045
2577,0.0080,0.0290,0.0350,0.0045
2578,0.0072,0.0399,0.0535,0.0057
2579,0.0094,0.0917,0.1135,0.0053
2580,0.0046,0.0373,0.0260,0.0056
2581,0.0065,0.0292,0.0352,0.0048
2582,0.0057,0.0295,0.0354,0.0050
2583,0.0051,0.0222,0.0220,0.0050
2584,0.0042,0.0394,0.0502,0.0056
2585,0.0038,0.0302,0.0359,0.0055
2586,0.0043,0.0226,0.0225,0.0053
2587,0.0069,0.0289,0.0361,0.0054
2588,0.0087,0.0312,0.0365,0.0053
2589,0.0096,0.0373,0.0514,0.0056
2590,0.0087,0.0852,0.1127,0.0054
2591,0.0091,0.0322,0.0373,0.0054
2592,0.0081,0.0662,0.0456,0.0064
2593,0.0072,0.0280,0.0242,0.0052
2594,0.0049,0.0361,0.0398,0.0057
2595,0.0045,0.0601,0.0584,0.0063
2596,0.0080,0.0546,0.0287,0.0059
2597,0.0136,0.0892,0.0501,0.0069
2598,0.0076,0.0438,0.0391,0.0235
2599,0.0078,0.0334,0.0237,0.0170
2600,0.0079,0.0513,0.0533,0.0290
2601,0.0093,0.0834,0.1193,0.0052
2602,0.0170,0.0393,0.0503,0.0243
2603,0.0141,0.0360,0.0512,0.0258
2604,0.0133,0.0418,0.0522,0.0278
2605,0.0140,0.0511,0.0532,0.0299
2606,0.0131,0.0609,0.0541,0.0319
2607,0.0036,0.0321,0.0339,0.0058
2608,0.0036,0.0321,0.0339,0.0058
2609,0.0036,0.0249,0.0179,0.0056
2610,0.0045,0.0294,0.0334,0.0058
2611,0.0046,0.0381,0.0490,0.0060
2612,0.0100,0.0819,0.1253,0.0044
2613,0.0094,0.0787,0.1227,0.0318
2614,0.0119,0.0761,0.1104,0.0055
2615,0.0069,0.0235,0.0166,0.0053
2616,0.0088,0.0275,0.0325,0.0055
2617,0.0098,0.0283,0.0326,0.0054
2618,0.0091,0.0271,0.0171,0.0052
2619,0.0072,0.0402,0.0520,0.0059
2620,0.0049,0.0390,0.0386,0.0059
2621,0.0046,0.0437,0.0262,0.0058
2622,0.0081,0.0737,0.0477,0.0067
2623,0.0136,0.0973,0.0537,0.0073
2624,0.0071,0.0350,0.0485,0.0058
2625,0.0165,0.0794,0.1090,0.0055
2626,0.0076,0.0472,0.0394,0.0261
2627,0.0078,0.0449,0.0384,0.0265
2628,0.0076,0.0371,0.0223,0.0215
2629,0.0070,0.0465,0.0375,0.0266
2630,0.0062,0.0568,0.0523,0.0293
2631,0.0049,0.0394,0.0208,0.0209
2632,0.0043,0.0461,0.0358,0.0214
2633,0.0039,0.0428,0.0350,0.0179
2634,0.0037,0.0306,0.0184,0.0125
2635,0.0035,0.0444,0.0494,0.0104
2636,0.0101,0.0913,0.0996,0.0568
2637,0.0088,0.0275,0.0325,0.0055
2638,0.0037,0.0236,0.0183,0.0041
2639,0.0042,0.0293,0.0350,0.0066
2640,0.0049,0.0290,0.0363,0.0099
2641,0.0061,0.0382,0.0534,0.0152
2642,0.0078,0.0292,0.0401,0.0157
2643,0.0095,0.0300,0.0428,0.0178
2644,0.0107,0.0233,0.0310,0.0149
2645,0.0113,0.0350,0.0506,0.0202
2646,0.0107,0.0545,0.0710,0.0264
2647,0.0093,0.0868,0.1006,0.0495
2648,0.0093,0.0461,0.0513,0.0152
2649,0.0098,0.0283,0.0326,0.0054
2650,0.0036,0.0321,0.0339,0.0058
2651,0.0036,0.0249,0.0179,0.0056
2652,0.0036,0.0412,0.0493,0.0061
2653,0.0036,0.0321,0.0339,0.0058
2654,0.0036,0.0249,0.0179,0.0056
2655,0.0036,0.0321,0.0339,0.0058
2656,0.0036,0.0321,0.0339,0.0058
2657,0.0036,0.0412,0.0493,0.0061
2658,0.0088,0.0837,0.1087,0.0443
2659,0.0036,0.0321,0.0339,0.0058
2660,0.0036,0.0321,0.0339,0.0058
2661,0.0091,0.0271,0.0171,0.0052
2662,0.0036,0.0321,0.0339,0.0058
2663,0.0036,0.0412,0.0493,0.0061
2664,0.0036,0.0249,0.0179,0.0056
2665,0.0036,0.0321,0.0339,0.0058
2666,0.0036,0.0321,0.0339,0.0058
2667,0.0036,0.0249,0.0179,0.0056
2668,0.0036,0.0412,0.0493,0.0061
2669,0.0203,0.0706,0.0721,0.0526
2670,0.0036,0.0321,0.0339,0.0058
2671,0.0036,0.0249,0.0179,0.0056
2672,0.0036,0.0321,0.0339,0.0058
2673,0.0072,0.0309,0.0356,0.0056
2674,0.0036,0.0412,0.0493,0.0061
2675,0.0036,0.0321,0.0339,0.0058
2676,0.0036,0.0321,0.0339,0.0058
2677,0.0036,0.0249,0.0179,0.0056
2678,0.0036,0.0321,0.0339,0.0058
2679,0.0036,0.0412,0.0493,0.0061
2680,0.0200,0.0677,0.0757,0.0506
2681,0.0036,0.0249,0.0179,0.0056
2682,0.0036,0.0321,0.0339,0.0058
2683,0.0036,0.0321,0.0339,0.0058
2684,0.0036,0.0249,0.0179,0.0056
2685,0.0049,0.0500,0.0550,0.0062
2686,0.0036,0.0321,0.0339,0.0058
2687,0.0036,0.0249,0.0179,0.0056
2688,0.0036,0.0321,0.0339,0.0058
2689,0.0036,0.0321,0.0339,0.0058
2690,0.0036,0.0412,0.0493,0.0061
2691,0.0192,0.0679,0.0792,0.0493
2692,0.0103,0.0303,0.0310,0.0051
2693,0.0095,0.0283,0.0313,0.0048
2694,0.0090,0.0220,0.0171,0.0044
2695,0.0080,0.0277,0.0320,0.0045
2696,0.0072,0.0402,0.0520,0.0059
2697,0.0046,0.0437,0.0262,0.0058
2698,0.0065,0.0299,0.0326,0.0049
2699,0.0057,0.0310,0.0329,0.0051
2700,0.0051,0.0243,0.0177,0.0051
2701,0.0042,0.0415,0.0488,0.0058
2702,0.0182,0.0700,0.0824,0.0482
2703,0.0038,0.0327,0.0338,0.0057
2704,0.0044,0.0230,0.0174,0.0055
2705,0.0070,0.0273,0.0327,0.0056
2706,0.0088,0.0275,0.0325,0.0055
2707,0.0097,0.0344,0.0487,0.0057
2708,0.0091,0.0285,0.0335,0.0055
2709,0.0081,0.0737,0.0477,0.0067
2710,0.0072,0.0255,0.0188,0.0053
2711,0.0049,0.0390,0.0386,0.0059
2712,0.0045,0.0656,0.0590,0.0065
2713,0.0175,0.0721,0.0854,0.0474
2714,0.0080,0.0629,0.0314,0.0062
2715,0.0136,0.0973,0.0537,0.0073
2716,0.0076,0.0472,0.0394,0.0261
2717,0.0077,0.0366,0.0230,0.0206
2718,0.0079,0.0550,0.0531,0.0317
2719,0.0176,0.0361,0.0523,0.0240
2720,0.0142,0.0346,0.0530,0.0265
2721,0.0129,0.0424,0.0539,0.0292
2722,0.0135,0.0531,0.0547,0.0320
2723,0.0129,0.0638,0.0556,0.0344
2724,0.0098,0.0768,0.1233,0.0256
2725,0.0099,0.0454,0.0624,0.0040
2726,0.0099,0.0454,0.0624,0.0040
2727,0.0099,0.0454,0.0624,0.0040
2728,0.0086,0.0480,0.0632,0.0041
2729,0.0084,0.0517,0.0743,0.0041
2730,0.0084,0.0542,0.0645,0.0044
2731,0.0094,0.0609,0.0661,0.0047
2732,0.0103,0.0643,0.0672,0.0049
2733,0.0103,0.0634,0.0676,0.0049
2734,0.0094,0.0605,0.0789,0.0049
2735,0.0101,0.0770,0.1240,0.0197
2736,0.0087,0.0533,0.0675,0.0050
2737,0.0091,0.0525,0.0677,0.0049
2738,0.0117,0.0590,0.0680,0.0049
2739,0.0162,0.0742,0.0691,0.0048
2740,0.0083,0.0558,0.0752,0.0044
2741,0.0101,0.0598,0.0624,0.0289
2742,0.0093,0.0569,0.0627,0.0251
2743,0.0089,0.0543,0.0629,0.0218
2744,0.0087,0.0510,0.0627,0.0191
2745,0.0086,0.0551,0.0744,0.0202
2746,0.0102,0.0777,0.1246,0.0139
2747,0.0091,0.0471,0.0622,0.0146
2748,0.0096,0.0458,0.0622,0.0124
2749,0.0099,0.0450,0.0623,0.0099
2750,0.0099,0.0445,0.0624,0.0073
2751,0.0098,0.0502,0.0737,0.0055
2752,0.0094,0.0609,0.0661,0.0047
2753,0.0097,0.0458,0.0621,0.0054
2754,0.0094,0.0464,0.0617,0.0081
2755,0.0092,0.0465,0.0612,0.0109
2756,0.0090,0.0511,0.0728,0.0160
2757,0.0099,0.0822,0.1307,0.0087
2758,0.0094,0.0473,0.0605,0.0165
2759,0.0103,0.0483,0.0605,0.0191
2760,0.0112,0.0488,0.0606,0.0219
2761,0.0117,0.0488,0.0612,0.0247
2762,0.0116,0.0568,0.0767,0.0319
2763,0.0112,0.0525,0.0656,0.0304
2764,0.0103,0.0643,0.0672,0.0049
2765,0.0099,0.0454,0.0624,0.0040
2766,0.0099,0.0454,0.0624,0.0040
2767,0.0097,0.0502,0.0736,0.0040
2768,0.0091,0.1057,0.1342,0.0051
2769,0.0099,0.0454,0.0624,0.0040
2770,0.0099,0.0454,0.0624,0.0040
2771,0.0099,0.0454,0.0624,0.0040
2772,0.0099,0.0454,0.0624,0.0040
2773,0.0097,0.0502,0.0736,0.0040
2774,0.0099,0.0454,0.0624,0.0040
2775,0.0099,0.0454,0.0624,0.0040
2776,0.0103,0.0634,0.0676,0.0049
2777,0.0099,0.0454,0.0624,0.0040
2778,0.0097,0.0502,0.0736,0.0040
2779,0.0098,0.0834,0.1249,0.0059
2780,0.0099,0.0454,0.0624,0.0040
2781,0.0099,0.0454,0.0624,0.0040
2782,0.0099,0.0454,0.0624,0.0040
2783,0.0099,0.0454,0.0624,0.0040
2784,0.0097,0.0502,0.0736,0.0040
2785,0.0099,0.0454,0.0624,0.0040
2786,0.0099,0.0454,0.0624,0.0040
2787,0.0099,0.0454,0.0624,0.0040
2788,0.0095,0.0588,0.0677,0.0050
2789,0.0097,0.0502,0.0736,0.0040
2790,0.0095,0.0841,0.1238,0.0111
2791,0.0099,0.0454,0.0624,0.0040
2792,0.0099,0.0454,0.0624,0.0040
2793,0.0099,0.0454,0.0624,0.0040
2794,0.0099,0.0454,0.0624,0.0040
2795,0.0097,0.0502,0.0736,0.0040
2796,0.0099,0.0454,0.0624,0.0040
2797,0.0099,0.0454,0.0624,0.0040
2798,0.0099,0.0454,0.0624,0.0040
2799,0.0099,0.0454,0.0624,0.0040
2800,0.0086,0.0580,0.0795,0.0049
2801,0.0092,0.0850,0.1227,0.0168
2802,0.0099,0.0454,0.0624,0.0040
2803,0.0099,0.0454,0.0624,0.0040
2804,0.0099,0.0454,0.0624,0.0040
2805,0.0099,0.0454,0.0624,0.0040
2806,0.0097,0.0502,0.0736,0.0040
2807,0.0206,0.0481,0.0583,0.0047
2808,0.0196,0.0462,0.0585,0.0042
2809,0.0186,0.0451,0.0589,0.0039
2810,0.0176,0.0444,0.0592,0.0037
2811,0.0094,0.0605,0.0789,0.0049
2812,0.0090,0.0872,0.1271,0.0243
2813,0.0091,0.0525,0.0677,0.0049
2814,0.0155,0.0434,0.0598,0.0036
2815,0.0144,0.0433,0.0602,0.0036
2816,0.0132,0.0433,0.0607,0.0037
2817,0.0119,0.0496,0.0725,0.0038
2818,0.0110,0.0444,0.0618,0.0039
2819,0.0086,0.0480,0.0632,0.0041
2820,0.0084,0.0542,0.0645,0.0044
2821,0.0094,0.0609,0.0661,0.0047
2822,0.0102,0.0640,0.0777,0.0048
2823,0.0088,0.0865,0.1274,0.0046
2824,0.0094,0.0869,0.1196,0.0295
2825,0.0103,0.0634,0.0676,0.0049
2826,0.0117,0.0590,0.0680,0.0049
2827,0.0095,0.0588,0.0677,0.0050
2828,0.0087,0.0533,0.0675,0.0050
2829,0.0091,0.0604,0.0803,0.0048
2830,0.0117,0.0590,0.0680,0.0049
2831,0.0162,0.0742,0.0691,0.0048
2832,0.0101,0.0598,0.0624,0.0289
2833,0.0093,0.0569,0.0627,0.0251
2834,0.0088,0.0595,0.0749,0.0256
2835,0.0101,0.0893,0.1182,0.0364
2836,0.0197,0.0561,0.0637,0.0320
2837,0.0194,0.0557,0.0654,0.0312
2838,0.0190,0.0588,0.0670,0.0310
2839,0.0181,0.0643,0.0682,0.0311
2840,0.0173,0.0693,0.0692,0.0311
2841,0.0098,0.0408,0.0451,0.0043
2842,0.0098,0.0408,0.0451,0.0043
2843,0.0098,0.0408,0.0451,0.0043
2844,0.0085,0.0408,0.0447,0.0044
2845,0.0084,0.0459,0.0598,0.0044
2846,0.0111,0.0930,0.1168,0.0439
2847,0.0085,0.0431,0.0443,0.0046
2848,0.0095,0.0459,0.0444,0.0048
2849,0.0104,0.0477,0.0447,0.0050
2850,0.0104,0.0468,0.0454,0.0050
2851,0.0095,0.0479,0.0625,0.0050
2852,0.0087,0.0442,0.0488,0.0050
2853,0.0091,0.0518,0.0518,0.0050
2854,0.0116,0.0666,0.0555,0.0050
2855,0.0160,0.0882,0.0603,0.0050
2856,0.0084,0.0462,0.0594,0.0046
2857,0.0118,0.0939,0.1150,0.0514
2858,0.0102,0.0505,0.0496,0.0156
2859,0.0093,0.0486,0.0489,0.0156
2860,0.0089,0.0479,0.0485,0.0160
2861,0.0087,0.0476,0.0481,0.0163
2862,0.0085,0.0550,0.0629,0.0202
2863,0.0090,0.0477,0.0473,0.0155
2864,0.0094,0.0468,0.0468,0.0140
2865,0.0097,0.0454,0.0462,0.0117
2866,0.0098,0.0434,0.0456,0.0089
2867,0.0097,0.0485,0.0602,0.0067
2868,0.0118,0.0957,0.1201,0.0608
2869,0.0095,0.0459,0.0444,0.0048
2870,0.0096,0.0402,0.0451,0.0052
2871,0.0093,0.0401,0.0454,0.0078
2872,0.0091,0.0399,0.0461,0.0106
2873,0.0090,0.0460,0.0622,0.0156
2874,0.0095,0.0401,0.0481,0.0154
2875,0.0103,0.0403,0.0498,0.0170
2876,0.0111,0.0406,0.0519,0.0182
2877,0.0116,0.0419,0.0552,0.0191
2878,0.0114,0.0557,0.0751,0.0256
2879,0.0114,0.0908,0.1097,0.0661
2880,0.0110,0.0564,0.0668,0.0205
2881,0.0104,0.0477,0.0447,0.0050
2882,0.0098,0.0408,0.0451,0.0043
2883,0.0098,0.0408,0.0451,0.0043
2884,0.0096,0.0470,0.0600,0.0044
2885,0.0098,0.0408,0.0451,0.0043
2886,0.0098,0.0408,0.0451,0.0043
2887,0.0098,0.0408,0.0451,0.0043
2888,0.0098,0.0408,0.0451,0.0043
2889,0.0096,0.0470,0.0600,0.0044
2890,0.0100,0.1127,0.1368,0.0053
2891,0.0098,0.0408,0.0451,0.0043
2892,0.0098,0.0408,0.0451,0.0043
2893,0.0104,0.0468,0.0454,0.0050
2894,0.0098,0.0408,0.0451,0.0043
2895,0.0096,0.0470,0.0600,0.0044
2896,0.0098,0.0408,0.0451,0.0043
2897,0.0098,0.0408,0.0451,0.0043
2898,0.0098,0.0408,0.0451,0.0043
2899,0.0098,0.0408,0.0451,0.0043
2900,0.0096,0.0470,0.0600,0.0044
2901,0.0100,0.0819,0.1253,0.0044
2902,0.0098,0.0408,0.0451,0.0043
2903,0.0098,0.0408,0.0451,0.0043
2904,0.0098,0.0408,0.0451,0.0043
2905,0.0095,0.0438,0.0468,0.0050
2906,0.0096,0.0470,0.0600,0.0044
2907,0.0098,0.0408,0.0451,0.0043
2908,0.0098,0.0408,0.0451,0.0043
2909,0.0098,0.0408,0.0451,0.0043
2910,0.0098,0.0408,0.0451,0.0043
2911,0.0096,0.0470,0.0600,0.0044
2912,0.0100,0.0819,0.1253,0.0044
2913,0.0098,0.0408,0.0451,0.0043
2914,0.0098,0.0408,0.0451,0.0043
2915,0.0098,0.0408,0.0451,0.0043
2916,0.0098,0.0408,0.0451,0.0043
2917,0.0086,0.0514,0.0650,0.0050
2918,0.0098,0.0408,0.0451,0.0043
2919,0.0098,0.0408,0.0451,0.0043
2920,0.0098,0.0408,0.0451,0.0043
2921,0.0098,0.0408,0.0451,0.0043
2922,0.0096,0.0470,0.0600,0.0044
2923,0.0098,0.0837,0.1308,0.0044
2924,0.0207,0.0399,0.0443,0.0040
2925,0.0198,0.0394,0.0444,0.0038
2926,0.0188,0.0395,0.0445,0.0036
2927,0.0178,0.0397,0.0446,0.0036
2928,0.0095,0.0479,0.0625,0.0050
2929,0.0091,0.0518,0.0518,0.0050
2930,0.0156,0.0405,0.0447,0.0038
2931,0.0144,0.0408,0.0448,0.0039
2932,0.0132,0.0409,0.0448,0.0040
2933,0.0119,0.0477,0.0597,0.0042
2934,0.0086,0.0877,0.1328,0.0045
2935,0.0100,0.0819,0.1253,0.0044
2936,0.0110,0.0410,0.0450,0.0043
2937,0.0085,0.0408,0.0447,0.0044
2938,0.0085,0.0431,0.0443,0.0046
2939,0.0095,0.0459,0.0444,0.0048
2940,0.0103,0.0487,0.0600,0.0049
2941,0.0104,0.0468,0.0454,0.0050
2942,0.0116,0.0666,0.0555,0.0050
2943,0.0095,0.0438,0.0468,0.0050
2944,0.0087,0.0442,0.0488,0.0050
2945,0.0090,0.0613,0.0681,0.0050
2946,0.0100,0.0819,0.1253,0.0044
2947,0.0116,0.0666,0.0555,0.0050
2948,0.0160,0.0882,0.0603,0.0050
2949,0.0102,0.0505,0.0496,0.0156
2950,0.0093,0.0486,0.0489,0.0156
2951,0.0088,0.0547,0.0636,0.0213
2952,0.0199,0.0481,0.0644,0.0229
2953,0.0188,0.0503,0.0653,0.0246
2954,0.0187,0.0572,0.0662,0.0264
2955,0.0179,0.0659,0.0669,0.0280
2956,0.0173,0.0739,0.0675,0.0290
2957,0.0100,0.0819,0.1253,0.0044
2958,0.0098,0.0433,0.0455,0.0045
2959,0.0098,0.0433,0.0455,0.0045
2960,0.0098,0.0433,0.0455,0.0045
2961,0.0085,0.0420,0.0448,0.0045
2962,0.0083,0.0474,0.0600,0.0046
2963,0.0085,0.0424,0.0438,0.0047
2964,0.0096,0.0437,0.0435,0.0048
2965,0.0105,0.0450,0.0436,0.0050
2966,0.0105,0.0443,0.0446,0.0051
2967,0.0095,0.0482,0.0629,0.0050
2968,0.0100,0.0819,0.1253,0.0044
2969,0.0087,0.0468,0.0500,0.0051
2970,0.0091,0.0575,0.0542,0.0051
2971,0.0115,0.0746,0.0592,0.0051
2972,0.0159,0.0965,0.0651,0.0052
2973,0.0085,0.0460,0.0592,0.0047
2974,0.0102,0.0529,0.0517,0.0173
2975,0.0093,0.0508,0.0506,0.0181
2976,0.0089,0.0507,0.0500,0.0189
2977,0.0087,0.0511,0.0496,0.0194
2978,0.0085,0.0590,0.0641,0.0227
2979,0.0098,0.0837,0.1308,0.0044
2980,0.0090,0.0520,0.0486,0.0182
2981,0.0094,0.0513,0.0479,0.0163
2982,0.0097,0.0494,0.0470,0.0136
2983,0.0098,0.0470,0.0462,0.0103
2984,0.0097,0.0514,0.0607,0.0074
2985,0.0096,0.0437,0.0435,0.0048
2986,0.0096,0.0425,0.0458,0.0052
2987,0.0093,0.0419,0.0463,0.0081
2988,0.0091,0.0416,0.0474,0.0114
2989,0.0090,0.0480,0.0639,0.0165
2990,0.0100,0.0819,0.1253,0.0044
2991,0.0095,0.0417,0.0506,0.0168
2992,0.0104,0.0419,0.0528,0.0187
2993,0.0111,0.0427,0.0557,0.0199
2994,0.0116,0.0451,0.0597,0.0207
2995,0.0114,0.0604,0.0796,0.0268
2996,0.0110,0.0633,0.0731,0.0218
2997,0.0105,0.0450,0.0436,0.0050
2998,0.0098,0.0433,0.0455,0.0045
2999,0.0098,0.0433,0.0455,0.0045
3000,0.0096,0.0496,0.0605,0.0046
3001,0.0100,0.0819,0.1253,0.0044
3002,0.0098,0.0433,0.0455,0.0045
3003,0.0098,0.0433,0.0455,0.0045
3004,0.0098,0.0433,0.0455,0.0045
3005,0.0098,0.0433,0.0455,0.0045
3006,0.0096,0.0496,0.0605,0.0046
3007,0.0098,0.0433,0.0455,0.0045
3008,0.0098,0.0433,0.0455,0.0045
3009,0.0105,0.0443,0.0446,0.0051
3010,0.0098,0.0433,0.0455,0.0045
3011,0.0096,0.0496,0.0605,0.0046
3012,0.0100,0.1140,0.1382,0.0055
3013,0.0098,0.0433,0.0455,0.0045
3014,0.0098,0.0433,0.0455,0.0045
3015,0.0098,0.0433,0.0455,0.0045
3016,0.0098,0.0433,0.0455,0.0045
3017,0.0096,0.0496,0.0605,0.0046
3018,0.0098,0.0433,0.0455,0.0045
3019,0.0098,0.0433,0.0455,0.0045
3020,0.0098,0.0433,0.0455,0.0045
3021,0.0095,0.0434,0.0469,0.0051
3022,0.0096,0.0496,0.0605,0.0046
3023,0.0100,0.0819,0.1253,0.0044
3024,0.0098,0.0433,0.0455,0.0045
3025,0.0098,0.0433,0.0455,0.0045
3026,0.0098,0.0433,0.0455,0.0045
3027,0.0098,0.0433,0.0455,0.0045
3028,0.0096,0.0496,0.0605,0.0046
3029,0.0098,0.0433,0.0455,0.0045
3030,0.0098,0.0433,0.0455,0.0045
3031,0.0098,0.0433,0.0455,0.0045
3032,0.0098,0.0433,0.0455,0.0045
3033,0.0086,0.0542,0.0661,0.0050
3034,0.0098,0.0837,0.1308,0.0044
3035,0.0098,0.0433,0.0455,0.0045
3036,0.0098,0.0433,0.0455,0.0045
3037,0.0098,0.0433,0.0455,0.0045
3038,0.0098,0.0433,0.0455,0.0045
3039,0.0096,0.0496,0.0605,0.0046
3040,0.0208,0.0388,0.0438,0.0039
3041,0.0198,0.0390,0.0441,0.0037
3042,0.0188,0.0400,0.0444,0.0036
3043,0.0178,0.0409,0.0447,0.0036
3044,0.0095,0.0482,0.0629,0.0050
3045,0.0084,0.0955,0.1305,0.0048
3046,0.0100,0.0819,0.1253,0.0044
3047,0.0091,0.0575,0.0542,0.0051
3048,0.0156,0.0427,0.0451,0.0039
3049,0.0144,0.0434,0.0452,0.0041
3050,0.0132,0.0435,0.0453,0.0042
3051,0.0119,0.0504,0.0602,0.0044
3052,0.0110,0.0437,0.0455,0.0044
3053,0.0085,0.0420,0.0448,0.0045
3054,0.0085,0.0424,0.0438,0.0047
3055,0.0096,0.0437,0.0435,0.0048
3056,0.0104,0.0467,0.0594,0.0050
3057,0.0100,0.0819,0.1253,0.0044
3058,0.0105,0.0443,0.0446,0.0051
3059,0.0115,0.0746,0.0592,0.0051
3060,0.0095,0.0434,0.0469,0.0051
3061,0.0087,0.0468,0.0500,0.0051
3062,0.0090,0.0667,0.0702,0.0051
3063,0.0115,0.0746,0.0592,0.0051
3064,0.0159,0.0965,0.0651,0.0052
3065,0.0102,0.0529,0.0517,0.0173
3066,0.0093,0.0508,0.0506,0.0181
3067,0.0088,0.0576,0.0649,0.0238
3068,0.0100,0.0819,0.1253,0.0044
3069,0.0201,0.0458,0.0665,0.0230
3070,0.0187,0.0496,0.0674,0.0255
3071,0.0185,0.0582,0.0683,0.0281
3072,0.0179,0.0683,0.0692,0.0302
3073,0.0172,0.0772,0.0699,0.0316
3074,0.0080,0.0729,0.1198,0.0042
3075,0.0080,0.0729,0.1198,0.0042
3076,0.0082,0.0710,0.1157,0.0042
3077,0.0065,0.0765,0.1219,0.0042
3078,0.0063,0.0794,0.1275,0.0043
3079,0.0100,0.0819,0.1253,0.0044
3080,0.0057,0.0847,0.1213,0.0043
3081,0.0062,0.0940,0.1285,0.0043
3082,0.0070,0.1004,0.1310,0.0045
3083,0.0070,0.1034,0.1289,0.0048
3084,0.0062,0.1004,0.1380,0.0047
3085,0.0060,0.0945,0.1319,0.0051
3086,0.0079,0.0873,0.1263,0.0055
3087,0.0118,0.0891,0.1295,0.0057
3088,0.0171,0.0930,0.1279,0.0061
3089,0.0056,0.0857,0.1302,0.0042
3090,0.0098,0.0837,0.1308,0.0044
3091,0.0079,0.1041,0.1158,0.0719
3092,0.0070,0.0982,0.1170,0.0633
3093,0.0066,0.0895,0.1129,0.0539
3094,0.0063,0.0844,0.1177,0.0470
3095,0.0064,0.0817,0.1236,0.0412
3096,0.0076,0.0695,0.1129,0.0315
3097,0.0079,0.0706,0.1180,0.0266
3098,0.0082,0.0700,0.1187,0.0206
3099,0.0086,0.0674,0.1150,0.0139
3100,0.0080,0.0754,0.1254,0.0094
3101,0.0100,0.0819,0.1253,0.0044
3102,0.0062,0.0940,0.1285,0.0043
3103,0.0079,0.0723,0.1153,0.0048
3104,0.0073,0.0741,0.1184,0.0104
3105,0.0068,0.0747,0.1172,0.0162
3106,0.0063,0.0784,0.1220,0.0238
3107,0.0066,0.0761,0.1143,0.0289
3108,0.0072,0.0785,0.1131,0.0359
3109,0.0083,0.0808,0.1064,0.0417
3110,0.0090,0.0840,0.1103,0.0507
3111,0.0089,0.0898,0.1163,0.0601
3112,0.0100,0.0819,0.1253,0.0044
3113,0.0087,0.0797,0.0981,0.0637
3114,0.0070,0.1004,0.1310,0.0045
3115,0.0080,0.0729,0.1198,0.0042
3116,0.0082,0.0710,0.1157,0.0042
3117,0.0078,0.0763,0.1255,0.0043
3118,0.0080,0.0729,0.1198,0.0042
3119,0.0082,0.0710,0.1157,0.0042
3120,0.0080,0.0729,0.1198,0.0042
3121,0.0080,0.0729,0.1198,0.0042
3122,0.0078,0.0763,0.1255,0.0043
3123,0.0100,0.0819,0.1253,0.0044
3124,0.0080,0.0729,0.1198,0.0042
3125,0.0080,0.0729,0.1198,0.0042
3126,0.0070,0.1034,0.1289,0.0048
3127,0.0080,0.0729,0.1198,0.0042
3128,0.0078,0.0763,0.1255,0.0043
3129,0.0082,0.0710,0.1157,0.0042
3130,0.0080,0.0729,0.1198,0.0042
3131,0.0080,0.0729,0.1198,0.0042
3132,0.0082,0.0710,0.1157,0.0042
3133,0.0078,0.0763,0.1255,0.0043
3134,0.0093,0.1106,0.1384,0.0057
3135,0.0080,0.0729,0.1198,0.0042
3136,0.0082,0.0710,0.1157,0.0042
3137,0.0080,0.0729,0.1198,0.0042
3138,0.0062,0.0991,0.1325,0.0048
3139,0.0078,0.0763,0.1255,0.0043
3140,0.0080,0.0729,0.1198,0.0042
3141,0.0080,0.0729,0.1198,0.0042
3142,0.0082,0.0710,0.1157,0.0042
3143,0.0080,0.0729,0.1198,0.0042
3144,0.0078,0.0763,0.1255,0.0043
3145,0.0098,0.0837,0.1308,0.0044
3146,0.0082,0.0710,0.1157,0.0042
3147,0.0080,0.0729,0.1198,0.0042
3148,0.0080,0.0729,0.1198,0.0042
3149,0.0082,0.0710,0.1157,0.0042
3150,0.0060,0.0973,0.1377,0.0050
3151,0.0080,0.0729,0.1198,0.0042
3152,0.0082,0.0710,0.1157,0.0042
3153,0.0080,0.0729,0.1198,0.0042
3154,0.0080,0.0729,0.1198,0.0042
3155,0.0078,0.0763,0.1255,0.0043
3156,0.0091,0.1057,0.1342,0.0051
3157,0.0100,0.0819,0.1253,0.0044
3158,0.0176,0.0670,0.1029,0.0068
3159,0.0168,0.0655,0.1045,0.0063
3160,0.0162,0.0615,0.1015,0.0058
3161,0.0151,0.0640,0.1075,0.0055
3162,0.0062,0.1004,0.1380,0.0047
3163,0.0079,0.0873,0.1263,0.0055
3164,0.0133,0.0649,0.1108,0.0049
3165,0.0123,0.0650,0.1124,0.0047
3166,0.0115,0.0633,0.1099,0.0044
3167,0.0100,0.0727,0.1219,0.0045
3168,0.0100,0.0819,0.1253,0.0044
3169,0.0091,0.0700,0.1179,0.0043
3170,0.0067,0.0757,0.1180,0.0042
3171,0.0057,0.0843,0.1249,0.0042
3172,0.0062,0.0940,0.1285,0.0043
3173,0.0070,0.1006,0.1361,0.0044
3174,0.0070,0.1018,0.1323,0.0046
3175,0.0118,0.0891,0.1295,0.0057
3176,0.0063,0.0998,0.1288,0.0050
3177,0.0060,0.0945,0.1319,0.0051
3178,0.0079,0.0956,0.1372,0.0053
3179,0.0100,0.0819,0.1253,0.0044
3180,0.0117,0.0830,0.1242,0.0059
3181,0.0171,0.0930,0.1279,0.0061
3182,0.0079,0.1041,0.1158,0.0719
3183,0.0071,0.0969,0.1122,0.0624
3184,0.0064,0.0945,0.1238,0.0565
3185,0.0178,0.0755,0.0737,0.0631
3186,0.0167,0.0690,0.0785,0.0613
3187,0.0153,0.0675,0.0831,0.0601
3188,0.0142,0.0690,0.0877,0.0592
3189,0.0133,0.0716,0.0921,0.0584
3190,0.0100,0.0819,0.1253,0.0044
3191,0.0079,0.0589,0.0976,0.0038
3192,0.0079,0.0589,0.0976,0.0038
3193,0.0081,0.0562,0.0923,0.0037
3194,0.0063,0.0619,0.0993,0.0038
3195,0.0061,0.0656,0.1063,0.0038
3196,0.0056,0.0689,0.0971,0.0038
3197,0.0062,0.0776,0.1049,0.0039
3198,0.0071,0.0831,0.1068,0.0040
3199,0.0071,0.0847,0.1032,0.0042
3200,0.0062,0.0823,0.1147,0.0043
3201,0.0098,0.0837,0.1308,0.0044
3202,0.0060,0.0759,0.1072,0.0045
3203,0.0077,0.0687,0.1002,0.0047
3204,0.0115,0.0755,0.1052,0.0049
3205,0.0170,0.0845,0.1041,0.0051
3206,0.0054,0.0712,0.1086,0.0038
3207,0.0079,0.0849,0.0945,0.0576
3208,0.0070,0.0802,0.0956,0.0504
3209,0.0066,0.0719,0.0901,0.0420
3210,0.0062,0.0693,0.0962,0.0373
3211,0.0063,0.0690,0.1035,0.0335
3212,0.0100,0.0819,0.1253,0.0044
3213,0.0073,0.0552,0.0900,0.0243
3214,0.0076,0.0580,0.0963,0.0212
3215,0.0081,0.0569,0.0967,0.0163
3216,0.0084,0.0531,0.0917,0.0107
3217,0.0079,0.0629,0.1046,0.0077
3218,0.0062,0.0776,0.1049,0.0039
3219,0.0078,0.0568,0.0918,0.0047
3220,0.0072,0.0596,0.0963,0.0092
3221,0.0068,0.0600,0.0952,0.0139
3222,0.0063,0.0652,0.1020,0.0204
3223,0.0100,0.0819,0.1253,0.0044
3224,0.0065,0.0614,0.0929,0.0240
3225,0.0073,0.0632,0.0920,0.0295
3226,0.0084,0.0639,0.0840,0.0333
3227,0.0090,0.0676,0.0901,0.0413
3228,0.0089,0.0755,0.0989,0.0498
3229,0.0086,0.0635,0.0780,0.0509
3230,0.0071,0.0831,0.1068,0.0040
3231,0.0079,0.0589,0.0976,0.0038
3232,0.0081,0.0562,0.0923,0.0037
3233,0.0077,0.0635,0.1046,0.0039
3234,0.0100,0.0819,0.1253,0.0044
3235,0.0079,0.0589,0.0976,0.0038
3236,0.0081,0.0562,0.0923,0.0037
3237,0.0079,0.0589,0.0976,0.0038
3238,0.0079,0.0589,0.0976,0.0038
3239,0.0077,0.0635,0.1046,0.0039
3240,0.0079,0.0589,0.0976,0.0038
3241,0.0079,0.0589,0.0976,0.0038
3242,0.0071,0.0847,0.1032,0.0042
3243,0.0079,0.0589,0.0976,0.0038
3244,0.0077,0.0635,0.1046,0.0039
3245,0.0100,0.0819,0.1253,0.0044
3246,0.0081,0.0562,0.0923,0.0037
3247,0.0079,0.0589,0.0976,0.0038
3248,0.0079,0.0589,0.0976,0.0038
3249,0.0081,0.0562,0.0923,0.0037
3250,0.0077,0.0635,0.1046,0.0039
3251,0.0079,0.0589,0.0976,0.0038
3252,0.0081,0.0562,0.0923,0.0037
3253,0.0079,0.0589,0.0976,0.0038
3254,0.0062,0.0802,0.1078,0.0043
3255,0.0077,0.0635,0.1046,0.0039
3256,0.0087,0.1051,0.1433,0.0057
3257,0.0079,0.0589,0.0976,0.0038
3258,0.0079,0.0589,0.0976,0.0038
3259,0.0081,0.0562,0.0923,0.0037
3260,0.0079,0.0589,0.0976,0.0038
3261,0.0077,0.0635,0.1046,0.0039
3262,0.0081,0.0562,0.0923,0.0037
3263,0.0079,0.0589,0.0976,0.0038
3264,0.0079,0.0589,0.0976,0.0038
3265,0.0081,0.0562,0.0923,0.0037
3266,0.0059,0.0802,0.1146,0.0044
3267,0.0100,0.1127,0.1368,0.0053
3268,0.0100,0.0819,0.1253,0.0044
3269,0.0079,0.0589,0.0976,0.0038
3270,0.0081,0.0562,0.0923,0.0037
3271,0.0079,0.0589,0.0976,0.0038
3272,0.0079,0.0589,0.0976,0.0038
3273,0.0077,0.0635,0.1046,0.0039
3274,0.0176,0.0568,0.0848,0.0060
3275,0.0168,0.0552,0.0860,0.0055
3276,0.0163,0.0503,0.0814,0.0050
3277,0.0151,0.0534,0.0882,0.0047
3278,0.0062,0.0823,0.1147,0.0043
3279,0.0100,0.0819,0.1253,0.0044
3280,0.0077,0.0687,0.1002,0.0047
3281,0.0133,0.0531,0.0906,0.0043
3282,0.0123,0.0530,0.0918,0.0041
3283,0.0115,0.0503,0.0877,0.0039
3284,0.0100,0.0608,0.1018,0.0040
3285,0.0091,0.0566,0.0960,0.0038
3286,0.0064,0.0605,0.0943,0.0037
3287,0.0055,0.0690,0.1019,0.0038
3288,0.0062,0.0776,0.1049,0.0039
3289,0.0070,0.0838,0.1133,0.0040
3290,0.0100,0.0819,0.1253,0.0044
3291,0.0070,0.0834,0.1077,0.0042
3292,0.0115,0.0755,0.1052,0.0049
3293,0.0063,0.0804,0.1029,0.0044
3294,0.0060,0.0759,0.1072,0.0045
3295,0.0077,0.0804,0.1143,0.0046
3296,0.0115,0.0674,0.0983,0.0049
3297,0.0170,0.0845,0.1041,0.0051
3298,0.0079,0.0849,0.0945,0.0576
3299,0.0071,0.0781,0.0895,0.0490
3300,0.0064,0.0789,0.1038,0.0457
3301,0.0100,0.0819,0.1253,0.0044
3302,0.0173,0.0675,0.0667,0.0518
3303,0.0165,0.0614,0.0703,0.0502
3304,0.0152,0.0606,0.0738,0.0492
3305,0.0141,0.0631,0.0771,0.0485
3306,0.0133,0.0668,0.0803,0.0480
3307,0.0077,0.0378,0.0577,0.0037
3308,0.0077,0.0378,0.0577,0.0037
3309,0.0079,0.0318,0.0475,0.0036
3310,0.0060,0.0384,0.0584,0.0036
3311,0.0058,0.0454,0.0702,0.0038
3312,0.0098,0.0837,0.1308,0.0044
3313,0.0054,0.0402,0.0501,0.0036
3314,0.0064,0.0474,0.0611,0.0037
3315,0.0073,0.0503,0.0621,0.0038
3316,0.0073,0.0500,0.0532,0.0038
3317,0.0062,0.0531,0.0748,0.0039
3318,0.0058,0.0468,0.0631,0.0039
3319,0.0074,0.0427,0.0515,0.0039
3320,0.0113,0.0659,0.0647,0.0040
3321,0.0166,0.0857,0.0664,0.0042
3322,0.0053,0.0469,0.0711,0.0037
3323,0.0204,0.0752,0.1084,0.0069
3324,0.0079,0.0539,0.0581,0.0307
3325,0.0070,0.0509,0.0583,0.0272
3326,0.0065,0.0429,0.0471,0.0202
3327,0.0061,0.0460,0.0582,0.0214
3328,0.0060,0.0533,0.0703,0.0228
3329,0.0069,0.0357,0.0467,0.0134
3330,0.0073,0.0424,0.0577,0.0144
3331,0.0078,0.0408,0.0577,0.0116
3332,0.0081,0.0316,0.0473,0.0071
3333,0.0077,0.0466,0.0696,0.0064
3334,0.0194,0.0738,0.1099,0.0064
3335,0.0064,0.0474,0.0611,0.0037
3336,0.0077,0.0321,0.0471,0.0042
3337,0.0070,0.0376,0.0572,0.0073
3338,0.0066,0.0378,0.0570,0.0103
3339,0.0062,0.0460,0.0696,0.0155
3340,0.0065,0.0387,0.0569,0.0162
3341,0.0073,0.0400,0.0574,0.0190
3342,0.0084,0.0349,0.0447,0.0180
3343,0.0089,0.0437,0.0595,0.0246
3344,0.0088,0.0594,0.0763,0.0318
3345,0.0185,0.0727,0.1114,0.0059
3346,0.0085,0.0454,0.0504,0.0261
3347,0.0073,0.0503,0.0621,0.0038
3348,0.0077,0.0378,0.0577,0.0037
3349,0.0079,0.0318,0.0475,0.0036
3350,0.0075,0.0457,0.0695,0.0039
3351,0.0077,0.0378,0.0577,0.0037
3352,0.0079,0.0318,0.0475,0.0036
3353,0.0077,0.0378,0.0577,0.0037
3354,0.0077,0.0378,0.0577,0.0037
3355,0.0075,0.0457,0.0695,0.0039
3356,0.0176,0.0720,0.1130,0.0055
3357,0.0077,0.0378,0.0577,0.0037
3358,0.0077,0.0378,0.0577,0.0037
3359,0.0073,0.0500,0.0532,0.0038
3360,0.0077,0.0378,0.0577,0.0037
3361,0.0075,0.0457,0.0695,0.0039
3362,0.0079,0.0318,0.0475,0.0036
3363,0.0077,0.0378,0.0577,0.0037
3364,0.0077,0.0378,0.0577,0.0037
3365,0.0079,0.0318,0.0475,0.0036
3366,0.0075,0.0457,0.0695,0.0039
3367,0.0093,0.1101,0.1436,0.0055
3368,0.0077,0.0378,0.0577,0.0037
3369,0.0079,0.0318,0.0475,0.0036
3370,0.0077,0.0378,0.0577,0.0037
3371,0.0063,0.0475,0.0629,0.0039
3372,0.0075,0.0457,0.0695,0.0039
3373,0.0077,0.0378,0.0577,0.0037
3374,0.0077,0.0378,0.0577,0.0037
3375,0.0079,0.0318,0.0475,0.0036
3376,0.0077,0.0378,0.0577,0.0037
3377,0.0075,0.0457,0.0695,0.0039
3378,0.0100,0.1140,0.1382,0.0055
3379,0.0094,0.0977,0.1367,0.0060
3380,0.0079,0.0318,0.0475,0.0036
3381,0.0077,0.0378,0.0577,0.0037
3382,0.0077,0.0378,0.0577,0.0037
3383,0.0079,0.0318,0.0475,0.0036
3384,0.0058,0.0555,0.0757,0.0039
3385,0.0077,0.0378,0.0577,0.0037
3386,0.0079,0.0318,0.0475,0.0036
3387,0.0077,0.0378,0.0577,0.0037
3388,0.0077,0.0378,0.0577,0.0037
3389,0.0075,0.0457,0.0695,0.0039
3390,0.0154,0.0726,0.1162,0.0048
3391,0.0178,0.0395,0.0528,0.0047
3392,0.0170,0.0378,0.0532,0.0043
3393,0.0164,0.0313,0.0435,0.0039
3394,0.0152,0.0371,0.0540,0.0039
3395,0.0062,0.0531,0.0748,0.0039
3396,0.0074,0.0427,0.0515,0.0039
3397,0.0133,0.0371,0.0549,0.0038
3398,0.0123,0.0372,0.0553,0.0038
3399,0.0114,0.0299,0.0455,0.0036
3400,0.0099,0.0459,0.0683,0.0039
3401,0.0143,0.0730,0.1178,0.0046
3402,0.0089,0.0376,0.0571,0.0038
3403,0.0062,0.0342,0.0485,0.0035
3404,0.0054,0.0420,0.0596,0.0036
3405,0.0064,0.0474,0.0611,0.0037
3406,0.0072,0.0531,0.0734,0.0038
3407,0.0072,0.0498,0.0626,0.0038
3408,0.0113,0.0659,0.0647,0.0040
3409,0.0064,0.0453,0.0528,0.0039
3410,0.0058,0.0468,0.0631,0.0039
3411,0.0074,0.0639,0.0770,0.0040
3412,0.0132,0.0744,0.1196,0.0045
3413,0.0112,0.0540,0.0512,0.0040
3414,0.0166,0.0857,0.0664,0.0042
3415,0.0079,0.0539,0.0581,0.0307
3416,0.0070,0.0456,0.0468,0.0236
3417,0.0064,0.0564,0.0708,0.0281
3418,0.0162,0.0518,0.0586,0.0317
3419,0.0161,0.0484,0.0603,0.0313
3420,0.0149,0.0508,0.0619,0.0315
3421,0.0139,0.0576,0.0634,0.0319
3422,0.0132,0.0647,0.0646,0.0322
3423,0.0120,0.0794,0.1272,0.0043
3424,0.0076,0.0375,0.0428,0.0041
3425,0.0076,0.0375,0.0428,0.0041
3426,0.0078,0.0302,0.0265,0.0039
3427,0.0057,0.0349,0.0424,0.0039
3428,0.0056,0.0434,0.0579,0.0041
3429,0.0054,0.0289,0.0255,0.0037
3430,0.0065,0.0336,0.0418,0.0038
3431,0.0074,0.0344,0.0421,0.0038
3432,0.0074,0.0326,0.0263,0.0038
3433,0.0063,0.0456,0.0612,0.0040
3434,0.0111,0.0786,0.1233,0.0044
3435,0.0058,0.0443,0.0477,0.0039
3436,0.0073,0.0476,0.0339,0.0039
3437,0.0111,0.0777,0.0559,0.0041
3438,0.0164,0.1020,0.0614,0.0044
3439,0.0053,0.0403,0.0575,0.0039
3440,0.0080,0.0473,0.0475,0.0190
3441,0.0070,0.0452,0.0467,0.0189
3442,0.0065,0.0372,0.0300,0.0131
3443,0.0061,0.0457,0.0459,0.0191
3444,0.0059,0.0559,0.0608,0.0227
3445,0.0088,0.0865,0.1274,0.0046
3446,0.0067,0.0392,0.0288,0.0141
3447,0.0070,0.0469,0.0445,0.0158
3448,0.0075,0.0448,0.0438,0.0132
3449,0.0079,0.0339,0.0269,0.0085
3450,0.0075,0.0486,0.0582,0.0074
3451,0.0065,0.0336,0.0418,0.0038
3452,0.0076,0.0293,0.0267,0.0040
3453,0.0068,0.0358,0.0436,0.0071
3454,0.0064,0.0361,0.0447,0.0101
3455,0.0061,0.0457,0.0616,0.0153
3456,0.0084,0.0955,0.1305,0.0048
3457,0.0065,0.0370,0.0479,0.0154
3458,0.0074,0.0378,0.0501,0.0173
3459,0.0084,0.0308,0.0367,0.0138
3460,0.0089,0.0443,0.0569,0.0197
3461,0.0086,0.0642,0.0773,0.0264
3462,0.0084,0.0557,0.0551,0.0145
3463,0.0074,0.0344,0.0421,0.0038
3464,0.0076,0.0375,0.0428,0.0041
3465,0.0078,0.0302,0.0265,0.0039
3466,0.0074,0.0464,0.0581,0.0042
3467,0.0091,0.1057,0.1342,0.0051
3468,0.0076,0.0375,0.0428,0.0041
3469,0.0078,0.0302,0.0265,0.0039
3470,0.0076,0.0375,0.0428,0.0041
3471,0.0076,0.0375,0.0428,0.0041
3472,0.0074,0.0464,0.0581,0.0042
3473,0.0076,0.0375,0.0428,0.0041
3474,0.0076,0.0375,0.0428,0.0041
3475,0.0074,0.0326,0.0263,0.0038
3476,0.0076,0.0375,0.0428,0.0041
3477,0.0074,0.0464,0.0581,0.0042
3478,0.0099,0.1113,0.1417,0.0052
3479,0.0078,0.0302,0.0265,0.0039
3480,0.0076,0.0375,0.0428,0.0041
3481,0.0076,0.0375,0.0428,0.0041
3482,0.0078,0.0302,0.0265,0.0039
3483,0.0074,0.0464,0.0581,0.0042
3484,0.0076,0.0375,0.0428,0.0041
3485,0.0078,0.0302,0.0265,0.0039
3486,0.0076,0.0375,0.0428,0.0041
3487,0.0063,0.0368,0.0450,0.0039
3488,0.0074,0.0464,0.0581,0.0042
3489,0.0093,0.1101,0.1436,0.0055
3490,0.0100,0.1140,0.1382,0.0055
3491,0.0076,0.0375,0.0428,0.0041
3492,0.0076,0.0375,0.0428,0.0041
3493,0.0078,0.0302,0.0265,0.0039
3494,0.0076,0.0375,0.0428,0.0041
3495,0.0074,0.0464,0.0581,0.0042
3496,0.0078,0.0302,0.0265,0.0039
3497,0.0076,0.0375,0.0428,0.0041
3498,0.0076,0.0375,0.0428,0.0041
3499,0.0078,0.0302,0.0265,0.0039
3500,0.0057,0.0550,0.0641,0.0040
3501,0.0121,0.0922,0.1350,0.0062
3502,0.0076,0.0375,0.0428,0.0041
3503,0.0078,0.0302,0.0265,0.0039
3504,0.0076,0.0375,0.0428,0.0041
3505,0.0076,0.0375,0.0428,0.0041
3506,0.0074,0.0464,0.0581,0.0042
3507,0.0180,0.0324,0.0401,0.0042
3508,0.0171,0.0327,0.0405,0.0039
3509,0.0166,0.0268,0.0258,0.0036
3510,0.0154,0.0351,0.0411,0.0038
3511,0.0063,0.0456,0.0612,0.0040
3512,0.0093,0.1106,0.1384,0.0057
3513,0.0073,0.0476,0.0339,0.0039
3514,0.0134,0.0375,0.0417,0.0039
3515,0.0123,0.0383,0.0420,0.0040
3516,0.0114,0.0307,0.0263,0.0039
3517,0.0098,0.0474,0.0576,0.0043
3518,0.0089,0.0385,0.0427,0.0041
3519,0.0059,0.0284,0.0260,0.0038
3520,0.0054,0.0331,0.0419,0.0038
3521,0.0065,0.0336,0.0418,0.0038
3522,0.0074,0.0403,0.0581,0.0039
3523,0.0088,0.1041,0.1377,0.0059
3524,0.0073,0.0348,0.0431,0.0039
3525,0.0111,0.0777,0.0559,0.0041
3526,0.0064,0.0311,0.0279,0.0038
3527,0.0058,0.0443,0.0477,0.0039
3528,0.0073,0.0699,0.0678,0.0041
3529,0.0110,0.0663,0.0385,0.0040
3530,0.0164,0.1020,0.0614,0.0044
3531,0.0080,0.0473,0.0475,0.0190
3532,0.0070,0.0376,0.0305,0.0123
3533,0.0064,0.0541,0.0615,0.0244
3534,0.0094,0.1004,0.1427,0.0058
3535,0.0157,0.0424,0.0598,0.0233
3536,0.0155,0.0421,0.0608,0.0252
3537,0.0147,0.0493,0.0620,0.0272
3538,0.0138,0.0599,0.0632,0.0290
3539,0.0131,0.0700,0.0641,0.0304
3540,0.0075,0.0421,0.0449,0.0042
3541,0.0075,0.0421,0.0449,0.0042
3542,0.0077,0.0352,0.0295,0.0041
3543,0.0056,0.0384,0.0442,0.0040
3544,0.0055,0.0466,0.0594,0.0042
3545,0.0121,0.0922,0.1350,0.0062
3546,0.0054,0.0302,0.0273,0.0038
3547,0.0066,0.0338,0.0428,0.0039
3548,0.0076,0.0338,0.0430,0.0039
3549,0.0075,0.0317,0.0278,0.0038
3550,0.0063,0.0488,0.0631,0.0040
3551,0.0057,0.0496,0.0508,0.0040
3552,0.0073,0.0557,0.0397,0.0040
3553,0.0110,0.0865,0.0612,0.0043
3554,0.0163,0.1108,0.0676,0.0046
3555,0.0053,0.0423,0.0587,0.0040
3556,0.0166,0.0912,0.1332,0.0064
3557,0.0080,0.0513,0.0509,0.0204
3558,0.0070,0.0490,0.0497,0.0210
3559,0.0065,0.0418,0.0341,0.0162
3560,0.0061,0.0505,0.0488,0.0217
3561,0.0058,0.0609,0.0631,0.0249
3562,0.0066,0.0453,0.0327,0.0169
3563,0.0069,0.0524,0.0471,0.0179
3564,0.0073,0.0502,0.0462,0.0148
3565,0.0078,0.0396,0.0300,0.0099
3566,0.0075,0.0530,0.0599,0.0081
3567,0.0101,0.1105,0.1209,0.0714
3568,0.0066,0.0338,0.0428,0.0039
3569,0.0075,0.0343,0.0300,0.0041
3570,0.0068,0.0400,0.0463,0.0075
3571,0.0064,0.0402,0.0478,0.0110
3572,0.0061,0.0498,0.0645,0.0164
3573,0.0065,0.0414,0.0519,0.0169
3574,0.0074,0.0425,0.0546,0.0191
3575,0.0084,0.0363,0.0434,0.0162
3576,0.0089,0.0499,0.0626,0.0215
3577,0.0086,0.0704,0.0827,0.0278
3578,0.0093,0.1048,0.1221,0.0627
3579,0.0084,0.0646,0.0636,0.0166
3580,0.0076,0.0338,0.0430,0.0039
3581,0.0075,0.0421,0.0449,0.0042
3582,0.0077,0.0352,0.0295,0.0041
3583,0.0073,0.0504,0.0598,0.0044
3584,0.0075,0.0421,0.0449,0.0042
3585,0.0077,0.0352,0.0295,0.0041
3586,0.0075,0.0421,0.0449,0.0042
3587,0.0075,0.0421,0.0449,0.0042
3588,0.0073,0.0504,0.0598,0.0044
3589,0.0088,0.0997,0.1289,0.0554
3590,0.0075,0.0421,0.0449,0.0042
3591,0.0075,0.0421,0.0449,0.0042
3592,0.0075,0.0317,0.0278,0.0038
3593,0.0075,0.0421,0.0449,0.0042
3594,0.0073,0.0504,0.0598,0.0044
3595,0.0077,0.0352,0.0295,0.0041
3596,0.0075,0.0421,0.0449,0.0042
3597,0.0075,0.0421,0.0449,0.0042
3598,0.0077,0.0352,0.0295,0.0041
3599,0.0073,0.0504,0.0598,0.0044
Total Error Summary
Vdc  RMSE=  0.0081
Idc  RMSE=  0.0578
Id   RMSE=  0.0782
Iq   RMSE=  0.0158
