Read Model from: ./ucf9/
Export Model to: ./ucf9/ucf9_fhf.json
idx_in [0, 1, 2, 3, 4, 5, 6]
idx_out [7, 8, 9, 10]
make_mimo_block iir
H1s[0][0]  Real Poles: [-1494.34108019   -41.30863666] Freqs [Hz]: []
H1s[0][1]  Real Poles: [-1334.96708144  -523.27572834] Freqs [Hz]: []
H1s[0][2]  Real Poles: [-1333.67343082  -444.49044929] Freqs [Hz]: []
H1s[0][3]  Real Poles: [-1332.49000245  -499.81218047] Freqs [Hz]: []
H1s[1][0]  Real Poles: [-1404.39794211  -356.01673277] Freqs [Hz]: []
H1s[1][1]  Real Poles: [-1285.89639117  -564.32408045] Freqs [Hz]: []
H1s[1][2]  Real Poles: [-1398.36520612  -294.53679264] Freqs [Hz]: []
H1s[1][3]  Real Poles: [-1062.72610277 -1062.72610277] Freqs [Hz]: [58.39736861130082]
H1s[2][0]  Real Poles: [-1350.71260908  -471.02754137] Freqs [Hz]: []
H1s[2][1]  Real Poles: [-1502.77010573   -39.75807654] Freqs [Hz]: []
H1s[2][2]  Real Poles: [-1416.12124553  -244.71112975] Freqs [Hz]: []
H1s[2][3]  Real Poles: [-1373.07224541  -390.98461599] Freqs [Hz]: []
H1s[3][0]  Real Poles: [-1234.06597107  -681.15336568] Freqs [Hz]: []
H1s[3][1]  Real Poles: [-1329.01627998  -499.56627508] Freqs [Hz]: []
H1s[3][2]  Real Poles: [-1243.63963606  -692.68394707] Freqs [Hz]: []
H1s[3][3]  Real Poles: [-1492.74169965   -48.93783168] Freqs [Hz]: []
model_folder = ./ucf9/
model_root = ucf9
data_path = d:/data/ucf3/ucf9.hdf5
idx_in [0, 1, 2, 3, 4, 5, 6]
idx_out [7, 8, 9, 10]
read 2100 dataframes
dt=0.001000 data_len=4001 n_io=11 n_case=2100
['G', 'Ud', 'Uq', 'Vd', 'Vq', 'GVrms', 'Ctrl'] ['Vdc', 'Idc', 'Id', 'Iq'] (2100, 4001, 11)
make_mimo_block iir
Idx,Vdc,Idc,Id,Iq
#,RMSE,RMSE,RMSE,RMSE
Total,0.0036,0.0124,0.0112,0.0056
0,0.0034,0.0095,0.0060,0.0012
1,0.0034,0.0095,0.0060,0.0012
2,0.0050,0.0150,0.0096,0.0019
3,0.0049,0.0282,0.0224,0.0122
4,0.0023,0.0048,0.0048,0.0009
5,0.0046,0.0069,0.0075,0.0017
6,0.0023,0.0048,0.0048,0.0009
7,0.0036,0.0066,0.0078,0.0025
8,0.0031,0.0059,0.0052,0.0017
9,0.0023,0.0048,0.0048,0.0009
10,0.0023,0.0048,0.0048,0.0009
11,0.0046,0.0069,0.0075,0.0017
12,0.0023,0.0048,0.0048,0.0009
13,0.0031,0.0059,0.0052,0.0017
14,0.0049,0.0282,0.0224,0.0122
15,0.0046,0.0069,0.0075,0.0017
16,0.0023,0.0048,0.0048,0.0009
17,0.0023,0.0048,0.0048,0.0009
18,0.0046,0.0069,0.0075,0.0017
19,0.0038,0.0077,0.0059,0.0039
20,0.0023,0.0048,0.0048,0.0009
21,0.0046,0.0069,0.0075,0.0017
22,0.0023,0.0048,0.0048,0.0009
23,0.0023,0.0048,0.0048,0.0009
24,0.0031,0.0059,0.0052,0.0017
25,0.0049,0.0282,0.0224,0.0122
26,0.0052,0.0106,0.0148,0.0019
27,0.0044,0.0110,0.0159,0.0018
28,0.0048,0.0104,0.0148,0.0028
29,0.0035,0.0090,0.0131,0.0022
30,0.0039,0.0066,0.0049,0.0034
31,0.0056,0.0056,0.0082,0.0021
32,0.0034,0.0062,0.0084,0.0025
33,0.0034,0.0048,0.0056,0.0024
34,0.0049,0.0080,0.0106,0.0018
35,0.0033,0.0056,0.0054,0.0026
36,0.0049,0.0282,0.0224,0.0122
37,0.0024,0.0035,0.0036,0.0012
38,0.0048,0.0064,0.0069,0.0022
39,0.0028,0.0046,0.0038,0.0015
40,0.0023,0.0070,0.0074,0.0013
41,0.0046,0.0115,0.0110,0.0026
42,0.0032,0.0062,0.0069,0.0017
43,0.0040,0.0056,0.0055,0.0016
44,0.0049,0.0055,0.0071,0.0020
45,0.0037,0.0059,0.0061,0.0025
46,0.0050,0.0140,0.0125,0.0026
47,0.0049,0.0282,0.0224,0.0122
48,0.0065,0.0114,0.0140,0.0041
49,0.0044,0.0105,0.0094,0.0030
50,0.0029,0.0327,0.0321,0.0212
51,0.0041,0.0257,0.0226,0.0171
52,0.0033,0.0191,0.0192,0.0116
53,0.0033,0.0191,0.0192,0.0116
54,0.0033,0.0191,0.0192,0.0116
55,0.0033,0.0191,0.0192,0.0116
56,0.0033,0.0191,0.0192,0.0116
57,0.0033,0.0191,0.0192,0.0116
58,0.0033,0.0081,0.0052,0.0012
59,0.0023,0.0093,0.0063,0.0009
60,0.0023,0.0093,0.0063,0.0009
61,0.0031,0.0089,0.0074,0.0029
62,0.0026,0.0102,0.0083,0.0011
63,0.0038,0.0124,0.0076,0.0020
64,0.0035,0.0103,0.0083,0.0019
65,0.0027,0.0119,0.0082,0.0012
66,0.0030,0.0119,0.0083,0.0013
67,0.0041,0.0103,0.0081,0.0017
68,0.0040,0.0153,0.0083,0.0026
69,0.0033,0.0081,0.0052,0.0012
70,0.0036,0.0133,0.0082,0.0018
71,0.0051,0.0129,0.0114,0.0022
72,0.0041,0.0183,0.0152,0.0023
73,0.0048,0.0183,0.0156,0.0027
74,0.0046,0.0142,0.0102,0.0030
75,0.0050,0.0270,0.0215,0.0174
76,0.0025,0.0237,0.0174,0.0134
77,0.0035,0.0241,0.0206,0.0154
78,0.0036,0.0238,0.0219,0.0094
79,0.0042,0.0209,0.0177,0.0059
80,0.0033,0.0081,0.0052,0.0012
81,0.0047,0.0155,0.0142,0.0109
82,0.0037,0.0169,0.0152,0.0028
83,0.0026,0.0135,0.0102,0.0022
84,0.0031,0.0104,0.0106,0.0067
85,0.0033,0.0128,0.0092,0.0018
86,0.0027,0.0119,0.0082,0.0012
87,0.0033,0.0088,0.0081,0.0021
88,0.0018,0.0102,0.0065,0.0026
89,0.0024,0.0129,0.0100,0.0033
90,0.0036,0.0237,0.0238,0.0067
91,0.0037,0.0101,0.0081,0.0016
92,0.0039,0.0154,0.0136,0.0062
93,0.0030,0.0175,0.0168,0.0078
94,0.0040,0.0196,0.0201,0.0099
95,0.0025,0.0265,0.0266,0.0114
96,0.0047,0.0436,0.0436,0.0204
97,0.0043,0.0211,0.0206,0.0128
98,0.0030,0.0119,0.0083,0.0013
99,0.0023,0.0093,0.0063,0.0009
100,0.0031,0.0089,0.0074,0.0029
101,0.0036,0.0108,0.0061,0.0018
102,0.0040,0.0130,0.0102,0.0023
103,0.0023,0.0093,0.0063,0.0009
104,0.0031,0.0089,0.0074,0.0029
105,0.0023,0.0093,0.0063,0.0009
106,0.0023,0.0093,0.0063,0.0009
107,0.0036,0.0108,0.0061,0.0018
108,0.0023,0.0093,0.0063,0.0009
109,0.0023,0.0093,0.0063,0.0009
110,0.0041,0.0103,0.0081,0.0017
111,0.0023,0.0093,0.0063,0.0009
112,0.0036,0.0108,0.0061,0.0018
113,0.0049,0.0184,0.0122,0.0027
114,0.0040,0.0098,0.0066,0.0021
115,0.0031,0.0089,0.0074,0.0029
116,0.0023,0.0093,0.0063,0.0009
117,0.0023,0.0093,0.0063,0.0009
118,0.0031,0.0089,0.0074,0.0029
119,0.0036,0.0108,0.0061,0.0018
120,0.0023,0.0093,0.0063,0.0009
121,0.0031,0.0089,0.0074,0.0029
122,0.0023,0.0093,0.0063,0.0009
123,0.0036,0.0124,0.0079,0.0017
124,0.0036,0.0108,0.0061,0.0018
125,0.0037,0.0103,0.0071,0.0023
126,0.0023,0.0093,0.0063,0.0009
127,0.0023,0.0093,0.0063,0.0009
128,0.0031,0.0089,0.0074,0.0029
129,0.0023,0.0093,0.0063,0.0009
130,0.0036,0.0108,0.0061,0.0018
131,0.0031,0.0089,0.0074,0.0029
132,0.0023,0.0093,0.0063,0.0009
133,0.0023,0.0093,0.0063,0.0009
134,0.0031,0.0089,0.0074,0.0029
135,0.0038,0.0163,0.0099,0.0042
136,0.0038,0.0113,0.0082,0.0024
137,0.0023,0.0093,0.0063,0.0009
138,0.0031,0.0089,0.0074,0.0029
139,0.0023,0.0093,0.0063,0.0009
140,0.0023,0.0093,0.0063,0.0009
141,0.0036,0.0108,0.0061,0.0018
142,0.0039,0.0081,0.0094,0.0025
143,0.0035,0.0087,0.0091,0.0020
144,0.0059,0.0100,0.0087,0.0044
145,0.0029,0.0084,0.0079,0.0018
146,0.0040,0.0153,0.0083,0.0026
147,0.0042,0.0123,0.0088,0.0021
148,0.0051,0.0129,0.0114,0.0022
149,0.0027,0.0080,0.0064,0.0022
150,0.0026,0.0084,0.0061,0.0022
151,0.0039,0.0093,0.0073,0.0039
152,0.0034,0.0113,0.0078,0.0023
153,0.0022,0.0099,0.0077,0.0012
154,0.0033,0.0104,0.0097,0.0023
155,0.0028,0.0101,0.0071,0.0012
156,0.0027,0.0119,0.0082,0.0012
157,0.0060,0.0141,0.0091,0.0028
158,0.0052,0.0154,0.0098,0.0028
159,0.0035,0.0112,0.0075,0.0015
160,0.0041,0.0183,0.0152,0.0023
161,0.0044,0.0111,0.0084,0.0024
162,0.0036,0.0133,0.0082,0.0018
163,0.0063,0.0177,0.0116,0.0067
164,0.0057,0.0139,0.0134,0.0030
165,0.0048,0.0183,0.0156,0.0027
166,0.0050,0.0270,0.0215,0.0174
167,0.0041,0.0261,0.0181,0.0192
168,0.0028,0.0248,0.0210,0.0109
169,0.0050,0.0129,0.0087,0.0016
170,0.0028,0.0248,0.0210,0.0109
171,0.0028,0.0248,0.0210,0.0109
172,0.0028,0.0248,0.0210,0.0109
173,0.0028,0.0248,0.0210,0.0109
174,0.0028,0.0248,0.0210,0.0109
175,0.0020,0.0080,0.0053,0.0009
176,0.0020,0.0080,0.0053,0.0009
177,0.0030,0.0077,0.0065,0.0021
178,0.0024,0.0082,0.0057,0.0011
179,0.0031,0.0117,0.0086,0.0021
180,0.0049,0.0161,0.0115,0.0022
181,0.0034,0.0088,0.0071,0.0021
182,0.0023,0.0114,0.0088,0.0012
183,0.0027,0.0103,0.0071,0.0014
184,0.0039,0.0084,0.0065,0.0016
185,0.0040,0.0130,0.0074,0.0024
186,0.0035,0.0122,0.0084,0.0017
187,0.0050,0.0108,0.0101,0.0020
188,0.0040,0.0137,0.0100,0.0016
189,0.0045,0.0130,0.0090,0.0019
190,0.0037,0.0124,0.0095,0.0030
191,0.0052,0.0161,0.0109,0.0023
192,0.0041,0.0253,0.0230,0.0150
193,0.0023,0.0209,0.0164,0.0115
194,0.0033,0.0230,0.0207,0.0142
195,0.0036,0.0225,0.0209,0.0101
196,0.0042,0.0187,0.0165,0.0065
197,0.0045,0.0131,0.0132,0.0080
198,0.0035,0.0147,0.0140,0.0031
199,0.0025,0.0112,0.0085,0.0021
200,0.0031,0.0098,0.0121,0.0039
201,0.0030,0.0112,0.0080,0.0018
202,0.0057,0.0131,0.0077,0.0018
203,0.0023,0.0114,0.0088,0.0012
204,0.0032,0.0080,0.0085,0.0020
205,0.0018,0.0087,0.0058,0.0030
206,0.0028,0.0099,0.0076,0.0036
207,0.0035,0.0215,0.0221,0.0061
208,0.0034,0.0133,0.0118,0.0061
209,0.0027,0.0148,0.0141,0.0072
210,0.0039,0.0170,0.0173,0.0085
211,0.0023,0.0227,0.0229,0.0099
212,0.0044,0.0372,0.0378,0.0179
213,0.0042,0.0135,0.0101,0.0031
214,0.0043,0.0181,0.0177,0.0121
215,0.0027,0.0103,0.0071,0.0014
216,0.0020,0.0080,0.0053,0.0009
217,0.0030,0.0077,0.0065,0.0021
218,0.0030,0.0098,0.0060,0.0018
219,0.0020,0.0080,0.0053,0.0009
220,0.0030,0.0077,0.0065,0.0021
221,0.0020,0.0080,0.0053,0.0009
222,0.0020,0.0080,0.0053,0.0009
223,0.0030,0.0098,0.0060,0.0018
224,0.0052,0.0191,0.0129,0.0029
225,0.0054,0.0254,0.0209,0.0158
226,0.0020,0.0080,0.0053,0.0009
227,0.0020,0.0080,0.0053,0.0009
228,0.0039,0.0084,0.0065,0.0016
229,0.0020,0.0080,0.0053,0.0009
230,0.0030,0.0098,0.0060,0.0018
231,0.0030,0.0077,0.0065,0.0021
232,0.0020,0.0080,0.0053,0.0009
233,0.0020,0.0080,0.0053,0.0009
234,0.0030,0.0077,0.0065,0.0021
235,0.0030,0.0098,0.0060,0.0018
236,0.0032,0.0248,0.0188,0.0144
237,0.0020,0.0080,0.0053,0.0009
238,0.0030,0.0077,0.0065,0.0021
239,0.0020,0.0080,0.0053,0.0009
240,0.0035,0.0104,0.0067,0.0018
241,0.0030,0.0098,0.0060,0.0018
242,0.0020,0.0080,0.0053,0.0009
243,0.0020,0.0080,0.0053,0.0009
244,0.0030,0.0077,0.0065,0.0021
245,0.0020,0.0080,0.0053,0.0009
246,0.0030,0.0098,0.0060,0.0018
247,0.0033,0.0225,0.0186,0.0119
248,0.0030,0.0077,0.0065,0.0021
249,0.0020,0.0080,0.0053,0.0009
250,0.0020,0.0080,0.0053,0.0009
251,0.0030,0.0077,0.0065,0.0021
252,0.0036,0.0135,0.0074,0.0036
253,0.0020,0.0080,0.0053,0.0009
254,0.0030,0.0077,0.0065,0.0021
255,0.0020,0.0080,0.0053,0.0009
256,0.0020,0.0080,0.0053,0.0009
257,0.0030,0.0098,0.0060,0.0018
258,0.0036,0.0193,0.0166,0.0092
259,0.0037,0.0080,0.0093,0.0025
260,0.0034,0.0076,0.0083,0.0020
261,0.0056,0.0096,0.0083,0.0038
262,0.0028,0.0077,0.0077,0.0017
263,0.0040,0.0130,0.0074,0.0024
264,0.0050,0.0108,0.0101,0.0020
265,0.0026,0.0071,0.0062,0.0021
266,0.0025,0.0074,0.0058,0.0021
267,0.0038,0.0088,0.0076,0.0030
268,0.0030,0.0090,0.0058,0.0024
269,0.0054,0.0244,0.0217,0.0090
270,0.0020,0.0079,0.0052,0.0011
271,0.0032,0.0082,0.0073,0.0017
272,0.0026,0.0081,0.0049,0.0012
273,0.0023,0.0114,0.0088,0.0012
274,0.0056,0.0125,0.0080,0.0027
275,0.0032,0.0103,0.0072,0.0017
276,0.0040,0.0137,0.0100,0.0016
277,0.0042,0.0090,0.0071,0.0020
278,0.0035,0.0122,0.0084,0.0017
279,0.0056,0.0160,0.0095,0.0060
280,0.0040,0.0196,0.0179,0.0067
281,0.0057,0.0118,0.0121,0.0032
282,0.0045,0.0130,0.0090,0.0019
283,0.0041,0.0253,0.0230,0.0150
284,0.0038,0.0218,0.0166,0.0148
285,0.0028,0.0228,0.0201,0.0118
286,0.0028,0.0228,0.0201,0.0118
287,0.0028,0.0228,0.0201,0.0118
288,0.0028,0.0228,0.0201,0.0118
289,0.0028,0.0228,0.0201,0.0118
290,0.0028,0.0228,0.0201,0.0118
291,0.0039,0.0144,0.0121,0.0042
292,0.0018,0.0061,0.0052,0.0009
293,0.0018,0.0061,0.0052,0.0009
294,0.0031,0.0064,0.0062,0.0015
295,0.0022,0.0062,0.0047,0.0012
296,0.0025,0.0122,0.0125,0.0023
297,0.0033,0.0066,0.0061,0.0027
298,0.0021,0.0094,0.0089,0.0013
299,0.0025,0.0123,0.0129,0.0013
300,0.0037,0.0065,0.0069,0.0016
301,0.0040,0.0102,0.0069,0.0029
302,0.0036,0.0125,0.0094,0.0030
303,0.0035,0.0074,0.0054,0.0019
304,0.0049,0.0076,0.0082,0.0022
305,0.0039,0.0095,0.0076,0.0013
306,0.0043,0.0132,0.0109,0.0025
307,0.0029,0.0122,0.0125,0.0030
308,0.0026,0.0260,0.0254,0.0158
309,0.0024,0.0177,0.0151,0.0107
310,0.0031,0.0259,0.0239,0.0170
311,0.0034,0.0233,0.0223,0.0121
312,0.0039,0.0141,0.0140,0.0061
313,0.0037,0.0110,0.0085,0.0023
314,0.0042,0.0127,0.0157,0.0105
315,0.0029,0.0130,0.0142,0.0061
316,0.0022,0.0081,0.0073,0.0043
317,0.0032,0.0072,0.0117,0.0034
318,0.0028,0.0094,0.0083,0.0019
319,0.0021,0.0094,0.0089,0.0013
320,0.0032,0.0061,0.0075,0.0020
321,0.0020,0.0062,0.0052,0.0035
322,0.0027,0.0068,0.0061,0.0038
323,0.0032,0.0166,0.0179,0.0043
324,0.0044,0.0132,0.0098,0.0028
325,0.0026,0.0086,0.0080,0.0048
326,0.0020,0.0098,0.0096,0.0054
327,0.0036,0.0128,0.0134,0.0067
328,0.0021,0.0147,0.0151,0.0077
329,0.0037,0.0294,0.0297,0.0173
330,0.0040,0.0125,0.0120,0.0123
331,0.0025,0.0123,0.0129,0.0013
332,0.0018,0.0061,0.0052,0.0009
333,0.0031,0.0064,0.0062,0.0015
334,0.0026,0.0074,0.0057,0.0018
335,0.0057,0.0176,0.0102,0.0024
336,0.0037,0.0103,0.0071,0.0023
337,0.0018,0.0061,0.0052,0.0009
338,0.0031,0.0064,0.0062,0.0015
339,0.0018,0.0061,0.0052,0.0009
340,0.0018,0.0061,0.0052,0.0009
341,0.0026,0.0074,0.0057,0.0018
342,0.0018,0.0061,0.0052,0.0009
343,0.0018,0.0061,0.0052,0.0009
344,0.0037,0.0065,0.0069,0.0016
345,0.0018,0.0061,0.0052,0.0009
346,0.0026,0.0074,0.0057,0.0018
347,0.0035,0.0094,0.0064,0.0019
348,0.0031,0.0064,0.0062,0.0015
349,0.0018,0.0061,0.0052,0.0009
350,0.0018,0.0061,0.0052,0.0009
351,0.0031,0.0064,0.0062,0.0015
352,0.0026,0.0074,0.0057,0.0018
353,0.0018,0.0061,0.0052,0.0009
354,0.0031,0.0064,0.0062,0.0015
355,0.0018,0.0061,0.0052,0.0009
356,0.0035,0.0077,0.0052,0.0022
357,0.0026,0.0074,0.0057,0.0018
358,0.0037,0.0114,0.0091,0.0035
359,0.0018,0.0061,0.0052,0.0009
360,0.0018,0.0061,0.0052,0.0009
361,0.0031,0.0064,0.0062,0.0015
362,0.0018,0.0061,0.0052,0.0009
363,0.0026,0.0074,0.0057,0.0018
364,0.0031,0.0064,0.0062,0.0015
365,0.0018,0.0061,0.0052,0.0009
366,0.0018,0.0061,0.0052,0.0009
367,0.0031,0.0064,0.0062,0.0015
368,0.0033,0.0110,0.0076,0.0031
369,0.0041,0.0103,0.0093,0.0045
370,0.0018,0.0061,0.0052,0.0009
371,0.0031,0.0064,0.0062,0.0015
372,0.0018,0.0061,0.0052,0.0009
373,0.0018,0.0061,0.0052,0.0009
374,0.0026,0.0074,0.0057,0.0018
375,0.0034,0.0065,0.0079,0.0023
376,0.0031,0.0067,0.0085,0.0019
377,0.0050,0.0093,0.0092,0.0032
378,0.0026,0.0056,0.0070,0.0019
379,0.0040,0.0102,0.0069,0.0029
380,0.0045,0.0309,0.0352,0.0100
381,0.0049,0.0076,0.0082,0.0022
382,0.0026,0.0061,0.0069,0.0022
383,0.0025,0.0053,0.0050,0.0022
384,0.0036,0.0082,0.0087,0.0019
385,0.0028,0.0069,0.0052,0.0026
386,0.0018,0.0060,0.0056,0.0011
387,0.0032,0.0063,0.0060,0.0020
388,0.0024,0.0059,0.0041,0.0014
389,0.0021,0.0094,0.0089,0.0013
390,0.0051,0.0099,0.0075,0.0025
391,0.0043,0.0148,0.0159,0.0058
392,0.0031,0.0074,0.0061,0.0018
393,0.0039,0.0095,0.0076,0.0013
394,0.0041,0.0092,0.0102,0.0018
395,0.0035,0.0074,0.0054,0.0019
396,0.0045,0.0152,0.0125,0.0040
397,0.0056,0.0094,0.0108,0.0040
398,0.0043,0.0132,0.0109,0.0025
399,0.0026,0.0260,0.0254,0.0158
400,0.0032,0.0185,0.0156,0.0115
401,0.0027,0.0213,0.0206,0.0133
402,0.0043,0.0190,0.0219,0.0067
403,0.0027,0.0213,0.0206,0.0133
404,0.0027,0.0213,0.0206,0.0133
405,0.0027,0.0213,0.0206,0.0133
406,0.0027,0.0213,0.0206,0.0133
407,0.0027,0.0213,0.0206,0.0133
408,0.0019,0.0050,0.0045,0.0009
409,0.0019,0.0050,0.0045,0.0009
410,0.0033,0.0066,0.0067,0.0016
411,0.0023,0.0049,0.0041,0.0011
412,0.0025,0.0117,0.0130,0.0022
413,0.0049,0.0282,0.0323,0.0098
414,0.0035,0.0058,0.0060,0.0029
415,0.0021,0.0084,0.0090,0.0011
416,0.0025,0.0117,0.0129,0.0011
417,0.0038,0.0050,0.0061,0.0016
418,0.0039,0.0076,0.0054,0.0035
419,0.0035,0.0056,0.0049,0.0022
420,0.0048,0.0063,0.0081,0.0022
421,0.0038,0.0071,0.0062,0.0014
422,0.0042,0.0113,0.0094,0.0029
423,0.0027,0.0111,0.0120,0.0028
424,0.0057,0.0344,0.0378,0.0135
425,0.0020,0.0298,0.0284,0.0194
426,0.0028,0.0174,0.0149,0.0120
427,0.0030,0.0306,0.0274,0.0207
428,0.0032,0.0256,0.0246,0.0134
429,0.0035,0.0118,0.0130,0.0051
430,0.0040,0.0159,0.0197,0.0140
431,0.0026,0.0125,0.0149,0.0067
432,0.0022,0.0074,0.0084,0.0053
433,0.0035,0.0079,0.0148,0.0052
434,0.0029,0.0079,0.0074,0.0019
435,0.0055,0.0445,0.0390,0.0211
436,0.0021,0.0084,0.0090,0.0011
437,0.0033,0.0053,0.0070,0.0022
438,0.0018,0.0050,0.0052,0.0038
439,0.0022,0.0052,0.0058,0.0038
440,0.0031,0.0128,0.0139,0.0033
441,0.0021,0.0069,0.0076,0.0043
442,0.0018,0.0080,0.0082,0.0055
443,0.0037,0.0117,0.0138,0.0066
444,0.0020,0.0102,0.0094,0.0084
445,0.0033,0.0300,0.0290,0.0203
446,0.0045,0.0151,0.0103,0.0028
447,0.0064,0.0344,0.0318,0.0182
448,0.0037,0.0126,0.0121,0.0149
449,0.0025,0.0117,0.0129,0.0011
450,0.0019,0.0050,0.0045,0.0009
451,0.0033,0.0066,0.0067,0.0016
452,0.0026,0.0065,0.0062,0.0017
453,0.0019,0.0050,0.0045,0.0009
454,0.0033,0.0066,0.0067,0.0016
455,0.0019,0.0050,0.0045,0.0009
456,0.0019,0.0050,0.0045,0.0009
457,0.0026,0.0065,0.0062,0.0017
458,0.0038,0.0113,0.0082,0.0024
459,0.0019,0.0050,0.0045,0.0009
460,0.0019,0.0050,0.0045,0.0009
461,0.0038,0.0050,0.0061,0.0016
462,0.0019,0.0050,0.0045,0.0009
463,0.0026,0.0065,0.0062,0.0017
464,0.0033,0.0066,0.0067,0.0016
465,0.0019,0.0050,0.0045,0.0009
466,0.0019,0.0050,0.0045,0.0009
467,0.0033,0.0066,0.0067,0.0016
468,0.0026,0.0065,0.0062,0.0017
469,0.0033,0.0081,0.0052,0.0012
470,0.0019,0.0050,0.0045,0.0009
471,0.0033,0.0066,0.0067,0.0016
472,0.0019,0.0050,0.0045,0.0009
473,0.0035,0.0053,0.0046,0.0023
474,0.0026,0.0065,0.0062,0.0017
475,0.0019,0.0050,0.0045,0.0009
476,0.0019,0.0050,0.0045,0.0009
477,0.0033,0.0066,0.0067,0.0016
478,0.0019,0.0050,0.0045,0.0009
479,0.0026,0.0065,0.0062,0.0017
480,0.0033,0.0081,0.0052,0.0012
481,0.0033,0.0066,0.0067,0.0016
482,0.0019,0.0050,0.0045,0.0009
483,0.0019,0.0050,0.0045,0.0009
484,0.0033,0.0066,0.0067,0.0016
485,0.0032,0.0088,0.0067,0.0039
486,0.0019,0.0050,0.0045,0.0009
487,0.0033,0.0066,0.0067,0.0016
488,0.0019,0.0050,0.0045,0.0009
489,0.0019,0.0050,0.0045,0.0009
490,0.0026,0.0065,0.0062,0.0017
491,0.0041,0.0120,0.0083,0.0020
492,0.0033,0.0076,0.0118,0.0022
493,0.0030,0.0068,0.0106,0.0020
494,0.0048,0.0100,0.0124,0.0029
495,0.0026,0.0058,0.0091,0.0023
496,0.0039,0.0076,0.0054,0.0035
497,0.0048,0.0063,0.0081,0.0022
498,0.0026,0.0049,0.0067,0.0027
499,0.0026,0.0049,0.0060,0.0026
500,0.0037,0.0079,0.0095,0.0017
501,0.0028,0.0059,0.0054,0.0028
502,0.0033,0.0081,0.0052,0.0012
503,0.0019,0.0042,0.0041,0.0012
504,0.0034,0.0063,0.0066,0.0023
505,0.0025,0.0047,0.0041,0.0013
506,0.0021,0.0084,0.0090,0.0011
507,0.0049,0.0083,0.0071,0.0024
508,0.0032,0.0067,0.0065,0.0016
509,0.0038,0.0071,0.0062,0.0014
510,0.0041,0.0080,0.0097,0.0018
511,0.0035,0.0056,0.0049,0.0022
512,0.0039,0.0148,0.0129,0.0027
513,0.0033,0.0081,0.0052,0.0012
514,0.0056,0.0089,0.0112,0.0043
515,0.0042,0.0113,0.0094,0.0029
516,0.0020,0.0298,0.0284,0.0194
517,0.0031,0.0226,0.0188,0.0149
518,0.0026,0.0201,0.0199,0.0130
519,0.0026,0.0201,0.0199,0.0130
520,0.0026,0.0201,0.0199,0.0130
521,0.0026,0.0201,0.0199,0.0130
522,0.0026,0.0201,0.0199,0.0130
523,0.0026,0.0201,0.0199,0.0130
524,0.0033,0.0081,0.0052,0.0012
525,0.0020,0.0047,0.0045,0.0009
526,0.0020,0.0047,0.0045,0.0009
527,0.0034,0.0063,0.0066,0.0016
528,0.0025,0.0044,0.0040,0.0010
529,0.0024,0.0076,0.0082,0.0020
530,0.0036,0.0059,0.0062,0.0030
531,0.0021,0.0072,0.0076,0.0011
532,0.0025,0.0093,0.0103,0.0010
533,0.0038,0.0046,0.0056,0.0015
534,0.0039,0.0065,0.0051,0.0038
535,0.0033,0.0081,0.0052,0.0012
536,0.0035,0.0055,0.0051,0.0023
537,0.0047,0.0058,0.0080,0.0022
538,0.0038,0.0062,0.0057,0.0015
539,0.0042,0.0123,0.0103,0.0030
540,0.0027,0.0118,0.0130,0.0026
541,0.0018,0.0327,0.0307,0.0218
542,0.0029,0.0200,0.0172,0.0138
543,0.0031,0.0356,0.0320,0.0238
544,0.0032,0.0273,0.0264,0.0141
545,0.0034,0.0111,0.0128,0.0048
546,0.0041,0.0120,0.0083,0.0020
547,0.0039,0.0170,0.0210,0.0150
548,0.0026,0.0130,0.0161,0.0067
549,0.0024,0.0070,0.0085,0.0052
550,0.0036,0.0073,0.0145,0.0055
551,0.0030,0.0072,0.0069,0.0018
552,0.0021,0.0072,0.0076,0.0011
553,0.0033,0.0050,0.0069,0.0024
554,0.0017,0.0048,0.0055,0.0040
555,0.0020,0.0051,0.0064,0.0040
556,0.0031,0.0089,0.0089,0.0025
557,0.0060,0.0304,0.0221,0.0206
558,0.0033,0.0081,0.0052,0.0012
559,0.0019,0.0069,0.0086,0.0044
560,0.0017,0.0083,0.0091,0.0057
561,0.0036,0.0118,0.0149,0.0069
562,0.0021,0.0110,0.0095,0.0097
563,0.0033,0.0325,0.0306,0.0225
564,0.0036,0.0162,0.0157,0.0174
565,0.0025,0.0093,0.0103,0.0010
566,0.0020,0.0047,0.0045,0.0009
567,0.0034,0.0063,0.0066,0.0016
568,0.0027,0.0051,0.0048,0.0017
569,0.0033,0.0081,0.0052,0.0012
570,0.0020,0.0047,0.0045,0.0009
571,0.0034,0.0063,0.0066,0.0016
572,0.0020,0.0047,0.0045,0.0009
573,0.0020,0.0047,0.0045,0.0009
574,0.0027,0.0051,0.0048,0.0017
575,0.0020,0.0047,0.0045,0.0009
576,0.0020,0.0047,0.0045,0.0009
577,0.0038,0.0046,0.0056,0.0015
578,0.0020,0.0047,0.0045,0.0009
579,0.0027,0.0051,0.0048,0.0017
580,0.0042,0.0123,0.0088,0.0021
581,0.0034,0.0063,0.0066,0.0016
582,0.0020,0.0047,0.0045,0.0009
583,0.0020,0.0047,0.0045,0.0009
584,0.0034,0.0063,0.0066,0.0016
585,0.0027,0.0051,0.0048,0.0017
586,0.0020,0.0047,0.0045,0.0009
587,0.0034,0.0063,0.0066,0.0016
588,0.0020,0.0047,0.0045,0.0009
589,0.0035,0.0060,0.0062,0.0023
590,0.0027,0.0051,0.0048,0.0017
591,0.0033,0.0081,0.0052,0.0012
592,0.0020,0.0047,0.0045,0.0009
593,0.0020,0.0047,0.0045,0.0009
594,0.0034,0.0063,0.0066,0.0016
595,0.0020,0.0047,0.0045,0.0009
596,0.0027,0.0051,0.0048,0.0017
597,0.0034,0.0063,0.0066,0.0016
598,0.0020,0.0047,0.0045,0.0009
599,0.0020,0.0047,0.0045,0.0009
600,0.0034,0.0063,0.0066,0.0016
601,0.0032,0.0087,0.0068,0.0043
602,0.0041,0.0120,0.0083,0.0020
603,0.0020,0.0047,0.0045,0.0009
604,0.0034,0.0063,0.0066,0.0016
605,0.0020,0.0047,0.0045,0.0009
606,0.0020,0.0047,0.0045,0.0009
607,0.0027,0.0051,0.0048,0.0017
608,0.0034,0.0077,0.0127,0.0022
609,0.0030,0.0086,0.0141,0.0021
610,0.0048,0.0114,0.0154,0.0029
611,0.0026,0.0077,0.0123,0.0025
612,0.0039,0.0065,0.0051,0.0038
613,0.0033,0.0081,0.0052,0.0012
614,0.0047,0.0058,0.0080,0.0022
615,0.0027,0.0060,0.0087,0.0029
616,0.0026,0.0046,0.0058,0.0028
617,0.0038,0.0083,0.0104,0.0016
618,0.0028,0.0053,0.0051,0.0029
619,0.0020,0.0038,0.0040,0.0014
620,0.0036,0.0055,0.0060,0.0022
621,0.0026,0.0043,0.0036,0.0012
622,0.0021,0.0072,0.0076,0.0011
623,0.0049,0.0106,0.0099,0.0024
624,0.0033,0.0081,0.0052,0.0012
625,0.0032,0.0072,0.0073,0.0014
626,0.0038,0.0062,0.0057,0.0015
627,0.0042,0.0049,0.0063,0.0017
628,0.0035,0.0055,0.0051,0.0023
629,0.0039,0.0155,0.0135,0.0027
630,0.0055,0.0108,0.0131,0.0044
631,0.0042,0.0123,0.0103,0.0030
632,0.0018,0.0327,0.0307,0.0218
633,0.0031,0.0275,0.0232,0.0184
634,0.0026,0.0209,0.0208,0.0132
635,0.0033,0.0081,0.0052,0.0012
636,0.0026,0.0209,0.0208,0.0132
637,0.0026,0.0209,0.0208,0.0132
638,0.0026,0.0209,0.0208,0.0132
639,0.0026,0.0209,0.0208,0.0132
640,0.0026,0.0209,0.0208,0.0132
641,0.0021,0.0090,0.0057,0.0010
642,0.0021,0.0090,0.0057,0.0010
643,0.0034,0.0084,0.0066,0.0026
644,0.0025,0.0118,0.0102,0.0011
645,0.0038,0.0125,0.0074,0.0020
646,0.0033,0.0081,0.0052,0.0012
647,0.0036,0.0098,0.0077,0.0019
648,0.0026,0.0116,0.0076,0.0011
649,0.0030,0.0115,0.0069,0.0012
650,0.0041,0.0122,0.0103,0.0018
651,0.0047,0.0162,0.0091,0.0024
652,0.0040,0.0136,0.0080,0.0018
653,0.0050,0.0146,0.0128,0.0023
654,0.0044,0.0177,0.0130,0.0026
655,0.0049,0.0162,0.0114,0.0025
656,0.0047,0.0139,0.0089,0.0029
657,0.0041,0.0120,0.0083,0.0020
658,0.0043,0.0267,0.0186,0.0177
659,0.0026,0.0245,0.0174,0.0138
660,0.0036,0.0231,0.0204,0.0142
661,0.0033,0.0256,0.0240,0.0094
662,0.0040,0.0226,0.0193,0.0066
663,0.0046,0.0158,0.0162,0.0100
664,0.0036,0.0218,0.0205,0.0026
665,0.0026,0.0174,0.0152,0.0019
666,0.0034,0.0116,0.0135,0.0062
667,0.0033,0.0131,0.0095,0.0018
668,0.0033,0.0295,0.0215,0.0179
669,0.0033,0.0081,0.0052,0.0012
670,0.0026,0.0116,0.0076,0.0011
671,0.0034,0.0093,0.0092,0.0019
672,0.0018,0.0109,0.0072,0.0024
673,0.0027,0.0136,0.0105,0.0033
674,0.0039,0.0260,0.0275,0.0074
675,0.0040,0.0162,0.0148,0.0063
676,0.0029,0.0184,0.0185,0.0076
677,0.0044,0.0226,0.0238,0.0111
678,0.0028,0.0293,0.0306,0.0120
679,0.0044,0.0464,0.0420,0.0225
680,0.0033,0.0081,0.0052,0.0012
681,0.0047,0.0222,0.0227,0.0122
682,0.0030,0.0115,0.0069,0.0012
683,0.0021,0.0090,0.0057,0.0010
684,0.0034,0.0084,0.0066,0.0026
685,0.0035,0.0117,0.0071,0.0018
686,0.0021,0.0090,0.0057,0.0010
687,0.0034,0.0084,0.0066,0.0026
688,0.0021,0.0090,0.0057,0.0010
689,0.0021,0.0090,0.0057,0.0010
690,0.0035,0.0117,0.0071,0.0018
691,0.0033,0.0081,0.0052,0.0012
692,0.0021,0.0090,0.0057,0.0010
693,0.0021,0.0090,0.0057,0.0010
694,0.0041,0.0122,0.0103,0.0018
695,0.0021,0.0090,0.0057,0.0010
696,0.0035,0.0117,0.0071,0.0018
697,0.0034,0.0084,0.0066,0.0026
698,0.0021,0.0090,0.0057,0.0010
699,0.0021,0.0090,0.0057,0.0010
700,0.0034,0.0084,0.0066,0.0026
701,0.0035,0.0117,0.0071,0.0018
702,0.0048,0.0116,0.0081,0.0017
703,0.0021,0.0090,0.0057,0.0010
704,0.0034,0.0084,0.0066,0.0026
705,0.0021,0.0090,0.0057,0.0010
706,0.0039,0.0126,0.0072,0.0014
707,0.0035,0.0117,0.0071,0.0018
708,0.0021,0.0090,0.0057,0.0010
709,0.0021,0.0090,0.0057,0.0010
710,0.0034,0.0084,0.0066,0.0026
711,0.0021,0.0090,0.0057,0.0010
712,0.0035,0.0117,0.0071,0.0018
713,0.0041,0.0120,0.0083,0.0020
714,0.0034,0.0084,0.0066,0.0026
715,0.0021,0.0090,0.0057,0.0010
716,0.0021,0.0090,0.0057,0.0010
717,0.0034,0.0084,0.0066,0.0026
718,0.0038,0.0169,0.0097,0.0040
719,0.0021,0.0090,0.0057,0.0010
720,0.0034,0.0084,0.0066,0.0026
721,0.0021,0.0090,0.0057,0.0010
722,0.0021,0.0090,0.0057,0.0010
723,0.0035,0.0117,0.0071,0.0018
724,0.0033,0.0081,0.0052,0.0012
725,0.0068,0.0087,0.0114,0.0031
726,0.0060,0.0092,0.0105,0.0023
727,0.0095,0.0118,0.0093,0.0036
728,0.0048,0.0091,0.0090,0.0019
729,0.0047,0.0162,0.0091,0.0024
730,0.0050,0.0146,0.0128,0.0023
731,0.0037,0.0085,0.0074,0.0022
732,0.0033,0.0088,0.0072,0.0021
733,0.0053,0.0100,0.0074,0.0036
734,0.0033,0.0125,0.0087,0.0022
735,0.0033,0.0081,0.0052,0.0012
736,0.0020,0.0097,0.0076,0.0011
737,0.0034,0.0094,0.0084,0.0020
738,0.0028,0.0112,0.0090,0.0012
739,0.0026,0.0116,0.0076,0.0011
740,0.0066,0.0154,0.0103,0.0027
741,0.0037,0.0119,0.0074,0.0013
742,0.0044,0.0177,0.0130,0.0026
743,0.0043,0.0123,0.0096,0.0025
744,0.0040,0.0136,0.0080,0.0018
745,0.0053,0.0176,0.0096,0.0069
746,0.0033,0.0081,0.0052,0.0012
747,0.0055,0.0150,0.0147,0.0027
748,0.0049,0.0162,0.0114,0.0025
749,0.0043,0.0267,0.0186,0.0177
750,0.0041,0.0257,0.0172,0.0193
751,0.0027,0.0254,0.0215,0.0106
752,0.0027,0.0254,0.0215,0.0106
753,0.0027,0.0254,0.0215,0.0106
754,0.0027,0.0254,0.0215,0.0106
755,0.0027,0.0254,0.0215,0.0106
756,0.0027,0.0254,0.0215,0.0106
757,0.0033,0.0081,0.0052,0.0012
758,0.0019,0.0078,0.0046,0.0010
759,0.0019,0.0078,0.0046,0.0010
760,0.0032,0.0077,0.0060,0.0018
761,0.0023,0.0092,0.0071,0.0012
762,0.0031,0.0112,0.0078,0.0021
763,0.0035,0.0085,0.0066,0.0022
764,0.0023,0.0102,0.0070,0.0011
765,0.0027,0.0101,0.0061,0.0012
766,0.0039,0.0097,0.0078,0.0016
767,0.0048,0.0142,0.0087,0.0022
768,0.0041,0.0120,0.0083,0.0020
769,0.0039,0.0124,0.0079,0.0015
770,0.0049,0.0127,0.0114,0.0020
771,0.0044,0.0138,0.0092,0.0019
772,0.0049,0.0128,0.0076,0.0017
773,0.0038,0.0118,0.0082,0.0029
774,0.0034,0.0233,0.0188,0.0138
775,0.0025,0.0212,0.0159,0.0113
776,0.0033,0.0222,0.0206,0.0132
777,0.0033,0.0236,0.0223,0.0099
778,0.0039,0.0198,0.0174,0.0069
779,0.0033,0.0255,0.0201,0.0138
780,0.0033,0.0081,0.0052,0.0012
781,0.0045,0.0153,0.0173,0.0080
782,0.0033,0.0199,0.0194,0.0039
783,0.0024,0.0152,0.0133,0.0026
784,0.0032,0.0127,0.0165,0.0036
785,0.0030,0.0111,0.0078,0.0018
786,0.0023,0.0102,0.0070,0.0011
787,0.0034,0.0084,0.0095,0.0019
788,0.0020,0.0093,0.0064,0.0029
789,0.0031,0.0103,0.0081,0.0035
790,0.0038,0.0238,0.0260,0.0068
791,0.0033,0.0081,0.0052,0.0012
792,0.0034,0.0139,0.0125,0.0059
793,0.0026,0.0156,0.0157,0.0067
794,0.0042,0.0201,0.0209,0.0098
795,0.0026,0.0259,0.0277,0.0104
796,0.0041,0.0382,0.0347,0.0183
797,0.0047,0.0190,0.0197,0.0108
798,0.0027,0.0101,0.0061,0.0012
799,0.0019,0.0078,0.0046,0.0010
800,0.0032,0.0077,0.0060,0.0018
801,0.0030,0.0106,0.0068,0.0018
802,0.0033,0.0081,0.0052,0.0012
803,0.0019,0.0078,0.0046,0.0010
804,0.0032,0.0077,0.0060,0.0018
805,0.0019,0.0078,0.0046,0.0010
806,0.0019,0.0078,0.0046,0.0010
807,0.0030,0.0106,0.0068,0.0018
808,0.0019,0.0078,0.0046,0.0010
809,0.0019,0.0078,0.0046,0.0010
810,0.0039,0.0097,0.0078,0.0016
811,0.0019,0.0078,0.0046,0.0010
812,0.0030,0.0106,0.0068,0.0018
813,0.0033,0.0081,0.0052,0.0012
814,0.0032,0.0077,0.0060,0.0018
815,0.0019,0.0078,0.0046,0.0010
816,0.0019,0.0078,0.0046,0.0010
817,0.0032,0.0077,0.0060,0.0018
818,0.0030,0.0106,0.0068,0.0018
819,0.0019,0.0078,0.0046,0.0010
820,0.0032,0.0077,0.0060,0.0018
821,0.0019,0.0078,0.0046,0.0010
822,0.0039,0.0109,0.0062,0.0015
823,0.0030,0.0106,0.0068,0.0018
824,0.0054,0.0157,0.0092,0.0037
825,0.0019,0.0078,0.0046,0.0010
826,0.0019,0.0078,0.0046,0.0010
827,0.0032,0.0077,0.0060,0.0018
828,0.0019,0.0078,0.0046,0.0010
829,0.0030,0.0106,0.0068,0.0018
830,0.0032,0.0077,0.0060,0.0018
831,0.0019,0.0078,0.0046,0.0010
832,0.0019,0.0078,0.0046,0.0010
833,0.0032,0.0077,0.0060,0.0018
834,0.0037,0.0147,0.0087,0.0033
835,0.0033,0.0081,0.0052,0.0012
836,0.0019,0.0078,0.0046,0.0010
837,0.0032,0.0077,0.0060,0.0018
838,0.0019,0.0078,0.0046,0.0010
839,0.0019,0.0078,0.0046,0.0010
840,0.0030,0.0106,0.0068,0.0018
841,0.0066,0.0083,0.0113,0.0031
842,0.0059,0.0079,0.0096,0.0023
843,0.0091,0.0113,0.0092,0.0033
844,0.0046,0.0083,0.0087,0.0019
845,0.0048,0.0142,0.0087,0.0022
846,0.0033,0.0081,0.0052,0.0012
847,0.0049,0.0127,0.0114,0.0020
848,0.0037,0.0080,0.0076,0.0021
849,0.0033,0.0078,0.0068,0.0020
850,0.0050,0.0098,0.0081,0.0028
851,0.0029,0.0097,0.0060,0.0023
852,0.0018,0.0081,0.0055,0.0011
853,0.0033,0.0079,0.0066,0.0017
854,0.0026,0.0082,0.0054,0.0012
855,0.0023,0.0102,0.0070,0.0011
856,0.0063,0.0129,0.0079,0.0026
857,0.0033,0.0081,0.0052,0.0012
858,0.0035,0.0102,0.0061,0.0014
859,0.0044,0.0138,0.0092,0.0019
860,0.0042,0.0097,0.0074,0.0021
861,0.0039,0.0124,0.0079,0.0015
862,0.0046,0.0162,0.0093,0.0061
863,0.0054,0.0127,0.0128,0.0027
864,0.0049,0.0128,0.0076,0.0017
865,0.0034,0.0233,0.0188,0.0138
866,0.0037,0.0212,0.0155,0.0146
867,0.0027,0.0232,0.0202,0.0111
868,0.0033,0.0081,0.0052,0.0012
869,0.0027,0.0232,0.0202,0.0111
870,0.0027,0.0232,0.0202,0.0111
871,0.0027,0.0232,0.0202,0.0111
872,0.0027,0.0232,0.0202,0.0111
873,0.0027,0.0232,0.0202,0.0111
874,0.0017,0.0059,0.0045,0.0009
875,0.0017,0.0059,0.0045,0.0009
876,0.0030,0.0067,0.0060,0.0015
877,0.0021,0.0071,0.0056,0.0012
878,0.0026,0.0116,0.0122,0.0023
879,0.0041,0.0120,0.0083,0.0020
880,0.0032,0.0065,0.0058,0.0028
881,0.0021,0.0081,0.0073,0.0011
882,0.0026,0.0105,0.0108,0.0011
883,0.0037,0.0062,0.0060,0.0016
884,0.0048,0.0107,0.0076,0.0028
885,0.0039,0.0079,0.0056,0.0016
886,0.0048,0.0082,0.0081,0.0020
887,0.0044,0.0106,0.0086,0.0011
888,0.0049,0.0129,0.0111,0.0019
889,0.0031,0.0113,0.0117,0.0030
890,0.0036,0.0218,0.0185,0.0100
891,0.0044,0.0094,0.0145,0.0028
892,0.0021,0.0193,0.0181,0.0110
893,0.0028,0.0149,0.0119,0.0080
894,0.0031,0.0248,0.0232,0.0155
895,0.0031,0.0233,0.0224,0.0113
896,0.0036,0.0143,0.0139,0.0060
897,0.0042,0.0176,0.0214,0.0121
898,0.0028,0.0176,0.0189,0.0071
899,0.0020,0.0112,0.0108,0.0050
900,0.0030,0.0104,0.0161,0.0042
901,0.0028,0.0084,0.0066,0.0018
902,0.0044,0.0093,0.0132,0.0026
903,0.0021,0.0081,0.0073,0.0011
904,0.0034,0.0065,0.0084,0.0020
905,0.0022,0.0068,0.0063,0.0033
906,0.0029,0.0075,0.0070,0.0035
907,0.0037,0.0193,0.0223,0.0057
908,0.0025,0.0088,0.0084,0.0041
909,0.0020,0.0108,0.0116,0.0043
910,0.0038,0.0157,0.0159,0.0078
911,0.0024,0.0174,0.0197,0.0066
912,0.0038,0.0241,0.0217,0.0121
913,0.0048,0.0096,0.0124,0.0025
914,0.0044,0.0119,0.0126,0.0089
915,0.0026,0.0105,0.0108,0.0011
916,0.0017,0.0059,0.0045,0.0009
917,0.0030,0.0067,0.0060,0.0015
918,0.0026,0.0076,0.0058,0.0018
919,0.0017,0.0059,0.0045,0.0009
920,0.0030,0.0067,0.0060,0.0015
921,0.0017,0.0059,0.0045,0.0009
922,0.0017,0.0059,0.0045,0.0009
923,0.0026,0.0076,0.0058,0.0018
924,0.0053,0.0090,0.0106,0.0024
925,0.0017,0.0059,0.0045,0.0009
926,0.0017,0.0059,0.0045,0.0009
927,0.0037,0.0062,0.0060,0.0016
928,0.0017,0.0059,0.0045,0.0009
929,0.0026,0.0076,0.0058,0.0018
930,0.0030,0.0067,0.0060,0.0015
931,0.0017,0.0059,0.0045,0.0009
932,0.0017,0.0059,0.0045,0.0009
933,0.0030,0.0067,0.0060,0.0015
934,0.0026,0.0076,0.0058,0.0018
935,0.0052,0.0154,0.0098,0.0028
936,0.0017,0.0059,0.0045,0.0009
937,0.0030,0.0067,0.0060,0.0015
938,0.0017,0.0059,0.0045,0.0009
939,0.0039,0.0081,0.0051,0.0018
940,0.0026,0.0076,0.0058,0.0018
941,0.0017,0.0059,0.0045,0.0009
942,0.0017,0.0059,0.0045,0.0009
943,0.0030,0.0067,0.0060,0.0015
944,0.0017,0.0059,0.0045,0.0009
945,0.0026,0.0076,0.0058,0.0018
946,0.0049,0.0161,0.0115,0.0022
947,0.0030,0.0067,0.0060,0.0015
948,0.0017,0.0059,0.0045,0.0009
949,0.0017,0.0059,0.0045,0.0009
950,0.0030,0.0067,0.0060,0.0015
951,0.0037,0.0118,0.0085,0.0029
952,0.0017,0.0059,0.0045,0.0009
953,0.0030,0.0067,0.0060,0.0015
954,0.0017,0.0059,0.0045,0.0009
955,0.0017,0.0059,0.0045,0.0009
956,0.0026,0.0076,0.0058,0.0018
957,0.0060,0.0085,0.0084,0.0021
958,0.0059,0.0062,0.0090,0.0027
959,0.0052,0.0063,0.0087,0.0022
960,0.0082,0.0109,0.0108,0.0030
961,0.0042,0.0055,0.0069,0.0021
962,0.0048,0.0107,0.0076,0.0028
963,0.0048,0.0082,0.0081,0.0020
964,0.0035,0.0064,0.0073,0.0023
965,0.0032,0.0055,0.0058,0.0023
966,0.0045,0.0094,0.0094,0.0018
967,0.0027,0.0070,0.0049,0.0025
968,0.0056,0.0079,0.0070,0.0018
969,0.0017,0.0059,0.0057,0.0011
970,0.0030,0.0066,0.0061,0.0021
971,0.0024,0.0061,0.0042,0.0013
972,0.0021,0.0081,0.0073,0.0011
973,0.0059,0.0099,0.0069,0.0026
974,0.0035,0.0075,0.0053,0.0015
975,0.0044,0.0106,0.0086,0.0011
976,0.0041,0.0082,0.0089,0.0019
977,0.0039,0.0079,0.0056,0.0016
978,0.0037,0.0142,0.0117,0.0038
979,0.0048,0.0088,0.0081,0.0017
980,0.0053,0.0091,0.0105,0.0032
981,0.0049,0.0129,0.0111,0.0019
982,0.0021,0.0193,0.0181,0.0110
983,0.0032,0.0159,0.0130,0.0094
984,0.0026,0.0193,0.0185,0.0112
985,0.0026,0.0193,0.0185,0.0112
986,0.0026,0.0193,0.0185,0.0112
987,0.0026,0.0193,0.0185,0.0112
988,0.0026,0.0193,0.0185,0.0112
989,0.0026,0.0193,0.0185,0.0112
990,0.0042,0.0101,0.0060,0.0022
991,0.0017,0.0047,0.0039,0.0009
992,0.0017,0.0047,0.0039,0.0009
993,0.0029,0.0072,0.0070,0.0017
994,0.0021,0.0054,0.0044,0.0011
995,0.0025,0.0112,0.0130,0.0022
996,0.0032,0.0062,0.0062,0.0030
997,0.0021,0.0071,0.0075,0.0010
998,0.0027,0.0108,0.0120,0.0010
999,0.0037,0.0050,0.0058,0.0015
1000,0.0048,0.0078,0.0059,0.0033
1001,0.0054,0.0260,0.0224,0.0093
1002,0.0032,0.0083,0.0058,0.0012
1003,0.0039,0.0057,0.0047,0.0019
1004,0.0047,0.0059,0.0076,0.0019
1005,0.0043,0.0077,0.0071,0.0011
1006,0.0048,0.0097,0.0084,0.0021
1007,0.0030,0.0105,0.0117,0.0028
1008,0.0017,0.0204,0.0195,0.0130
1009,0.0032,0.0126,0.0104,0.0080
1010,0.0030,0.0285,0.0256,0.0185
1011,0.0030,0.0244,0.0235,0.0120
1012,0.0034,0.0115,0.0124,0.0047
1013,0.0037,0.0101,0.0081,0.0016
1014,0.0041,0.0212,0.0253,0.0158
1015,0.0025,0.0157,0.0182,0.0073
1016,0.0019,0.0107,0.0119,0.0058
1017,0.0030,0.0114,0.0188,0.0062
1018,0.0029,0.0071,0.0063,0.0018
1019,0.0021,0.0071,0.0075,0.0010
1020,0.0033,0.0056,0.0078,0.0022
1021,0.0019,0.0050,0.0050,0.0035
1022,0.0022,0.0054,0.0054,0.0032
1023,0.0037,0.0150,0.0177,0.0048
1024,0.0040,0.0098,0.0066,0.0021
1025,0.0020,0.0066,0.0066,0.0033
1026,0.0019,0.0070,0.0073,0.0035
1027,0.0037,0.0132,0.0136,0.0069
1028,0.0020,0.0097,0.0111,0.0049
1029,0.0036,0.0182,0.0157,0.0116
1030,0.0039,0.0094,0.0089,0.0103
1031,0.0027,0.0108,0.0120,0.0010
1032,0.0017,0.0047,0.0039,0.0009
1033,0.0029,0.0072,0.0070,0.0017
1034,0.0027,0.0063,0.0064,0.0017
1035,0.0037,0.0103,0.0071,0.0023
1036,0.0017,0.0047,0.0039,0.0009
1037,0.0029,0.0072,0.0070,0.0017
1038,0.0017,0.0047,0.0039,0.0009
1039,0.0017,0.0047,0.0039,0.0009
1040,0.0027,0.0063,0.0064,0.0017
1041,0.0017,0.0047,0.0039,0.0009
1042,0.0017,0.0047,0.0039,0.0009
1043,0.0037,0.0050,0.0058,0.0015
1044,0.0017,0.0047,0.0039,0.0009
1045,0.0027,0.0063,0.0064,0.0017
1046,0.0060,0.0149,0.0102,0.0029
1047,0.0029,0.0072,0.0070,0.0017
1048,0.0017,0.0047,0.0039,0.0009
1049,0.0017,0.0047,0.0039,0.0009
1050,0.0029,0.0072,0.0070,0.0017
1051,0.0027,0.0063,0.0064,0.0017
1052,0.0017,0.0047,0.0039,0.0009
1053,0.0029,0.0072,0.0070,0.0017
1054,0.0017,0.0047,0.0039,0.0009
1055,0.0040,0.0052,0.0042,0.0020
1056,0.0027,0.0063,0.0064,0.0017
1057,0.0042,0.0123,0.0088,0.0021
1058,0.0017,0.0047,0.0039,0.0009
1059,0.0017,0.0047,0.0039,0.0009
1060,0.0029,0.0072,0.0070,0.0017
1061,0.0017,0.0047,0.0039,0.0009
1062,0.0027,0.0063,0.0064,0.0017
1063,0.0029,0.0072,0.0070,0.0017
1064,0.0017,0.0047,0.0039,0.0009
1065,0.0017,0.0047,0.0039,0.0009
1066,0.0029,0.0072,0.0070,0.0017
1067,0.0037,0.0088,0.0071,0.0037
1068,0.0052,0.0161,0.0109,0.0023
1069,0.0017,0.0047,0.0039,0.0009
1070,0.0029,0.0072,0.0070,0.0017
1071,0.0017,0.0047,0.0039,0.0009
1072,0.0017,0.0047,0.0039,0.0009
1073,0.0027,0.0063,0.0064,0.0017
1074,0.0053,0.0060,0.0105,0.0025
1075,0.0048,0.0053,0.0090,0.0022
1076,0.0077,0.0110,0.0132,0.0030
1077,0.0039,0.0047,0.0075,0.0025
1078,0.0048,0.0078,0.0059,0.0033
1079,0.0048,0.0116,0.0081,0.0017
1080,0.0047,0.0059,0.0076,0.0019
1081,0.0033,0.0046,0.0063,0.0028
1082,0.0030,0.0049,0.0062,0.0026
1083,0.0043,0.0083,0.0092,0.0016
1084,0.0027,0.0057,0.0047,0.0027
1085,0.0016,0.0043,0.0045,0.0012
1086,0.0030,0.0068,0.0068,0.0024
1087,0.0024,0.0045,0.0036,0.0012
1088,0.0021,0.0071,0.0075,0.0010
1089,0.0058,0.0074,0.0056,0.0025
1090,0.0050,0.0129,0.0087,0.0016
1091,0.0036,0.0066,0.0060,0.0014
1092,0.0043,0.0077,0.0071,0.0011
1093,0.0042,0.0073,0.0088,0.0020
1094,0.0039,0.0057,0.0047,0.0019
1095,0.0034,0.0125,0.0108,0.0027
1096,0.0052,0.0084,0.0108,0.0034
1097,0.0048,0.0097,0.0084,0.0021
1098,0.0017,0.0204,0.0195,0.0130
1099,0.0032,0.0175,0.0142,0.0109
1100,0.0026,0.0164,0.0163,0.0100
1101,0.0070,0.0166,0.0095,0.0069
1102,0.0026,0.0164,0.0163,0.0100
1103,0.0026,0.0164,0.0163,0.0100
1104,0.0026,0.0164,0.0163,0.0100
1105,0.0026,0.0164,0.0163,0.0100
1106,0.0026,0.0164,0.0163,0.0100
1107,0.0017,0.0043,0.0038,0.0009
1108,0.0017,0.0043,0.0038,0.0009
1109,0.0030,0.0067,0.0067,0.0017
1110,0.0022,0.0041,0.0036,0.0010
1111,0.0025,0.0071,0.0081,0.0021
1112,0.0034,0.0095,0.0060,0.0012
1113,0.0042,0.0200,0.0174,0.0058
1114,0.0052,0.0161,0.0109,0.0023
1115,0.0032,0.0067,0.0068,0.0031
1116,0.0022,0.0062,0.0064,0.0010
1117,0.0027,0.0088,0.0097,0.0009
1118,0.0038,0.0050,0.0057,0.0015
1119,0.0048,0.0071,0.0062,0.0034
1120,0.0039,0.0053,0.0047,0.0019
1121,0.0047,0.0054,0.0074,0.0018
1122,0.0042,0.0065,0.0065,0.0011
1123,0.0047,0.0095,0.0081,0.0022
1124,0.0030,0.0115,0.0129,0.0026
1125,0.0057,0.0131,0.0077,0.0018
1126,0.0017,0.0227,0.0214,0.0151
1127,0.0033,0.0136,0.0114,0.0092
1128,0.0031,0.0332,0.0299,0.0215
1129,0.0030,0.0259,0.0252,0.0125
1130,0.0032,0.0104,0.0119,0.0039
1131,0.0041,0.0217,0.0258,0.0164
1132,0.0025,0.0160,0.0191,0.0071
1133,0.0020,0.0105,0.0123,0.0056
1134,0.0030,0.0107,0.0182,0.0065
1135,0.0030,0.0067,0.0061,0.0017
1136,0.0054,0.0254,0.0209,0.0158
1137,0.0022,0.0062,0.0064,0.0010
1138,0.0033,0.0053,0.0079,0.0024
1139,0.0018,0.0044,0.0047,0.0036
1140,0.0020,0.0048,0.0052,0.0033
1141,0.0038,0.0102,0.0122,0.0037
1142,0.0019,0.0057,0.0061,0.0030
1143,0.0019,0.0065,0.0068,0.0037
1144,0.0036,0.0125,0.0134,0.0068
1145,0.0019,0.0080,0.0081,0.0054
1146,0.0035,0.0195,0.0166,0.0133
1147,0.0032,0.0248,0.0188,0.0144
1148,0.0037,0.0120,0.0109,0.0125
1149,0.0027,0.0088,0.0097,0.0009
1150,0.0017,0.0043,0.0038,0.0009
1151,0.0030,0.0067,0.0067,0.0017
1152,0.0027,0.0050,0.0048,0.0017
1153,0.0017,0.0043,0.0038,0.0009
1154,0.0030,0.0067,0.0067,0.0017
1155,0.0017,0.0043,0.0038,0.0009
1156,0.0017,0.0043,0.0038,0.0009
1157,0.0027,0.0050,0.0048,0.0017
1158,0.0049,0.0244,0.0197,0.0111
1159,0.0017,0.0043,0.0038,0.0009
1160,0.0017,0.0043,0.0038,0.0009
1161,0.0038,0.0050,0.0057,0.0015
1162,0.0017,0.0043,0.0038,0.0009
1163,0.0027,0.0050,0.0048,0.0017
1164,0.0030,0.0067,0.0067,0.0017
1165,0.0017,0.0043,0.0038,0.0009
1166,0.0017,0.0043,0.0038,0.0009
1167,0.0030,0.0067,0.0067,0.0017
1168,0.0027,0.0050,0.0048,0.0017
1169,0.0049,0.0244,0.0197,0.0111
1170,0.0017,0.0043,0.0038,0.0009
1171,0.0030,0.0067,0.0067,0.0017
1172,0.0017,0.0043,0.0038,0.0009
1173,0.0040,0.0057,0.0056,0.0020
1174,0.0027,0.0050,0.0048,0.0017
1175,0.0017,0.0043,0.0038,0.0009
1176,0.0017,0.0043,0.0038,0.0009
1177,0.0030,0.0067,0.0067,0.0017
1178,0.0017,0.0043,0.0038,0.0009
1179,0.0027,0.0050,0.0048,0.0017
1180,0.0049,0.0244,0.0197,0.0111
1181,0.0030,0.0067,0.0067,0.0017
1182,0.0017,0.0043,0.0038,0.0009
1183,0.0017,0.0043,0.0038,0.0009
1184,0.0030,0.0067,0.0067,0.0017
1185,0.0037,0.0079,0.0066,0.0041
1186,0.0017,0.0043,0.0038,0.0009
1187,0.0030,0.0067,0.0067,0.0017
1188,0.0017,0.0043,0.0038,0.0009
1189,0.0017,0.0043,0.0038,0.0009
1190,0.0027,0.0050,0.0048,0.0017
1191,0.0049,0.0244,0.0197,0.0111
1192,0.0050,0.0054,0.0106,0.0025
1193,0.0045,0.0064,0.0117,0.0023
1194,0.0076,0.0122,0.0159,0.0030
1195,0.0037,0.0059,0.0099,0.0027
1196,0.0048,0.0071,0.0062,0.0034
1197,0.0047,0.0054,0.0074,0.0018
1198,0.0032,0.0049,0.0071,0.0031
1199,0.0030,0.0042,0.0057,0.0030
1200,0.0042,0.0090,0.0105,0.0015
1201,0.0027,0.0051,0.0046,0.0028
1202,0.0049,0.0244,0.0197,0.0111
1203,0.0017,0.0038,0.0045,0.0013
1204,0.0031,0.0061,0.0062,0.0023
1205,0.0026,0.0042,0.0035,0.0011
1206,0.0022,0.0062,0.0064,0.0010
1207,0.0057,0.0086,0.0074,0.0025
1208,0.0037,0.0075,0.0073,0.0012
1209,0.0042,0.0065,0.0065,0.0011
1210,0.0042,0.0051,0.0065,0.0019
1211,0.0039,0.0053,0.0047,0.0019
1212,0.0033,0.0126,0.0109,0.0028
1213,0.0049,0.0244,0.0197,0.0111
1214,0.0052,0.0099,0.0124,0.0035
1215,0.0047,0.0095,0.0081,0.0022
1216,0.0017,0.0227,0.0214,0.0151
1217,0.0032,0.0210,0.0174,0.0136
1218,0.0026,0.0166,0.0168,0.0099
1219,0.0026,0.0166,0.0168,0.0099
1220,0.0026,0.0166,0.0168,0.0099
1221,0.0026,0.0166,0.0168,0.0099
1222,0.0026,0.0166,0.0168,0.0099
1223,0.0026,0.0166,0.0168,0.0099
1224,0.0041,0.0171,0.0142,0.0044
1225,0.0032,0.0060,0.0050,0.0012
1226,0.0032,0.0060,0.0050,0.0012
1227,0.0032,0.0060,0.0050,0.0012
1228,0.0036,0.0076,0.0061,0.0018
1229,0.0040,0.0125,0.0131,0.0026
1230,0.0037,0.0071,0.0050,0.0023
1231,0.0035,0.0081,0.0083,0.0024
1232,0.0037,0.0110,0.0113,0.0024
1233,0.0042,0.0095,0.0081,0.0024
1234,0.0052,0.0120,0.0089,0.0030
1235,0.0038,0.0148,0.0114,0.0033
1236,0.0050,0.0089,0.0070,0.0018
1237,0.0049,0.0103,0.0084,0.0017
1238,0.0051,0.0114,0.0091,0.0016
1239,0.0056,0.0115,0.0098,0.0020
1240,0.0041,0.0123,0.0125,0.0033
1241,0.0047,0.0181,0.0188,0.0097
1242,0.0032,0.0160,0.0135,0.0087
1243,0.0036,0.0155,0.0138,0.0083
1244,0.0035,0.0158,0.0143,0.0084
1245,0.0053,0.0195,0.0180,0.0077
1246,0.0040,0.0121,0.0088,0.0020
1247,0.0037,0.0169,0.0162,0.0077
1248,0.0037,0.0117,0.0106,0.0053
1249,0.0033,0.0093,0.0076,0.0038
1250,0.0034,0.0082,0.0065,0.0033
1251,0.0041,0.0108,0.0090,0.0029
1252,0.0035,0.0081,0.0083,0.0024
1253,0.0034,0.0078,0.0067,0.0020
1254,0.0037,0.0098,0.0089,0.0035
1255,0.0038,0.0089,0.0090,0.0043
1256,0.0043,0.0248,0.0292,0.0091
1257,0.0045,0.0151,0.0116,0.0028
1258,0.0038,0.0103,0.0116,0.0044
1259,0.0041,0.0144,0.0170,0.0049
1260,0.0048,0.0211,0.0246,0.0069
1261,0.0055,0.0251,0.0285,0.0090
1262,0.0051,0.0275,0.0248,0.0125
1263,0.0061,0.0191,0.0180,0.0101
1264,0.0037,0.0110,0.0113,0.0024
1265,0.0032,0.0060,0.0050,0.0012
1266,0.0032,0.0060,0.0050,0.0012
1267,0.0040,0.0086,0.0070,0.0020
1268,0.0038,0.0121,0.0082,0.0023
1269,0.0032,0.0060,0.0050,0.0012
1270,0.0032,0.0060,0.0050,0.0012
1271,0.0032,0.0060,0.0050,0.0012
1272,0.0032,0.0060,0.0050,0.0012
1273,0.0040,0.0086,0.0070,0.0020
1274,0.0032,0.0060,0.0050,0.0012
1275,0.0032,0.0060,0.0050,0.0012
1276,0.0042,0.0095,0.0081,0.0024
1277,0.0032,0.0060,0.0050,0.0012
1278,0.0040,0.0086,0.0070,0.0020
1279,0.0035,0.0106,0.0065,0.0019
1280,0.0032,0.0060,0.0050,0.0012
1281,0.0032,0.0060,0.0050,0.0012
1282,0.0032,0.0060,0.0050,0.0012
1283,0.0032,0.0060,0.0050,0.0012
1284,0.0040,0.0086,0.0070,0.0020
1285,0.0032,0.0060,0.0050,0.0012
1286,0.0032,0.0060,0.0050,0.0012
1287,0.0032,0.0060,0.0050,0.0012
1288,0.0048,0.0084,0.0068,0.0022
1289,0.0040,0.0086,0.0070,0.0020
1290,0.0036,0.0125,0.0098,0.0034
1291,0.0032,0.0060,0.0050,0.0012
1292,0.0032,0.0060,0.0050,0.0012
1293,0.0032,0.0060,0.0050,0.0012
1294,0.0032,0.0060,0.0050,0.0012
1295,0.0040,0.0086,0.0070,0.0020
1296,0.0032,0.0060,0.0050,0.0012
1297,0.0032,0.0060,0.0050,0.0012
1298,0.0032,0.0060,0.0050,0.0012
1299,0.0032,0.0060,0.0050,0.0012
1300,0.0054,0.0130,0.0093,0.0032
1301,0.0040,0.0124,0.0106,0.0045
1302,0.0032,0.0060,0.0050,0.0012
1303,0.0032,0.0060,0.0050,0.0012
1304,0.0032,0.0060,0.0050,0.0012
1305,0.0032,0.0060,0.0050,0.0012
1306,0.0040,0.0086,0.0070,0.0020
1307,0.0041,0.0081,0.0115,0.0026
1308,0.0042,0.0081,0.0113,0.0025
1309,0.0046,0.0088,0.0119,0.0025
1310,0.0052,0.0072,0.0091,0.0025
1311,0.0052,0.0120,0.0089,0.0030
1312,0.0046,0.0331,0.0369,0.0102
1313,0.0049,0.0103,0.0084,0.0017
1314,0.0059,0.0064,0.0070,0.0021
1315,0.0055,0.0057,0.0057,0.0018
1316,0.0047,0.0061,0.0060,0.0016
1317,0.0042,0.0079,0.0053,0.0022
1318,0.0032,0.0061,0.0060,0.0011
1319,0.0036,0.0076,0.0061,0.0018
1320,0.0037,0.0071,0.0050,0.0023
1321,0.0035,0.0081,0.0083,0.0024
1322,0.0058,0.0104,0.0076,0.0030
1323,0.0038,0.0132,0.0117,0.0016
1324,0.0046,0.0166,0.0178,0.0061
1325,0.0042,0.0095,0.0081,0.0024
1326,0.0051,0.0114,0.0091,0.0016
1327,0.0048,0.0084,0.0068,0.0022
1328,0.0050,0.0089,0.0070,0.0018
1329,0.0067,0.0125,0.0100,0.0048
1330,0.0051,0.0114,0.0091,0.0016
1331,0.0056,0.0115,0.0098,0.0020
1332,0.0047,0.0181,0.0188,0.0097
1333,0.0032,0.0160,0.0135,0.0087
1334,0.0048,0.0183,0.0159,0.0095
1335,0.0045,0.0218,0.0247,0.0076
1336,0.0048,0.0183,0.0159,0.0095
1337,0.0048,0.0183,0.0159,0.0095
1338,0.0048,0.0183,0.0159,0.0095
1339,0.0048,0.0183,0.0159,0.0095
1340,0.0048,0.0183,0.0159,0.0095
1341,0.0032,0.0044,0.0044,0.0012
1342,0.0032,0.0044,0.0044,0.0012
1343,0.0032,0.0044,0.0044,0.0012
1344,0.0035,0.0061,0.0051,0.0018
1345,0.0040,0.0118,0.0134,0.0025
1346,0.0050,0.0307,0.0348,0.0108
1347,0.0036,0.0054,0.0043,0.0023
1348,0.0034,0.0067,0.0078,0.0024
1349,0.0036,0.0113,0.0125,0.0024
1350,0.0042,0.0084,0.0080,0.0023
1351,0.0051,0.0083,0.0063,0.0031
1352,0.0049,0.0057,0.0057,0.0022
1353,0.0048,0.0076,0.0070,0.0018
1354,0.0049,0.0077,0.0071,0.0016
1355,0.0055,0.0083,0.0084,0.0023
1356,0.0041,0.0113,0.0122,0.0031
1357,0.0058,0.0381,0.0413,0.0153
1358,0.0045,0.0178,0.0200,0.0104
1359,0.0034,0.0104,0.0102,0.0063
1360,0.0038,0.0107,0.0102,0.0067
1361,0.0035,0.0157,0.0146,0.0086
1362,0.0053,0.0165,0.0154,0.0069
1363,0.0036,0.0161,0.0163,0.0075
1364,0.0036,0.0095,0.0091,0.0049
1365,0.0032,0.0079,0.0072,0.0041
1366,0.0034,0.0077,0.0071,0.0039
1367,0.0041,0.0096,0.0085,0.0029
1368,0.0057,0.0537,0.0466,0.0261
1369,0.0034,0.0067,0.0078,0.0024
1370,0.0034,0.0063,0.0057,0.0022
1371,0.0035,0.0085,0.0075,0.0036
1372,0.0035,0.0068,0.0067,0.0042
1373,0.0043,0.0201,0.0239,0.0082
1374,0.0036,0.0071,0.0077,0.0037
1375,0.0041,0.0091,0.0104,0.0034
1376,0.0048,0.0129,0.0149,0.0041
1377,0.0055,0.0156,0.0181,0.0051
1378,0.0049,0.0167,0.0153,0.0095
1379,0.0065,0.0416,0.0380,0.0223
1380,0.0059,0.0134,0.0112,0.0084
1381,0.0036,0.0113,0.0125,0.0024
1382,0.0032,0.0044,0.0044,0.0012
1383,0.0032,0.0044,0.0044,0.0012
1384,0.0040,0.0074,0.0071,0.0020
1385,0.0032,0.0044,0.0044,0.0012
1386,0.0032,0.0044,0.0044,0.0012
1387,0.0032,0.0044,0.0044,0.0012
1388,0.0032,0.0044,0.0044,0.0012
1389,0.0040,0.0074,0.0071,0.0020
1390,0.0038,0.0128,0.0087,0.0023
1391,0.0032,0.0044,0.0044,0.0012
1392,0.0032,0.0044,0.0044,0.0012
1393,0.0042,0.0084,0.0080,0.0023
1394,0.0032,0.0044,0.0044,0.0012
1395,0.0040,0.0074,0.0071,0.0020
1396,0.0032,0.0044,0.0044,0.0012
1397,0.0032,0.0044,0.0044,0.0012
1398,0.0032,0.0044,0.0044,0.0012
1399,0.0032,0.0044,0.0044,0.0012
1400,0.0040,0.0074,0.0071,0.0020
1401,0.0034,0.0095,0.0060,0.0012
1402,0.0032,0.0044,0.0044,0.0012
1403,0.0032,0.0044,0.0044,0.0012
1404,0.0032,0.0044,0.0044,0.0012
1405,0.0048,0.0056,0.0060,0.0024
1406,0.0040,0.0074,0.0071,0.0020
1407,0.0032,0.0044,0.0044,0.0012
1408,0.0032,0.0044,0.0044,0.0012
1409,0.0032,0.0044,0.0044,0.0012
1410,0.0032,0.0044,0.0044,0.0012
1411,0.0040,0.0074,0.0071,0.0020
1412,0.0034,0.0095,0.0060,0.0012
1413,0.0032,0.0044,0.0044,0.0012
1414,0.0032,0.0044,0.0044,0.0012
1415,0.0032,0.0044,0.0044,0.0012
1416,0.0032,0.0044,0.0044,0.0012
1417,0.0053,0.0092,0.0073,0.0037
1418,0.0032,0.0044,0.0044,0.0012
1419,0.0032,0.0044,0.0044,0.0012
1420,0.0032,0.0044,0.0044,0.0012
1421,0.0032,0.0044,0.0044,0.0012
1422,0.0040,0.0074,0.0071,0.0020
1423,0.0042,0.0134,0.0088,0.0020
1424,0.0042,0.0081,0.0119,0.0027
1425,0.0042,0.0077,0.0112,0.0026
1426,0.0046,0.0085,0.0122,0.0027
1427,0.0052,0.0068,0.0094,0.0027
1428,0.0051,0.0083,0.0063,0.0031
1429,0.0048,0.0076,0.0070,0.0018
1430,0.0059,0.0048,0.0058,0.0024
1431,0.0055,0.0045,0.0051,0.0021
1432,0.0047,0.0043,0.0044,0.0017
1433,0.0041,0.0066,0.0049,0.0023
1434,0.0041,0.0144,0.0098,0.0020
1435,0.0034,0.0095,0.0060,0.0012
1436,0.0032,0.0037,0.0041,0.0012
1437,0.0035,0.0061,0.0051,0.0018
1438,0.0036,0.0054,0.0043,0.0023
1439,0.0034,0.0067,0.0078,0.0024
1440,0.0057,0.0090,0.0073,0.0030
1441,0.0042,0.0084,0.0080,0.0023
1442,0.0049,0.0077,0.0071,0.0016
1443,0.0048,0.0056,0.0060,0.0024
1444,0.0049,0.0057,0.0057,0.0022
1445,0.0066,0.0101,0.0091,0.0038
1446,0.0034,0.0095,0.0060,0.0012
1447,0.0049,0.0077,0.0071,0.0016
1448,0.0055,0.0083,0.0084,0.0023
1449,0.0045,0.0178,0.0200,0.0104
1450,0.0034,0.0104,0.0102,0.0063
1451,0.0048,0.0138,0.0126,0.0081
1452,0.0048,0.0138,0.0126,0.0081
1453,0.0048,0.0138,0.0126,0.0081
1454,0.0048,0.0138,0.0126,0.0081
1455,0.0048,0.0138,0.0126,0.0081
1456,0.0048,0.0138,0.0126,0.0081
1457,0.0034,0.0095,0.0060,0.0012
1458,0.0032,0.0040,0.0042,0.0012
1459,0.0032,0.0040,0.0042,0.0012
1460,0.0032,0.0040,0.0042,0.0012
1461,0.0036,0.0055,0.0049,0.0017
1462,0.0040,0.0079,0.0084,0.0023
1463,0.0037,0.0051,0.0043,0.0022
1464,0.0034,0.0056,0.0066,0.0023
1465,0.0037,0.0088,0.0097,0.0023
1466,0.0043,0.0080,0.0079,0.0022
1467,0.0050,0.0076,0.0063,0.0031
1468,0.0034,0.0095,0.0060,0.0012
1469,0.0049,0.0055,0.0057,0.0023
1470,0.0048,0.0062,0.0064,0.0019
1471,0.0049,0.0064,0.0067,0.0017
1472,0.0054,0.0071,0.0074,0.0023
1473,0.0041,0.0109,0.0120,0.0028
1474,0.0044,0.0205,0.0224,0.0128
1475,0.0035,0.0101,0.0101,0.0071
1476,0.0038,0.0111,0.0104,0.0073
1477,0.0035,0.0172,0.0162,0.0092
1478,0.0052,0.0135,0.0123,0.0064
1479,0.0042,0.0134,0.0088,0.0020
1480,0.0036,0.0162,0.0168,0.0071
1481,0.0036,0.0099,0.0103,0.0049
1482,0.0032,0.0071,0.0069,0.0039
1483,0.0036,0.0069,0.0063,0.0036
1484,0.0042,0.0095,0.0089,0.0028
1485,0.0034,0.0056,0.0066,0.0023
1486,0.0034,0.0061,0.0053,0.0023
1487,0.0035,0.0082,0.0074,0.0037
1488,0.0035,0.0064,0.0065,0.0043
1489,0.0043,0.0143,0.0174,0.0070
1490,0.0034,0.0095,0.0060,0.0012
1491,0.0036,0.0059,0.0066,0.0035
1492,0.0041,0.0074,0.0083,0.0030
1493,0.0048,0.0097,0.0108,0.0035
1494,0.0055,0.0115,0.0131,0.0042
1495,0.0048,0.0151,0.0134,0.0105
1496,0.0058,0.0168,0.0138,0.0106
1497,0.0037,0.0088,0.0097,0.0023
1498,0.0032,0.0040,0.0042,0.0012
1499,0.0032,0.0040,0.0042,0.0012
1500,0.0040,0.0063,0.0059,0.0020
1501,0.0034,0.0095,0.0060,0.0012
1502,0.0032,0.0040,0.0042,0.0012
1503,0.0032,0.0040,0.0042,0.0012
1504,0.0032,0.0040,0.0042,0.0012
1505,0.0032,0.0040,0.0042,0.0012
1506,0.0040,0.0063,0.0059,0.0020
1507,0.0032,0.0040,0.0042,0.0012
1508,0.0032,0.0040,0.0042,0.0012
1509,0.0043,0.0080,0.0079,0.0022
1510,0.0032,0.0040,0.0042,0.0012
1511,0.0040,0.0063,0.0059,0.0020
1512,0.0042,0.0147,0.0107,0.0020
1513,0.0032,0.0040,0.0042,0.0012
1514,0.0032,0.0040,0.0042,0.0012
1515,0.0032,0.0040,0.0042,0.0012
1516,0.0032,0.0040,0.0042,0.0012
1517,0.0040,0.0063,0.0059,0.0020
1518,0.0032,0.0040,0.0042,0.0012
1519,0.0032,0.0040,0.0042,0.0012
1520,0.0032,0.0040,0.0042,0.0012
1521,0.0049,0.0064,0.0076,0.0024
1522,0.0040,0.0063,0.0059,0.0020
1523,0.0034,0.0095,0.0060,0.0012
1524,0.0032,0.0040,0.0042,0.0012
1525,0.0032,0.0040,0.0042,0.0012
1526,0.0032,0.0040,0.0042,0.0012
1527,0.0032,0.0040,0.0042,0.0012
1528,0.0040,0.0063,0.0059,0.0020
1529,0.0032,0.0040,0.0042,0.0012
1530,0.0032,0.0040,0.0042,0.0012
1531,0.0032,0.0040,0.0042,0.0012
1532,0.0032,0.0040,0.0042,0.0012
1533,0.0053,0.0075,0.0059,0.0039
1534,0.0042,0.0134,0.0088,0.0020
1535,0.0032,0.0040,0.0042,0.0012
1536,0.0032,0.0040,0.0042,0.0012
1537,0.0032,0.0040,0.0042,0.0012
1538,0.0032,0.0040,0.0042,0.0012
1539,0.0040,0.0063,0.0059,0.0020
1540,0.0042,0.0085,0.0126,0.0027
1541,0.0042,0.0088,0.0131,0.0027
1542,0.0046,0.0091,0.0133,0.0029
1543,0.0052,0.0073,0.0106,0.0029
1544,0.0050,0.0076,0.0063,0.0031
1545,0.0041,0.0128,0.0101,0.0021
1546,0.0034,0.0095,0.0060,0.0012
1547,0.0048,0.0062,0.0064,0.0019
1548,0.0059,0.0049,0.0064,0.0026
1549,0.0055,0.0041,0.0049,0.0023
1550,0.0047,0.0035,0.0040,0.0020
1551,0.0042,0.0062,0.0049,0.0024
1552,0.0032,0.0033,0.0041,0.0013
1553,0.0036,0.0055,0.0049,0.0017
1554,0.0037,0.0051,0.0043,0.0022
1555,0.0034,0.0056,0.0066,0.0023
1556,0.0056,0.0096,0.0085,0.0029
1557,0.0034,0.0095,0.0060,0.0012
1558,0.0043,0.0080,0.0079,0.0022
1559,0.0049,0.0064,0.0067,0.0017
1560,0.0049,0.0064,0.0076,0.0024
1561,0.0049,0.0055,0.0057,0.0023
1562,0.0066,0.0111,0.0104,0.0038
1563,0.0049,0.0064,0.0067,0.0017
1564,0.0054,0.0071,0.0074,0.0023
1565,0.0044,0.0205,0.0224,0.0128
1566,0.0035,0.0101,0.0101,0.0071
1567,0.0048,0.0134,0.0128,0.0081
1568,0.0034,0.0095,0.0060,0.0012
1569,0.0048,0.0134,0.0128,0.0081
1570,0.0048,0.0134,0.0128,0.0081
1571,0.0048,0.0134,0.0128,0.0081
1572,0.0048,0.0134,0.0128,0.0081
1573,0.0048,0.0134,0.0128,0.0081
1574,0.0024,0.0093,0.0062,0.0010
1575,0.0024,0.0093,0.0062,0.0010
1576,0.0041,0.0096,0.0084,0.0030
1577,0.0028,0.0107,0.0091,0.0011
1578,0.0037,0.0129,0.0078,0.0020
1579,0.0034,0.0095,0.0060,0.0012
1580,0.0045,0.0105,0.0081,0.0019
1581,0.0027,0.0117,0.0078,0.0013
1582,0.0030,0.0115,0.0077,0.0013
1583,0.0049,0.0109,0.0086,0.0020
1584,0.0041,0.0156,0.0085,0.0026
1585,0.0037,0.0136,0.0088,0.0018
1586,0.0060,0.0132,0.0117,0.0022
1587,0.0043,0.0188,0.0149,0.0024
1588,0.0049,0.0180,0.0142,0.0026
1589,0.0043,0.0142,0.0099,0.0030
1590,0.0042,0.0134,0.0088,0.0020
1591,0.0055,0.0269,0.0220,0.0175
1592,0.0024,0.0244,0.0179,0.0141
1593,0.0044,0.0225,0.0185,0.0147
1594,0.0033,0.0216,0.0191,0.0088
1595,0.0042,0.0215,0.0182,0.0062
1596,0.0053,0.0173,0.0153,0.0100
1597,0.0035,0.0145,0.0122,0.0028
1598,0.0027,0.0124,0.0089,0.0023
1599,0.0042,0.0114,0.0094,0.0064
1600,0.0036,0.0137,0.0100,0.0018
1601,0.0034,0.0095,0.0060,0.0012
1602,0.0027,0.0117,0.0078,0.0013
1603,0.0043,0.0090,0.0076,0.0021
1604,0.0022,0.0096,0.0066,0.0027
1605,0.0027,0.0118,0.0090,0.0033
1606,0.0038,0.0261,0.0271,0.0071
1607,0.0038,0.0146,0.0132,0.0054
1608,0.0033,0.0177,0.0179,0.0068
1609,0.0047,0.0213,0.0223,0.0115
1610,0.0035,0.0290,0.0299,0.0112
1611,0.0054,0.0430,0.0411,0.0198
1612,0.0034,0.0095,0.0060,0.0012
1613,0.0057,0.0231,0.0234,0.0120
1614,0.0030,0.0115,0.0077,0.0013
1615,0.0024,0.0093,0.0062,0.0010
1616,0.0041,0.0096,0.0084,0.0030
1617,0.0036,0.0115,0.0066,0.0018
1618,0.0024,0.0093,0.0062,0.0010
1619,0.0041,0.0096,0.0084,0.0030
1620,0.0024,0.0093,0.0062,0.0010
1621,0.0024,0.0093,0.0062,0.0010
1622,0.0036,0.0115,0.0066,0.0018
1623,0.0034,0.0095,0.0060,0.0012
1624,0.0024,0.0093,0.0062,0.0010
1625,0.0024,0.0093,0.0062,0.0010
1626,0.0049,0.0109,0.0086,0.0020
1627,0.0024,0.0093,0.0062,0.0010
1628,0.0036,0.0115,0.0066,0.0018
1629,0.0041,0.0096,0.0084,0.0030
1630,0.0024,0.0093,0.0062,0.0010
1631,0.0024,0.0093,0.0062,0.0010
1632,0.0041,0.0096,0.0084,0.0030
1633,0.0036,0.0115,0.0066,0.0018
1634,0.0049,0.0139,0.0092,0.0016
1635,0.0024,0.0093,0.0062,0.0010
1636,0.0041,0.0096,0.0084,0.0030
1637,0.0024,0.0093,0.0062,0.0010
1638,0.0037,0.0120,0.0079,0.0017
1639,0.0036,0.0115,0.0066,0.0018
1640,0.0024,0.0093,0.0062,0.0010
1641,0.0024,0.0093,0.0062,0.0010
1642,0.0041,0.0096,0.0084,0.0030
1643,0.0024,0.0093,0.0062,0.0010
1644,0.0036,0.0115,0.0066,0.0018
1645,0.0042,0.0134,0.0088,0.0020
1646,0.0041,0.0096,0.0084,0.0030
1647,0.0024,0.0093,0.0062,0.0010
1648,0.0024,0.0093,0.0062,0.0010
1649,0.0041,0.0096,0.0084,0.0030
1650,0.0043,0.0169,0.0102,0.0040
1651,0.0024,0.0093,0.0062,0.0010
1652,0.0041,0.0096,0.0084,0.0030
1653,0.0024,0.0093,0.0062,0.0010
1654,0.0024,0.0093,0.0062,0.0010
1655,0.0036,0.0115,0.0066,0.0018
1656,0.0038,0.0121,0.0082,0.0023
1657,0.0034,0.0095,0.0060,0.0012
1658,0.0044,0.0098,0.0121,0.0019
1659,0.0037,0.0099,0.0112,0.0015
1660,0.0050,0.0091,0.0104,0.0050
1661,0.0029,0.0092,0.0091,0.0016
1662,0.0041,0.0156,0.0085,0.0026
1663,0.0060,0.0132,0.0117,0.0022
1664,0.0031,0.0083,0.0065,0.0021
1665,0.0031,0.0084,0.0060,0.0021
1666,0.0047,0.0092,0.0079,0.0041
1667,0.0036,0.0111,0.0079,0.0023
1668,0.0034,0.0095,0.0060,0.0012
1669,0.0024,0.0097,0.0070,0.0012
1670,0.0043,0.0104,0.0092,0.0023
1671,0.0029,0.0102,0.0073,0.0013
1672,0.0027,0.0117,0.0078,0.0013
1673,0.0056,0.0146,0.0101,0.0029
1674,0.0033,0.0116,0.0082,0.0015
1675,0.0043,0.0188,0.0149,0.0024
1676,0.0052,0.0111,0.0086,0.0027
1677,0.0037,0.0136,0.0088,0.0018
1678,0.0067,0.0179,0.0115,0.0068
1679,0.0034,0.0095,0.0060,0.0012
1680,0.0067,0.0143,0.0140,0.0027
1681,0.0049,0.0180,0.0142,0.0026
1682,0.0055,0.0269,0.0220,0.0175
1683,0.0048,0.0265,0.0183,0.0199
1684,0.0036,0.0245,0.0203,0.0103
1685,0.0036,0.0245,0.0203,0.0103
1686,0.0036,0.0245,0.0203,0.0103
1687,0.0036,0.0245,0.0203,0.0103
1688,0.0036,0.0245,0.0203,0.0103
1689,0.0036,0.0245,0.0203,0.0103
1690,0.0034,0.0095,0.0060,0.0012
1691,0.0023,0.0081,0.0055,0.0009
1692,0.0023,0.0081,0.0055,0.0009
1693,0.0041,0.0083,0.0072,0.0021
1694,0.0026,0.0086,0.0065,0.0011
1695,0.0033,0.0123,0.0093,0.0022
1696,0.0045,0.0094,0.0077,0.0020
1697,0.0025,0.0110,0.0082,0.0013
1698,0.0028,0.0101,0.0070,0.0014
1699,0.0048,0.0090,0.0072,0.0018
1700,0.0041,0.0133,0.0077,0.0024
1701,0.0042,0.0134,0.0088,0.0020
1702,0.0037,0.0122,0.0088,0.0017
1703,0.0060,0.0116,0.0105,0.0020
1704,0.0042,0.0144,0.0103,0.0017
1705,0.0047,0.0127,0.0088,0.0019
1706,0.0037,0.0126,0.0097,0.0031
1707,0.0047,0.0249,0.0235,0.0145
1708,0.0022,0.0210,0.0164,0.0116
1709,0.0043,0.0203,0.0179,0.0128
1710,0.0033,0.0196,0.0176,0.0087
1711,0.0042,0.0194,0.0171,0.0061
1712,0.0034,0.0095,0.0060,0.0012
1713,0.0051,0.0131,0.0117,0.0062
1714,0.0033,0.0124,0.0109,0.0026
1715,0.0025,0.0105,0.0077,0.0018
1716,0.0042,0.0101,0.0098,0.0037
1717,0.0034,0.0120,0.0089,0.0019
1718,0.0025,0.0110,0.0082,0.0013
1719,0.0043,0.0080,0.0076,0.0020
1720,0.0022,0.0085,0.0062,0.0030
1721,0.0029,0.0091,0.0073,0.0034
1722,0.0037,0.0239,0.0255,0.0066
1723,0.0034,0.0095,0.0060,0.0012
1724,0.0034,0.0127,0.0115,0.0052
1725,0.0030,0.0150,0.0152,0.0061
1726,0.0046,0.0181,0.0186,0.0100
1727,0.0034,0.0252,0.0264,0.0096
1728,0.0051,0.0358,0.0348,0.0168
1729,0.0057,0.0199,0.0204,0.0109
1730,0.0028,0.0101,0.0070,0.0014
1731,0.0023,0.0081,0.0055,0.0009
1732,0.0041,0.0083,0.0072,0.0021
1733,0.0033,0.0101,0.0062,0.0018
1734,0.0034,0.0095,0.0060,0.0012
1735,0.0023,0.0081,0.0055,0.0009
1736,0.0041,0.0083,0.0072,0.0021
1737,0.0023,0.0081,0.0055,0.0009
1738,0.0023,0.0081,0.0055,0.0009
1739,0.0033,0.0101,0.0062,0.0018
1740,0.0023,0.0081,0.0055,0.0009
1741,0.0023,0.0081,0.0055,0.0009
1742,0.0048,0.0090,0.0072,0.0018
1743,0.0023,0.0081,0.0055,0.0009
1744,0.0033,0.0101,0.0062,0.0018
1745,0.0034,0.0095,0.0060,0.0012
1746,0.0041,0.0083,0.0072,0.0021
1747,0.0023,0.0081,0.0055,0.0009
1748,0.0023,0.0081,0.0055,0.0009
1749,0.0041,0.0083,0.0072,0.0021
1750,0.0033,0.0101,0.0062,0.0018
1751,0.0023,0.0081,0.0055,0.0009
1752,0.0041,0.0083,0.0072,0.0021
1753,0.0023,0.0081,0.0055,0.0009
1754,0.0036,0.0101,0.0072,0.0018
1755,0.0033,0.0101,0.0062,0.0018
1756,0.0054,0.0192,0.0115,0.0043
1757,0.0023,0.0081,0.0055,0.0009
1758,0.0023,0.0081,0.0055,0.0009
1759,0.0041,0.0083,0.0072,0.0021
1760,0.0023,0.0081,0.0055,0.0009
1761,0.0033,0.0101,0.0062,0.0018
1762,0.0041,0.0083,0.0072,0.0021
1763,0.0023,0.0081,0.0055,0.0009
1764,0.0023,0.0081,0.0055,0.0009
1765,0.0041,0.0083,0.0072,0.0021
1766,0.0042,0.0136,0.0072,0.0034
1767,0.0038,0.0128,0.0087,0.0023
1768,0.0034,0.0095,0.0060,0.0012
1769,0.0023,0.0081,0.0055,0.0009
1770,0.0041,0.0083,0.0072,0.0021
1771,0.0023,0.0081,0.0055,0.0009
1772,0.0023,0.0081,0.0055,0.0009
1773,0.0033,0.0101,0.0062,0.0018
1774,0.0044,0.0094,0.0112,0.0020
1775,0.0037,0.0091,0.0105,0.0015
1776,0.0047,0.0084,0.0095,0.0043
1777,0.0029,0.0084,0.0086,0.0015
1778,0.0041,0.0133,0.0077,0.0024
1779,0.0034,0.0095,0.0060,0.0012
1780,0.0060,0.0116,0.0105,0.0020
1781,0.0031,0.0076,0.0064,0.0019
1782,0.0031,0.0075,0.0056,0.0019
1783,0.0046,0.0084,0.0078,0.0032
1784,0.0034,0.0090,0.0061,0.0023
1785,0.0022,0.0078,0.0048,0.0011
1786,0.0043,0.0089,0.0081,0.0018
1787,0.0028,0.0083,0.0053,0.0013
1788,0.0025,0.0110,0.0082,0.0013
1789,0.0053,0.0129,0.0088,0.0028
1790,0.0034,0.0095,0.0060,0.0012
1791,0.0032,0.0102,0.0075,0.0017
1792,0.0042,0.0144,0.0103,0.0017
1793,0.0051,0.0095,0.0079,0.0023
1794,0.0037,0.0122,0.0088,0.0017
1795,0.0061,0.0150,0.0084,0.0061
1796,0.0067,0.0124,0.0128,0.0028
1797,0.0047,0.0127,0.0088,0.0019
1798,0.0047,0.0249,0.0235,0.0145
1799,0.0045,0.0219,0.0166,0.0151
1800,0.0035,0.0222,0.0191,0.0106
1801,0.0034,0.0095,0.0060,0.0012
1802,0.0035,0.0222,0.0191,0.0106
1803,0.0035,0.0222,0.0191,0.0106
1804,0.0035,0.0222,0.0191,0.0106
1805,0.0035,0.0222,0.0191,0.0106
1806,0.0035,0.0222,0.0191,0.0106
1807,0.0022,0.0063,0.0055,0.0009
1808,0.0022,0.0063,0.0055,0.0009
1809,0.0042,0.0070,0.0070,0.0016
1810,0.0025,0.0067,0.0054,0.0013
1811,0.0031,0.0127,0.0129,0.0024
1812,0.0042,0.0134,0.0088,0.0020
1813,0.0044,0.0076,0.0072,0.0025
1814,0.0024,0.0089,0.0085,0.0015
1815,0.0027,0.0111,0.0116,0.0015
1816,0.0046,0.0070,0.0074,0.0018
1817,0.0040,0.0104,0.0070,0.0027
1818,0.0037,0.0078,0.0064,0.0021
1819,0.0058,0.0074,0.0080,0.0021
1820,0.0041,0.0097,0.0079,0.0014
1821,0.0045,0.0120,0.0103,0.0025
1822,0.0033,0.0120,0.0121,0.0032
1823,0.0045,0.0098,0.0157,0.0027
1824,0.0036,0.0249,0.0257,0.0146
1825,0.0022,0.0163,0.0144,0.0096
1826,0.0041,0.0221,0.0207,0.0145
1827,0.0031,0.0194,0.0183,0.0100
1828,0.0039,0.0147,0.0143,0.0052
1829,0.0049,0.0084,0.0097,0.0072
1830,0.0029,0.0099,0.0104,0.0049
1831,0.0023,0.0075,0.0068,0.0034
1832,0.0043,0.0073,0.0088,0.0024
1833,0.0032,0.0103,0.0090,0.0020
1834,0.0045,0.0101,0.0143,0.0026
1835,0.0024,0.0089,0.0085,0.0015
1836,0.0043,0.0059,0.0065,0.0019
1837,0.0023,0.0063,0.0058,0.0032
1838,0.0027,0.0070,0.0064,0.0034
1839,0.0034,0.0187,0.0208,0.0053
1840,0.0027,0.0080,0.0074,0.0038
1841,0.0025,0.0101,0.0106,0.0042
1842,0.0045,0.0127,0.0127,0.0075
1843,0.0033,0.0166,0.0182,0.0065
1844,0.0045,0.0257,0.0257,0.0151
1845,0.0049,0.0106,0.0138,0.0025
1846,0.0055,0.0127,0.0131,0.0099
1847,0.0027,0.0111,0.0116,0.0015
1848,0.0022,0.0063,0.0055,0.0009
1849,0.0042,0.0070,0.0070,0.0016
1850,0.0031,0.0079,0.0060,0.0018
1851,0.0022,0.0063,0.0055,0.0009
1852,0.0042,0.0070,0.0070,0.0016
1853,0.0022,0.0063,0.0055,0.0009
1854,0.0022,0.0063,0.0055,0.0009
1855,0.0031,0.0079,0.0060,0.0018
1856,0.0054,0.0100,0.0117,0.0024
1857,0.0022,0.0063,0.0055,0.0009
1858,0.0022,0.0063,0.0055,0.0009
1859,0.0046,0.0070,0.0074,0.0018
1860,0.0022,0.0063,0.0055,0.0009
1861,0.0031,0.0079,0.0060,0.0018
1862,0.0042,0.0070,0.0070,0.0016
1863,0.0022,0.0063,0.0055,0.0009
1864,0.0022,0.0063,0.0055,0.0009
1865,0.0042,0.0070,0.0070,0.0016
1866,0.0031,0.0079,0.0060,0.0018
1867,0.0053,0.0180,0.0108,0.0029
1868,0.0022,0.0063,0.0055,0.0009
1869,0.0042,0.0070,0.0070,0.0016
1870,0.0022,0.0063,0.0055,0.0009
1871,0.0036,0.0074,0.0062,0.0023
1872,0.0031,0.0079,0.0060,0.0018
1873,0.0022,0.0063,0.0055,0.0009
1874,0.0022,0.0063,0.0055,0.0009
1875,0.0042,0.0070,0.0070,0.0016
1876,0.0022,0.0063,0.0055,0.0009
1877,0.0031,0.0079,0.0060,0.0018
1878,0.0042,0.0147,0.0107,0.0020
1879,0.0049,0.0184,0.0122,0.0027
1880,0.0042,0.0070,0.0070,0.0016
1881,0.0022,0.0063,0.0055,0.0009
1882,0.0022,0.0063,0.0055,0.0009
1883,0.0042,0.0070,0.0070,0.0016
1884,0.0039,0.0110,0.0073,0.0028
1885,0.0022,0.0063,0.0055,0.0009
1886,0.0042,0.0070,0.0070,0.0016
1887,0.0022,0.0063,0.0055,0.0009
1888,0.0022,0.0063,0.0055,0.0009
1889,0.0031,0.0079,0.0060,0.0018
1890,0.0060,0.0091,0.0084,0.0022
1891,0.0047,0.0090,0.0102,0.0018
1892,0.0040,0.0088,0.0106,0.0015
1893,0.0046,0.0080,0.0089,0.0034
1894,0.0031,0.0070,0.0085,0.0016
1895,0.0040,0.0104,0.0070,0.0027
1896,0.0058,0.0074,0.0080,0.0021
1897,0.0032,0.0061,0.0064,0.0019
1898,0.0031,0.0054,0.0048,0.0019
1899,0.0047,0.0075,0.0084,0.0022
1900,0.0032,0.0071,0.0056,0.0024
1901,0.0056,0.0092,0.0077,0.0020
1902,0.0022,0.0058,0.0053,0.0011
1903,0.0044,0.0069,0.0069,0.0019
1904,0.0026,0.0062,0.0044,0.0015
1905,0.0024,0.0089,0.0085,0.0015
1906,0.0048,0.0103,0.0083,0.0028
1907,0.0032,0.0075,0.0066,0.0019
1908,0.0041,0.0097,0.0079,0.0014
1909,0.0049,0.0099,0.0108,0.0020
1910,0.0037,0.0078,0.0064,0.0021
1911,0.0054,0.0132,0.0107,0.0040
1912,0.0048,0.0094,0.0073,0.0018
1913,0.0066,0.0093,0.0111,0.0036
1914,0.0045,0.0120,0.0103,0.0025
1915,0.0036,0.0249,0.0257,0.0146
1916,0.0042,0.0173,0.0151,0.0105
1917,0.0034,0.0193,0.0185,0.0115
1918,0.0034,0.0193,0.0185,0.0115
1919,0.0034,0.0193,0.0185,0.0115
1920,0.0034,0.0193,0.0185,0.0115
1921,0.0034,0.0193,0.0185,0.0115
1922,0.0034,0.0193,0.0185,0.0115
1923,0.0043,0.0123,0.0081,0.0023
1924,0.0023,0.0051,0.0049,0.0009
1925,0.0023,0.0051,0.0049,0.0009
1926,0.0044,0.0073,0.0079,0.0017
1927,0.0026,0.0057,0.0049,0.0013
1928,0.0030,0.0115,0.0125,0.0023
1929,0.0046,0.0067,0.0069,0.0027
1930,0.0023,0.0078,0.0084,0.0014
1931,0.0026,0.0107,0.0120,0.0013
1932,0.0046,0.0059,0.0068,0.0018
1933,0.0039,0.0072,0.0050,0.0032
1934,0.0033,0.0098,0.0067,0.0013
1935,0.0037,0.0064,0.0063,0.0024
1936,0.0057,0.0060,0.0081,0.0022
1937,0.0041,0.0068,0.0062,0.0016
1938,0.0044,0.0104,0.0095,0.0029
1939,0.0032,0.0108,0.0114,0.0029
1940,0.0031,0.0295,0.0295,0.0187
1941,0.0024,0.0164,0.0148,0.0110
1942,0.0041,0.0272,0.0247,0.0185
1943,0.0029,0.0216,0.0207,0.0114
1944,0.0037,0.0121,0.0127,0.0043
1945,0.0038,0.0132,0.0117,0.0016
1946,0.0048,0.0106,0.0136,0.0109
1947,0.0028,0.0083,0.0100,0.0050
1948,0.0024,0.0059,0.0064,0.0042
1949,0.0046,0.0061,0.0111,0.0040
1950,0.0033,0.0091,0.0084,0.0020
1951,0.0023,0.0078,0.0084,0.0014
1952,0.0044,0.0052,0.0062,0.0020
1953,0.0021,0.0052,0.0054,0.0035
1954,0.0023,0.0052,0.0058,0.0034
1955,0.0033,0.0142,0.0160,0.0043
1956,0.0041,0.0128,0.0101,0.0021
1957,0.0023,0.0059,0.0064,0.0034
1958,0.0023,0.0065,0.0068,0.0040
1959,0.0045,0.0104,0.0117,0.0067
1960,0.0034,0.0096,0.0104,0.0065
1961,0.0043,0.0257,0.0251,0.0184
1962,0.0053,0.0100,0.0100,0.0122
1963,0.0026,0.0107,0.0120,0.0013
1964,0.0023,0.0051,0.0049,0.0009
1965,0.0044,0.0073,0.0079,0.0017
1966,0.0031,0.0068,0.0062,0.0018
1967,0.0038,0.0121,0.0082,0.0023
1968,0.0023,0.0051,0.0049,0.0009
1969,0.0044,0.0073,0.0079,0.0017
1970,0.0023,0.0051,0.0049,0.0009
1971,0.0023,0.0051,0.0049,0.0009
1972,0.0031,0.0068,0.0062,0.0018
1973,0.0023,0.0051,0.0049,0.0009
1974,0.0023,0.0051,0.0049,0.0009
1975,0.0046,0.0059,0.0068,0.0018
1976,0.0023,0.0051,0.0049,0.0009
1977,0.0031,0.0068,0.0062,0.0018
1978,0.0062,0.0168,0.0115,0.0028
1979,0.0044,0.0073,0.0079,0.0017
1980,0.0023,0.0051,0.0049,0.0009
1981,0.0023,0.0051,0.0049,0.0009
1982,0.0044,0.0073,0.0079,0.0017
1983,0.0031,0.0068,0.0062,0.0018
1984,0.0023,0.0051,0.0049,0.0009
1985,0.0044,0.0073,0.0079,0.0017
1986,0.0023,0.0051,0.0049,0.0009
1987,0.0036,0.0055,0.0060,0.0025
1988,0.0031,0.0068,0.0062,0.0018
1989,0.0053,0.0180,0.0108,0.0029
1990,0.0042,0.0147,0.0107,0.0020
1991,0.0023,0.0051,0.0049,0.0009
1992,0.0023,0.0051,0.0049,0.0009
1993,0.0044,0.0073,0.0079,0.0017
1994,0.0023,0.0051,0.0049,0.0009
1995,0.0031,0.0068,0.0062,0.0018
1996,0.0044,0.0073,0.0079,0.0017
1997,0.0023,0.0051,0.0049,0.0009
1998,0.0023,0.0051,0.0049,0.0009
1999,0.0044,0.0073,0.0079,0.0017
2000,0.0038,0.0083,0.0061,0.0035
2001,0.0052,0.0191,0.0129,0.0029
2002,0.0023,0.0051,0.0049,0.0009
2003,0.0044,0.0073,0.0079,0.0017
2004,0.0023,0.0051,0.0049,0.0009
2005,0.0023,0.0051,0.0049,0.0009
2006,0.0031,0.0068,0.0062,0.0018
2007,0.0050,0.0101,0.0134,0.0018
2008,0.0042,0.0092,0.0125,0.0017
2009,0.0047,0.0088,0.0116,0.0030
2010,0.0033,0.0076,0.0106,0.0020
2011,0.0039,0.0072,0.0050,0.0032
2012,0.0049,0.0139,0.0092,0.0016
2013,0.0057,0.0060,0.0081,0.0022
2014,0.0033,0.0053,0.0066,0.0023
2015,0.0033,0.0054,0.0062,0.0022
2016,0.0048,0.0072,0.0092,0.0019
2017,0.0033,0.0061,0.0056,0.0025
2018,0.0023,0.0039,0.0037,0.0011
2019,0.0045,0.0066,0.0071,0.0022
2020,0.0027,0.0049,0.0040,0.0015
2021,0.0023,0.0078,0.0084,0.0014
2022,0.0047,0.0095,0.0086,0.0027
2023,0.0050,0.0150,0.0096,0.0019
2024,0.0032,0.0065,0.0069,0.0018
2025,0.0041,0.0068,0.0062,0.0016
2026,0.0049,0.0078,0.0094,0.0020
2027,0.0037,0.0064,0.0063,0.0024
2028,0.0050,0.0130,0.0114,0.0027
2029,0.0065,0.0099,0.0126,0.0040
2030,0.0044,0.0104,0.0095,0.0029
2031,0.0031,0.0295,0.0295,0.0187
2032,0.0041,0.0207,0.0181,0.0135
2033,0.0034,0.0182,0.0181,0.0114
2034,0.0073,0.0189,0.0108,0.0077
2035,0.0034,0.0182,0.0181,0.0114
2036,0.0034,0.0182,0.0181,0.0114
2037,0.0034,0.0182,0.0181,0.0114
2038,0.0034,0.0182,0.0181,0.0114
2039,0.0034,0.0182,0.0181,0.0114
2040,0.0023,0.0048,0.0048,0.0009
2041,0.0023,0.0048,0.0048,0.0009
2042,0.0046,0.0069,0.0075,0.0017
2043,0.0028,0.0050,0.0045,0.0012
2044,0.0030,0.0077,0.0080,0.0021
2045,0.0052,0.0191,0.0129,0.0029
2046,0.0047,0.0067,0.0071,0.0028
2047,0.0023,0.0070,0.0074,0.0013
2048,0.0026,0.0089,0.0100,0.0012
2049,0.0047,0.0054,0.0064,0.0018
2050,0.0039,0.0066,0.0049,0.0034
2051,0.0037,0.0059,0.0061,0.0025
2052,0.0056,0.0056,0.0082,0.0021
2053,0.0040,0.0056,0.0055,0.0016
2054,0.0044,0.0105,0.0094,0.0030
2055,0.0032,0.0112,0.0122,0.0027
2056,0.0057,0.0176,0.0102,0.0024
2057,0.0029,0.0327,0.0321,0.0212
2058,0.0025,0.0189,0.0170,0.0130
2059,0.0041,0.0324,0.0294,0.0217
2060,0.0029,0.0237,0.0229,0.0122
2061,0.0036,0.0107,0.0118,0.0038
2062,0.0048,0.0116,0.0146,0.0116
2063,0.0027,0.0089,0.0115,0.0050
2064,0.0025,0.0055,0.0069,0.0042
2065,0.0047,0.0059,0.0116,0.0044
2066,0.0033,0.0087,0.0081,0.0019
2067,0.0060,0.0304,0.0221,0.0206
2068,0.0023,0.0070,0.0074,0.0013
2069,0.0045,0.0050,0.0061,0.0022
2070,0.0021,0.0047,0.0055,0.0037
2071,0.0022,0.0052,0.0065,0.0036
2072,0.0033,0.0094,0.0104,0.0034
2073,0.0022,0.0053,0.0068,0.0034
2074,0.0023,0.0062,0.0070,0.0044
2075,0.0045,0.0102,0.0125,0.0067
2076,0.0035,0.0085,0.0086,0.0074
2077,0.0043,0.0284,0.0270,0.0207
2078,0.0033,0.0295,0.0215,0.0179
2079,0.0052,0.0124,0.0124,0.0147
2080,0.0026,0.0089,0.0100,0.0012
2081,0.0023,0.0048,0.0048,0.0009
2082,0.0046,0.0069,0.0075,0.0017
2083,0.0031,0.0059,0.0052,0.0017
2084,0.0023,0.0048,0.0048,0.0009
2085,0.0046,0.0069,0.0075,0.0017
2086,0.0023,0.0048,0.0048,0.0009
2087,0.0023,0.0048,0.0048,0.0009
2088,0.0031,0.0059,0.0052,0.0017
2089,0.0049,0.0282,0.0224,0.0122
2090,0.0023,0.0048,0.0048,0.0009
2091,0.0023,0.0048,0.0048,0.0009
2092,0.0047,0.0054,0.0064,0.0018
2093,0.0023,0.0048,0.0048,0.0009
2094,0.0031,0.0059,0.0052,0.0017
2095,0.0046,0.0069,0.0075,0.0017
2096,0.0023,0.0048,0.0048,0.0009
2097,0.0023,0.0048,0.0048,0.0009
2098,0.0046,0.0069,0.0075,0.0017
2099,0.0031,0.0059,0.0052,0.0017
Total Error Summary
Vdc  RMSE=  0.0036
Idc  RMSE=  0.0124
Id   RMSE=  0.0112
Iq   RMSE=  0.0056
