Read Model from: ./ucf8x/
Export Model to: ./ucf8x/ucf8x_fhf.json
idx_in [0, 1, 2, 3, 4, 5, 6]
idx_out [7, 8, 9, 10]
make_mimo_block stable2ndx
H1s[0][0]  Real Poles: [-83.50032568 -83.50032568] Freqs [Hz]: [2.901176674588623]
H1s[0][1]  Real Poles: [-137.41473145  -62.55115963] Freqs [Hz]: []
H1s[0][2]  Real Poles: [-127.83015845  -47.42572578] Freqs [Hz]: []
H1s[0][3]  Real Poles: [-69.92749274 -69.92749274] Freqs [Hz]: [7.975988389882888]
H1s[1][0]  Real Poles: [-127.44688518  -68.85517784] Freqs [Hz]: []
H1s[1][1]  Real Poles: [-105.69073558 -105.69073558] Freqs [Hz]: [3.4196974194860177]
H1s[1][2]  Real Poles: [-62.54527569 -62.54527569] Freqs [Hz]: [5.82265063006567]
H1s[1][3]  Real Poles: [-113.29429419  -42.85227387] Freqs [Hz]: []
H1s[2][0]  Real Poles: [-91.85921028 -91.85921028] Freqs [Hz]: [3.236567087374145]
H1s[2][1]  Real Poles: [-93.7942904  -33.16264334] Freqs [Hz]: []
H1s[2][2]  Real Poles: [-115.28926194 -115.28926194] Freqs [Hz]: [5.98805392883575]
H1s[2][3]  Real Poles: [-77.89331079 -77.89331079] Freqs [Hz]: [7.014091664591337]
H1s[3][0]  Real Poles: [-45.58370709 -45.58370709] Freqs [Hz]: [3.667372267908597]
H1s[3][1]  Real Poles: [-78.77036333 -78.77036333] Freqs [Hz]: [4.156175771881999]
H1s[3][2]  Real Poles: [-68.25380325 -68.25380325] Freqs [Hz]: [4.202269126222141]
H1s[3][3]  Real Poles: [-68.56888533 -68.56888533] Freqs [Hz]: [5.974375674975637]
model_folder = ./ucf8x/
model_root = ucf8x
data_path = d:/data/ucf3/ucf7.hdf5
idx_in [0, 1, 2, 3, 4, 5, 6]
idx_out [7, 8, 9, 10]
read 3600 dataframes
dt=0.010000 data_len=401 n_io=11 n_case=3600
['G', 'Ud', 'Uq', 'Vd', 'Vq', 'GVrms', 'Ctrl'] ['Vdc', 'Idc', 'Id', 'Iq'] (3600, 401, 11)
make_mimo_block stable2ndx
Idx,Vdc,Idc,Id,Iq
#,RMSE,RMSE,RMSE,RMSE
Total,0.0036,0.0202,0.0212,0.0098
0,0.0015,0.0176,0.0163,0.0040
1,0.0015,0.0176,0.0163,0.0040
2,0.0043,0.0219,0.0168,0.0065
3,0.0015,0.0166,0.0166,0.0039
4,0.0015,0.0177,0.0166,0.0040
5,0.0015,0.0177,0.0166,0.0040
6,0.0015,0.0177,0.0166,0.0040
7,0.0023,0.0173,0.0145,0.0048
8,0.0023,0.0173,0.0145,0.0048
9,0.0030,0.0161,0.0131,0.0061
10,0.0027,0.0215,0.0192,0.0065
11,0.0025,0.0250,0.0236,0.0063
12,0.0029,0.0250,0.0244,0.0062
13,0.0036,0.0244,0.0213,0.0064
14,0.0015,0.0166,0.0166,0.0039
15,0.0040,0.0228,0.0176,0.0069
16,0.0041,0.0256,0.0194,0.0073
17,0.0044,0.0266,0.0213,0.0074
18,0.0052,0.0268,0.0217,0.0071
19,0.0030,0.0161,0.0131,0.0061
20,0.0041,0.0363,0.0344,0.0259
21,0.0036,0.0325,0.0280,0.0222
22,0.0036,0.0302,0.0273,0.0183
23,0.0035,0.0288,0.0264,0.0154
24,0.0034,0.0312,0.0276,0.0148
25,0.0015,0.0166,0.0166,0.0039
26,0.0035,0.0331,0.0288,0.0150
27,0.0032,0.0288,0.0254,0.0126
28,0.0029,0.0230,0.0208,0.0096
29,0.0028,0.0216,0.0212,0.0073
30,0.0019,0.0197,0.0196,0.0055
31,0.0027,0.0215,0.0192,0.0065
32,0.0015,0.0210,0.0224,0.0034
33,0.0020,0.0272,0.0321,0.0043
34,0.0021,0.0302,0.0342,0.0055
35,0.0023,0.0297,0.0316,0.0073
36,0.0022,0.0144,0.0128,0.0045
37,0.0027,0.0286,0.0298,0.0099
38,0.0025,0.0319,0.0341,0.0149
39,0.0020,0.0424,0.0454,0.0221
40,0.0020,0.0512,0.0537,0.0282
41,0.0024,0.0536,0.0534,0.0311
42,0.0041,0.0439,0.0402,0.0310
43,0.0025,0.0250,0.0236,0.0063
44,0.0015,0.0177,0.0166,0.0040
45,0.0015,0.0177,0.0166,0.0040
46,0.0015,0.0177,0.0166,0.0040
47,0.0022,0.0144,0.0128,0.0045
48,0.0015,0.0177,0.0166,0.0040
49,0.0015,0.0177,0.0166,0.0040
50,0.0015,0.0177,0.0166,0.0040
51,0.0015,0.0177,0.0166,0.0040
52,0.0015,0.0177,0.0166,0.0040
53,0.0015,0.0177,0.0166,0.0040
54,0.0015,0.0177,0.0166,0.0040
55,0.0029,0.0250,0.0244,0.0062
56,0.0015,0.0177,0.0166,0.0040
57,0.0015,0.0177,0.0166,0.0040
58,0.0030,0.0166,0.0155,0.0056
59,0.0015,0.0177,0.0166,0.0040
60,0.0015,0.0177,0.0166,0.0040
61,0.0015,0.0177,0.0166,0.0040
62,0.0015,0.0177,0.0166,0.0040
63,0.0015,0.0177,0.0166,0.0040
64,0.0015,0.0177,0.0166,0.0040
65,0.0015,0.0177,0.0166,0.0040
66,0.0015,0.0177,0.0166,0.0040
67,0.0036,0.0244,0.0213,0.0064
68,0.0015,0.0177,0.0166,0.0040
69,0.0028,0.0235,0.0233,0.0060
70,0.0015,0.0177,0.0166,0.0040
71,0.0015,0.0177,0.0166,0.0040
72,0.0015,0.0177,0.0166,0.0040
73,0.0015,0.0177,0.0166,0.0040
74,0.0015,0.0177,0.0166,0.0040
75,0.0015,0.0177,0.0166,0.0040
76,0.0015,0.0177,0.0166,0.0040
77,0.0015,0.0177,0.0166,0.0040
78,0.0015,0.0177,0.0166,0.0040
79,0.0040,0.0228,0.0176,0.0069
80,0.0024,0.0266,0.0268,0.0056
81,0.0015,0.0177,0.0166,0.0040
82,0.0015,0.0177,0.0166,0.0040
83,0.0015,0.0177,0.0166,0.0040
84,0.0015,0.0177,0.0166,0.0040
85,0.0015,0.0177,0.0166,0.0040
86,0.0054,0.0211,0.0295,0.0162
87,0.0039,0.0219,0.0296,0.0126
88,0.0035,0.0216,0.0287,0.0096
89,0.0037,0.0217,0.0278,0.0073
90,0.0036,0.0244,0.0213,0.0064
91,0.0029,0.0268,0.0286,0.0053
92,0.0041,0.0256,0.0194,0.0073
93,0.0038,0.0220,0.0266,0.0044
94,0.0035,0.0214,0.0259,0.0040
95,0.0029,0.0217,0.0254,0.0037
96,0.0023,0.0226,0.0262,0.0036
97,0.0016,0.0204,0.0223,0.0037
98,0.0023,0.0173,0.0145,0.0048
99,0.0030,0.0161,0.0131,0.0061
100,0.0027,0.0215,0.0192,0.0065
101,0.0025,0.0250,0.0236,0.0063
102,0.0038,0.0222,0.0211,0.0055
103,0.0029,0.0250,0.0244,0.0062
104,0.0044,0.0266,0.0213,0.0074
105,0.0036,0.0244,0.0213,0.0064
106,0.0040,0.0228,0.0176,0.0069
107,0.0041,0.0256,0.0194,0.0073
108,0.0044,0.0266,0.0213,0.0074
109,0.0052,0.0268,0.0217,0.0071
110,0.0041,0.0363,0.0344,0.0259
111,0.0036,0.0325,0.0280,0.0222
112,0.0036,0.0302,0.0273,0.0183
113,0.0044,0.0240,0.0180,0.0068
114,0.0043,0.0199,0.0169,0.0060
115,0.0014,0.0166,0.0168,0.0038
116,0.0014,0.0166,0.0168,0.0038
117,0.0014,0.0166,0.0168,0.0038
118,0.0021,0.0144,0.0127,0.0046
119,0.0021,0.0144,0.0127,0.0046
120,0.0030,0.0153,0.0140,0.0058
121,0.0028,0.0213,0.0210,0.0063
122,0.0025,0.0245,0.0245,0.0059
123,0.0028,0.0255,0.0272,0.0055
124,0.0036,0.0218,0.0207,0.0058
125,0.0043,0.0217,0.0178,0.0065
126,0.0039,0.0208,0.0177,0.0064
127,0.0041,0.0234,0.0193,0.0070
128,0.0043,0.0242,0.0207,0.0073
129,0.0050,0.0239,0.0206,0.0069
130,0.0030,0.0153,0.0140,0.0058
131,0.0036,0.0321,0.0329,0.0207
132,0.0035,0.0271,0.0239,0.0176
133,0.0037,0.0258,0.0238,0.0151
134,0.0035,0.0237,0.0219,0.0128
135,0.0031,0.0262,0.0236,0.0127
136,0.0045,0.0216,0.0182,0.0067
137,0.0031,0.0277,0.0250,0.0128
138,0.0029,0.0223,0.0205,0.0106
139,0.0028,0.0189,0.0176,0.0081
140,0.0027,0.0200,0.0202,0.0064
141,0.0018,0.0189,0.0197,0.0051
142,0.0028,0.0213,0.0210,0.0063
143,0.0015,0.0191,0.0214,0.0033
144,0.0021,0.0258,0.0314,0.0040
145,0.0021,0.0300,0.0345,0.0049
146,0.0023,0.0294,0.0318,0.0063
147,0.0056,0.0228,0.0184,0.0064
148,0.0026,0.0264,0.0282,0.0081
149,0.0024,0.0282,0.0311,0.0120
150,0.0019,0.0381,0.0422,0.0182
151,0.0019,0.0463,0.0502,0.0229
152,0.0023,0.0472,0.0493,0.0246
153,0.0042,0.0366,0.0352,0.0240
154,0.0025,0.0245,0.0245,0.0059
155,0.0014,0.0166,0.0168,0.0038
156,0.0014,0.0166,0.0168,0.0038
157,0.0014,0.0166,0.0168,0.0038
158,0.0030,0.0166,0.0155,0.0056
159,0.0014,0.0166,0.0168,0.0038
160,0.0014,0.0166,0.0168,0.0038
161,0.0014,0.0166,0.0168,0.0038
162,0.0014,0.0166,0.0168,0.0038
163,0.0014,0.0166,0.0168,0.0038
164,0.0014,0.0166,0.0168,0.0038
165,0.0014,0.0166,0.0168,0.0038
166,0.0028,0.0255,0.0272,0.0055
167,0.0014,0.0166,0.0168,0.0038
168,0.0014,0.0166,0.0168,0.0038
169,0.0038,0.0349,0.0368,0.0213
170,0.0014,0.0166,0.0168,0.0038
171,0.0014,0.0166,0.0168,0.0038
172,0.0014,0.0166,0.0168,0.0038
173,0.0014,0.0166,0.0168,0.0038
174,0.0014,0.0166,0.0168,0.0038
175,0.0014,0.0166,0.0168,0.0038
176,0.0014,0.0166,0.0168,0.0038
177,0.0014,0.0166,0.0168,0.0038
178,0.0036,0.0218,0.0207,0.0058
179,0.0014,0.0166,0.0168,0.0038
180,0.0033,0.0270,0.0249,0.0172
181,0.0014,0.0166,0.0168,0.0038
182,0.0014,0.0166,0.0168,0.0038
183,0.0014,0.0166,0.0168,0.0038
184,0.0014,0.0166,0.0168,0.0038
185,0.0014,0.0166,0.0168,0.0038
186,0.0014,0.0166,0.0168,0.0038
187,0.0014,0.0166,0.0168,0.0038
188,0.0014,0.0166,0.0168,0.0038
189,0.0014,0.0166,0.0168,0.0038
190,0.0039,0.0208,0.0177,0.0064
191,0.0035,0.0250,0.0232,0.0144
192,0.0014,0.0166,0.0168,0.0038
193,0.0014,0.0166,0.0168,0.0038
194,0.0014,0.0166,0.0168,0.0038
195,0.0014,0.0166,0.0168,0.0038
196,0.0014,0.0166,0.0168,0.0038
197,0.0055,0.0195,0.0240,0.0141
198,0.0039,0.0199,0.0239,0.0105
199,0.0035,0.0195,0.0232,0.0078
200,0.0036,0.0199,0.0230,0.0058
201,0.0036,0.0218,0.0207,0.0058
202,0.0034,0.0238,0.0222,0.0124
203,0.0041,0.0234,0.0193,0.0070
204,0.0036,0.0203,0.0233,0.0039
205,0.0033,0.0198,0.0234,0.0038
206,0.0028,0.0214,0.0248,0.0037
207,0.0022,0.0212,0.0247,0.0036
208,0.0015,0.0189,0.0212,0.0036
209,0.0021,0.0144,0.0127,0.0046
210,0.0030,0.0153,0.0140,0.0058
211,0.0028,0.0213,0.0210,0.0063
212,0.0025,0.0245,0.0245,0.0059
213,0.0031,0.0275,0.0251,0.0128
214,0.0028,0.0255,0.0272,0.0055
215,0.0043,0.0242,0.0207,0.0073
216,0.0036,0.0218,0.0207,0.0058
217,0.0039,0.0208,0.0177,0.0064
218,0.0041,0.0234,0.0193,0.0070
219,0.0043,0.0242,0.0207,0.0073
220,0.0050,0.0239,0.0206,0.0069
221,0.0036,0.0321,0.0329,0.0207
222,0.0035,0.0271,0.0239,0.0176
223,0.0037,0.0258,0.0238,0.0151
224,0.0046,0.0240,0.0190,0.0069
225,0.0030,0.0289,0.0267,0.0130
226,0.0015,0.0147,0.0169,0.0037
227,0.0015,0.0147,0.0169,0.0037
228,0.0015,0.0147,0.0169,0.0037
229,0.0023,0.0117,0.0121,0.0043
230,0.0023,0.0117,0.0121,0.0043
231,0.0033,0.0128,0.0132,0.0055
232,0.0031,0.0172,0.0186,0.0057
233,0.0026,0.0228,0.0270,0.0050
234,0.0027,0.0197,0.0243,0.0045
235,0.0035,0.0169,0.0189,0.0046
236,0.0028,0.0224,0.0211,0.0103
237,0.0039,0.0156,0.0160,0.0052
238,0.0040,0.0163,0.0153,0.0062
239,0.0043,0.0198,0.0197,0.0069
240,0.0046,0.0197,0.0196,0.0067
241,0.0033,0.0128,0.0132,0.0055
242,0.0031,0.0303,0.0337,0.0166
243,0.0039,0.0183,0.0181,0.0112
244,0.0044,0.0173,0.0167,0.0097
245,0.0042,0.0169,0.0162,0.0091
246,0.0036,0.0175,0.0173,0.0092
247,0.0027,0.0178,0.0164,0.0077
248,0.0029,0.0193,0.0193,0.0096
249,0.0026,0.0146,0.0149,0.0077
250,0.0026,0.0142,0.0141,0.0060
251,0.0026,0.0176,0.0188,0.0052
252,0.0018,0.0168,0.0189,0.0045
253,0.0031,0.0172,0.0186,0.0057
254,0.0018,0.0177,0.0221,0.0034
255,0.0023,0.0256,0.0325,0.0038
256,0.0022,0.0296,0.0353,0.0044
257,0.0022,0.0263,0.0300,0.0054
258,0.0026,0.0193,0.0189,0.0060
259,0.0025,0.0218,0.0250,0.0059
260,0.0022,0.0212,0.0248,0.0071
261,0.0019,0.0272,0.0324,0.0101
262,0.0018,0.0337,0.0394,0.0124
263,0.0023,0.0325,0.0380,0.0127
264,0.0046,0.0229,0.0258,0.0146
265,0.0026,0.0228,0.0270,0.0050
266,0.0015,0.0147,0.0169,0.0037
267,0.0015,0.0147,0.0169,0.0037
268,0.0015,0.0147,0.0169,0.0037
269,0.0018,0.0190,0.0196,0.0050
270,0.0015,0.0147,0.0169,0.0037
271,0.0015,0.0147,0.0169,0.0037
272,0.0015,0.0147,0.0169,0.0037
273,0.0015,0.0147,0.0169,0.0037
274,0.0015,0.0147,0.0169,0.0037
275,0.0015,0.0147,0.0169,0.0037
276,0.0015,0.0147,0.0169,0.0037
277,0.0027,0.0197,0.0243,0.0045
278,0.0015,0.0147,0.0169,0.0037
279,0.0015,0.0147,0.0169,0.0037
280,0.0028,0.0235,0.0233,0.0060
281,0.0015,0.0147,0.0169,0.0037
282,0.0015,0.0147,0.0169,0.0037
283,0.0015,0.0147,0.0169,0.0037
284,0.0015,0.0147,0.0169,0.0037
285,0.0015,0.0147,0.0169,0.0037
286,0.0015,0.0147,0.0169,0.0037
287,0.0015,0.0147,0.0169,0.0037
288,0.0015,0.0147,0.0169,0.0037
289,0.0035,0.0169,0.0189,0.0046
290,0.0015,0.0147,0.0169,0.0037
291,0.0017,0.0186,0.0206,0.0033
292,0.0015,0.0147,0.0169,0.0037
293,0.0015,0.0147,0.0169,0.0037
294,0.0015,0.0147,0.0169,0.0037
295,0.0015,0.0147,0.0169,0.0037
296,0.0015,0.0147,0.0169,0.0037
297,0.0015,0.0147,0.0169,0.0037
298,0.0015,0.0147,0.0169,0.0037
299,0.0015,0.0147,0.0169,0.0037
300,0.0015,0.0147,0.0169,0.0037
301,0.0039,0.0156,0.0160,0.0052
302,0.0022,0.0248,0.0298,0.0039
303,0.0015,0.0147,0.0169,0.0037
304,0.0015,0.0147,0.0169,0.0037
305,0.0015,0.0147,0.0169,0.0037
306,0.0015,0.0147,0.0169,0.0037
307,0.0015,0.0147,0.0169,0.0037
308,0.0056,0.0163,0.0181,0.0100
309,0.0039,0.0160,0.0169,0.0069
310,0.0033,0.0155,0.0161,0.0049
311,0.0034,0.0165,0.0157,0.0042
312,0.0035,0.0169,0.0189,0.0046
313,0.0022,0.0284,0.0323,0.0048
314,0.0040,0.0163,0.0153,0.0062
315,0.0034,0.0163,0.0167,0.0043
316,0.0031,0.0173,0.0190,0.0043
317,0.0027,0.0183,0.0210,0.0042
318,0.0022,0.0199,0.0234,0.0039
319,0.0017,0.0179,0.0214,0.0037
320,0.0023,0.0117,0.0121,0.0043
321,0.0033,0.0128,0.0132,0.0055
322,0.0031,0.0172,0.0186,0.0057
323,0.0026,0.0228,0.0270,0.0050
324,0.0023,0.0273,0.0292,0.0063
325,0.0027,0.0197,0.0243,0.0045
326,0.0043,0.0198,0.0197,0.0069
327,0.0035,0.0169,0.0189,0.0046
328,0.0039,0.0156,0.0160,0.0052
329,0.0040,0.0163,0.0153,0.0062
330,0.0043,0.0198,0.0197,0.0069
331,0.0046,0.0197,0.0196,0.0067
332,0.0031,0.0303,0.0337,0.0166
333,0.0039,0.0183,0.0181,0.0112
334,0.0044,0.0173,0.0167,0.0097
335,0.0059,0.0251,0.0193,0.0066
336,0.0028,0.0237,0.0249,0.0078
337,0.0018,0.0123,0.0149,0.0036
338,0.0018,0.0123,0.0149,0.0036
339,0.0018,0.0123,0.0149,0.0036
340,0.0027,0.0104,0.0114,0.0042
341,0.0027,0.0104,0.0114,0.0042
342,0.0039,0.0105,0.0115,0.0053
343,0.0034,0.0118,0.0136,0.0054
344,0.0027,0.0157,0.0210,0.0046
345,0.0027,0.0148,0.0208,0.0038
346,0.0035,0.0117,0.0152,0.0038
347,0.0028,0.0254,0.0274,0.0111
348,0.0039,0.0110,0.0124,0.0043
349,0.0040,0.0128,0.0134,0.0055
350,0.0043,0.0169,0.0178,0.0065
351,0.0045,0.0169,0.0195,0.0067
352,0.0039,0.0105,0.0115,0.0053
353,0.0031,0.0374,0.0394,0.0213
354,0.0044,0.0189,0.0196,0.0132
355,0.0052,0.0149,0.0150,0.0102
356,0.0048,0.0164,0.0166,0.0099
357,0.0043,0.0167,0.0181,0.0092
358,0.0023,0.0350,0.0384,0.0167
359,0.0036,0.0153,0.0177,0.0085
360,0.0031,0.0115,0.0133,0.0067
361,0.0030,0.0108,0.0113,0.0053
362,0.0030,0.0134,0.0141,0.0048
363,0.0022,0.0144,0.0171,0.0042
364,0.0034,0.0118,0.0136,0.0054
365,0.0021,0.0159,0.0214,0.0034
366,0.0025,0.0239,0.0314,0.0039
367,0.0024,0.0276,0.0340,0.0050
368,0.0022,0.0237,0.0279,0.0068
369,0.0021,0.0431,0.0464,0.0209
370,0.0024,0.0178,0.0207,0.0076
371,0.0022,0.0151,0.0177,0.0071
372,0.0019,0.0175,0.0218,0.0075
373,0.0019,0.0220,0.0280,0.0084
374,0.0025,0.0221,0.0286,0.0104
375,0.0050,0.0190,0.0214,0.0183
376,0.0027,0.0157,0.0210,0.0046
377,0.0018,0.0123,0.0149,0.0036
378,0.0018,0.0123,0.0149,0.0036
379,0.0018,0.0123,0.0149,0.0036
380,0.0027,0.0443,0.0459,0.0228
381,0.0018,0.0123,0.0149,0.0036
382,0.0018,0.0123,0.0149,0.0036
383,0.0018,0.0123,0.0149,0.0036
384,0.0018,0.0123,0.0149,0.0036
385,0.0018,0.0123,0.0149,0.0036
386,0.0018,0.0123,0.0149,0.0036
387,0.0018,0.0123,0.0149,0.0036
388,0.0027,0.0148,0.0208,0.0038
389,0.0018,0.0123,0.0149,0.0036
390,0.0018,0.0123,0.0149,0.0036
391,0.0048,0.0347,0.0328,0.0233
392,0.0018,0.0123,0.0149,0.0036
393,0.0018,0.0123,0.0149,0.0036
394,0.0018,0.0123,0.0149,0.0036
395,0.0018,0.0123,0.0149,0.0036
396,0.0018,0.0123,0.0149,0.0036
397,0.0018,0.0123,0.0149,0.0036
398,0.0018,0.0123,0.0149,0.0036
399,0.0018,0.0123,0.0149,0.0036
400,0.0035,0.0117,0.0152,0.0038
401,0.0018,0.0123,0.0149,0.0036
402,0.0024,0.0266,0.0268,0.0056
403,0.0018,0.0123,0.0149,0.0036
404,0.0018,0.0123,0.0149,0.0036
405,0.0018,0.0123,0.0149,0.0036
406,0.0018,0.0123,0.0149,0.0036
407,0.0018,0.0123,0.0149,0.0036
408,0.0018,0.0123,0.0149,0.0036
409,0.0018,0.0123,0.0149,0.0036
410,0.0018,0.0123,0.0149,0.0036
411,0.0018,0.0123,0.0149,0.0036
412,0.0039,0.0110,0.0124,0.0043
413,0.0015,0.0166,0.0166,0.0039
414,0.0018,0.0123,0.0149,0.0036
415,0.0018,0.0123,0.0149,0.0036
416,0.0018,0.0123,0.0149,0.0036
417,0.0018,0.0123,0.0149,0.0036
418,0.0018,0.0123,0.0149,0.0036
419,0.0056,0.0157,0.0230,0.0074
420,0.0039,0.0140,0.0191,0.0048
421,0.0032,0.0128,0.0173,0.0042
422,0.0032,0.0127,0.0142,0.0046
423,0.0035,0.0117,0.0152,0.0038
424,0.0015,0.0166,0.0166,0.0039
425,0.0040,0.0128,0.0134,0.0055
426,0.0032,0.0131,0.0134,0.0052
427,0.0030,0.0143,0.0160,0.0049
428,0.0027,0.0147,0.0171,0.0044
429,0.0023,0.0157,0.0193,0.0040
430,0.0018,0.0146,0.0181,0.0036
431,0.0027,0.0104,0.0114,0.0042
432,0.0039,0.0105,0.0115,0.0053
433,0.0034,0.0118,0.0136,0.0054
434,0.0027,0.0157,0.0210,0.0046
435,0.0015,0.0166,0.0166,0.0039
436,0.0027,0.0148,0.0208,0.0038
437,0.0043,0.0169,0.0178,0.0065
438,0.0035,0.0117,0.0152,0.0038
439,0.0039,0.0110,0.0124,0.0043
440,0.0040,0.0128,0.0134,0.0055
441,0.0043,0.0169,0.0178,0.0065
442,0.0045,0.0169,0.0195,0.0067
443,0.0031,0.0374,0.0394,0.0213
444,0.0044,0.0189,0.0196,0.0132
445,0.0052,0.0149,0.0150,0.0102
446,0.0030,0.0165,0.0135,0.0058
447,0.0015,0.0166,0.0166,0.0039
448,0.0020,0.0114,0.0138,0.0036
449,0.0020,0.0114,0.0138,0.0036
450,0.0020,0.0114,0.0138,0.0036
451,0.0030,0.0103,0.0117,0.0042
452,0.0030,0.0103,0.0117,0.0042
453,0.0041,0.0095,0.0104,0.0052
454,0.0035,0.0097,0.0110,0.0053
455,0.0028,0.0123,0.0169,0.0045
456,0.0027,0.0135,0.0201,0.0038
457,0.0035,0.0103,0.0125,0.0037
458,0.0015,0.0166,0.0166,0.0039
459,0.0039,0.0104,0.0120,0.0041
460,0.0040,0.0112,0.0121,0.0051
461,0.0043,0.0156,0.0171,0.0063
462,0.0045,0.0166,0.0195,0.0067
463,0.0041,0.0095,0.0104,0.0052
464,0.0032,0.0421,0.0433,0.0248
465,0.0045,0.0217,0.0225,0.0156
466,0.0053,0.0170,0.0170,0.0118
467,0.0051,0.0178,0.0187,0.0113
468,0.0046,0.0185,0.0205,0.0101
469,0.0015,0.0166,0.0166,0.0039
470,0.0040,0.0152,0.0181,0.0086
471,0.0035,0.0114,0.0142,0.0067
472,0.0034,0.0101,0.0111,0.0054
473,0.0033,0.0128,0.0138,0.0047
474,0.0024,0.0117,0.0136,0.0042
475,0.0035,0.0097,0.0110,0.0053
476,0.0021,0.0144,0.0194,0.0034
477,0.0026,0.0233,0.0308,0.0040
478,0.0024,0.0270,0.0334,0.0056
479,0.0022,0.0226,0.0268,0.0078
480,0.0015,0.0166,0.0166,0.0039
481,0.0024,0.0165,0.0195,0.0089
482,0.0022,0.0142,0.0163,0.0089
483,0.0019,0.0152,0.0184,0.0091
484,0.0019,0.0185,0.0242,0.0097
485,0.0026,0.0190,0.0257,0.0129
486,0.0052,0.0216,0.0217,0.0223
487,0.0028,0.0123,0.0169,0.0045
488,0.0020,0.0114,0.0138,0.0036
489,0.0020,0.0114,0.0138,0.0036
490,0.0020,0.0114,0.0138,0.0036
491,0.0015,0.0166,0.0166,0.0039
492,0.0020,0.0114,0.0138,0.0036
493,0.0020,0.0114,0.0138,0.0036
494,0.0020,0.0114,0.0138,0.0036
495,0.0020,0.0114,0.0138,0.0036
496,0.0020,0.0114,0.0138,0.0036
497,0.0020,0.0114,0.0138,0.0036
498,0.0020,0.0114,0.0138,0.0036
499,0.0027,0.0135,0.0201,0.0038
500,0.0020,0.0114,0.0138,0.0036
501,0.0020,0.0114,0.0138,0.0036
502,0.0015,0.0166,0.0166,0.0039
503,0.0020,0.0114,0.0138,0.0036
504,0.0020,0.0114,0.0138,0.0036
505,0.0020,0.0114,0.0138,0.0036
506,0.0020,0.0114,0.0138,0.0036
507,0.0020,0.0114,0.0138,0.0036
508,0.0020,0.0114,0.0138,0.0036
509,0.0020,0.0114,0.0138,0.0036
510,0.0020,0.0114,0.0138,0.0036
511,0.0035,0.0103,0.0125,0.0037
512,0.0020,0.0114,0.0138,0.0036
513,0.0015,0.0166,0.0166,0.0039
514,0.0020,0.0114,0.0138,0.0036
515,0.0020,0.0114,0.0138,0.0036
516,0.0020,0.0114,0.0138,0.0036
517,0.0020,0.0114,0.0138,0.0036
518,0.0020,0.0114,0.0138,0.0036
519,0.0020,0.0114,0.0138,0.0036
520,0.0020,0.0114,0.0138,0.0036
521,0.0020,0.0114,0.0138,0.0036
522,0.0020,0.0114,0.0138,0.0036
523,0.0039,0.0104,0.0120,0.0041
524,0.0029,0.0268,0.0286,0.0053
525,0.0020,0.0114,0.0138,0.0036
526,0.0020,0.0114,0.0138,0.0036
527,0.0020,0.0114,0.0138,0.0036
528,0.0020,0.0114,0.0138,0.0036
529,0.0020,0.0114,0.0138,0.0036
530,0.0056,0.0159,0.0267,0.0064
531,0.0038,0.0142,0.0233,0.0044
532,0.0032,0.0125,0.0203,0.0043
533,0.0032,0.0120,0.0169,0.0050
534,0.0035,0.0103,0.0125,0.0037
535,0.0015,0.0166,0.0166,0.0039
536,0.0040,0.0112,0.0121,0.0051
537,0.0032,0.0119,0.0138,0.0055
538,0.0030,0.0139,0.0157,0.0052
539,0.0028,0.0152,0.0172,0.0046
540,0.0023,0.0163,0.0200,0.0040
541,0.0019,0.0141,0.0177,0.0035
542,0.0030,0.0103,0.0117,0.0042
543,0.0041,0.0095,0.0104,0.0052
544,0.0035,0.0097,0.0110,0.0053
545,0.0028,0.0123,0.0169,0.0045
546,0.0015,0.0166,0.0166,0.0039
547,0.0027,0.0135,0.0201,0.0038
548,0.0043,0.0156,0.0171,0.0063
549,0.0035,0.0103,0.0125,0.0037
550,0.0039,0.0104,0.0120,0.0041
551,0.0040,0.0112,0.0121,0.0051
552,0.0043,0.0156,0.0171,0.0063
553,0.0045,0.0166,0.0195,0.0067
554,0.0032,0.0421,0.0433,0.0248
555,0.0045,0.0217,0.0225,0.0156
556,0.0053,0.0170,0.0170,0.0118
557,0.0043,0.0377,0.0371,0.0257
558,0.0015,0.0166,0.0166,0.0039
559,0.0015,0.0166,0.0166,0.0039
560,0.0015,0.0166,0.0166,0.0039
561,0.0015,0.0166,0.0166,0.0039
562,0.0015,0.0166,0.0166,0.0039
563,0.0015,0.0166,0.0166,0.0039
564,0.0015,0.0166,0.0166,0.0039
565,0.0015,0.0166,0.0166,0.0039
566,0.0038,0.0222,0.0211,0.0055
567,0.0015,0.0166,0.0166,0.0039
568,0.0035,0.0314,0.0280,0.0213
569,0.0015,0.0166,0.0166,0.0039
570,0.0015,0.0166,0.0166,0.0039
571,0.0015,0.0166,0.0166,0.0039
572,0.0015,0.0166,0.0166,0.0039
573,0.0015,0.0166,0.0166,0.0039
574,0.0015,0.0166,0.0166,0.0039
575,0.0015,0.0166,0.0166,0.0039
576,0.0015,0.0166,0.0166,0.0039
577,0.0015,0.0166,0.0166,0.0039
578,0.0043,0.0199,0.0169,0.0060
579,0.0035,0.0293,0.0268,0.0174
580,0.0015,0.0166,0.0166,0.0039
581,0.0015,0.0166,0.0166,0.0039
582,0.0015,0.0166,0.0166,0.0039
583,0.0015,0.0166,0.0166,0.0039
584,0.0015,0.0166,0.0166,0.0039
585,0.0043,0.0183,0.0234,0.0128
586,0.0040,0.0189,0.0233,0.0095
587,0.0044,0.0186,0.0225,0.0071
588,0.0048,0.0188,0.0219,0.0054
589,0.0038,0.0222,0.0211,0.0055
590,0.0034,0.0285,0.0262,0.0146
591,0.0043,0.0217,0.0178,0.0065
592,0.0044,0.0193,0.0218,0.0040
593,0.0038,0.0188,0.0218,0.0039
594,0.0032,0.0205,0.0233,0.0038
595,0.0024,0.0205,0.0234,0.0038
596,0.0017,0.0183,0.0201,0.0037
597,0.0022,0.0144,0.0128,0.0045
598,0.0030,0.0166,0.0155,0.0056
599,0.0028,0.0235,0.0233,0.0060
600,0.0024,0.0266,0.0268,0.0056
601,0.0033,0.0321,0.0286,0.0146
602,0.0029,0.0268,0.0286,0.0053
603,0.0045,0.0216,0.0182,0.0067
604,0.0038,0.0222,0.0211,0.0055
605,0.0043,0.0199,0.0169,0.0060
606,0.0043,0.0217,0.0178,0.0065
607,0.0045,0.0216,0.0182,0.0067
608,0.0056,0.0228,0.0184,0.0064
609,0.0038,0.0349,0.0368,0.0213
610,0.0033,0.0270,0.0249,0.0172
611,0.0035,0.0250,0.0232,0.0144
612,0.0015,0.0176,0.0163,0.0040
613,0.0034,0.0338,0.0297,0.0149
614,0.0017,0.0148,0.0166,0.0037
615,0.0017,0.0148,0.0166,0.0037
616,0.0017,0.0148,0.0166,0.0037
617,0.0023,0.0123,0.0128,0.0043
618,0.0023,0.0123,0.0128,0.0043
619,0.0033,0.0138,0.0143,0.0053
620,0.0031,0.0194,0.0208,0.0054
621,0.0025,0.0253,0.0297,0.0048
622,0.0027,0.0211,0.0255,0.0043
623,0.0037,0.0173,0.0192,0.0044
624,0.0031,0.0287,0.0256,0.0123
625,0.0042,0.0151,0.0156,0.0049
626,0.0043,0.0151,0.0142,0.0058
627,0.0043,0.0172,0.0172,0.0063
628,0.0050,0.0193,0.0174,0.0061
629,0.0033,0.0138,0.0143,0.0053
630,0.0031,0.0364,0.0398,0.0196
631,0.0036,0.0218,0.0221,0.0131
632,0.0041,0.0189,0.0183,0.0108
633,0.0039,0.0197,0.0191,0.0104
634,0.0034,0.0205,0.0208,0.0103
635,0.0028,0.0221,0.0197,0.0090
636,0.0028,0.0216,0.0224,0.0103
637,0.0026,0.0153,0.0165,0.0079
638,0.0025,0.0130,0.0128,0.0058
639,0.0026,0.0167,0.0173,0.0050
640,0.0019,0.0167,0.0184,0.0045
641,0.0031,0.0194,0.0208,0.0054
642,0.0020,0.0171,0.0211,0.0034
643,0.0025,0.0247,0.0309,0.0038
644,0.0023,0.0280,0.0331,0.0047
645,0.0023,0.0245,0.0276,0.0060
646,0.0027,0.0210,0.0203,0.0068
647,0.0027,0.0194,0.0220,0.0065
648,0.0026,0.0189,0.0218,0.0070
649,0.0022,0.0244,0.0291,0.0090
650,0.0022,0.0308,0.0362,0.0110
651,0.0029,0.0302,0.0352,0.0122
652,0.0054,0.0224,0.0246,0.0170
653,0.0025,0.0253,0.0297,0.0048
654,0.0017,0.0148,0.0166,0.0037
655,0.0017,0.0148,0.0166,0.0037
656,0.0017,0.0148,0.0166,0.0037
657,0.0019,0.0195,0.0192,0.0053
658,0.0017,0.0148,0.0166,0.0037
659,0.0017,0.0148,0.0166,0.0037
660,0.0017,0.0148,0.0166,0.0037
661,0.0017,0.0148,0.0166,0.0037
662,0.0017,0.0148,0.0166,0.0037
663,0.0017,0.0148,0.0166,0.0037
664,0.0017,0.0148,0.0166,0.0037
665,0.0027,0.0211,0.0255,0.0043
666,0.0017,0.0148,0.0166,0.0037
667,0.0017,0.0148,0.0166,0.0037
668,0.0027,0.0231,0.0211,0.0062
669,0.0017,0.0148,0.0166,0.0037
670,0.0017,0.0148,0.0166,0.0037
671,0.0017,0.0148,0.0166,0.0037
672,0.0017,0.0148,0.0166,0.0037
673,0.0017,0.0148,0.0166,0.0037
674,0.0017,0.0148,0.0166,0.0037
675,0.0017,0.0148,0.0166,0.0037
676,0.0017,0.0148,0.0166,0.0037
677,0.0037,0.0173,0.0192,0.0044
678,0.0017,0.0148,0.0166,0.0037
679,0.0017,0.0204,0.0216,0.0034
680,0.0017,0.0148,0.0166,0.0037
681,0.0017,0.0148,0.0166,0.0037
682,0.0017,0.0148,0.0166,0.0037
683,0.0017,0.0148,0.0166,0.0037
684,0.0017,0.0148,0.0166,0.0037
685,0.0017,0.0148,0.0166,0.0037
686,0.0017,0.0148,0.0166,0.0037
687,0.0017,0.0148,0.0166,0.0037
688,0.0017,0.0148,0.0166,0.0037
689,0.0042,0.0151,0.0156,0.0049
690,0.0021,0.0264,0.0307,0.0041
691,0.0017,0.0148,0.0166,0.0037
692,0.0017,0.0148,0.0166,0.0037
693,0.0017,0.0148,0.0166,0.0037
694,0.0017,0.0148,0.0166,0.0037
695,0.0017,0.0148,0.0166,0.0037
696,0.0043,0.0148,0.0160,0.0091
697,0.0039,0.0146,0.0152,0.0063
698,0.0042,0.0143,0.0148,0.0047
699,0.0044,0.0151,0.0144,0.0042
700,0.0037,0.0173,0.0192,0.0044
701,0.0022,0.0293,0.0329,0.0054
702,0.0043,0.0151,0.0142,0.0058
703,0.0041,0.0149,0.0151,0.0045
704,0.0036,0.0162,0.0173,0.0045
705,0.0030,0.0170,0.0191,0.0044
706,0.0024,0.0190,0.0219,0.0041
707,0.0019,0.0172,0.0201,0.0038
708,0.0023,0.0123,0.0128,0.0043
709,0.0033,0.0138,0.0143,0.0053
710,0.0031,0.0194,0.0208,0.0054
711,0.0025,0.0253,0.0297,0.0048
712,0.0023,0.0275,0.0289,0.0071
713,0.0027,0.0211,0.0255,0.0043
714,0.0043,0.0172,0.0172,0.0063
715,0.0037,0.0173,0.0192,0.0044
716,0.0042,0.0151,0.0156,0.0049
717,0.0043,0.0151,0.0142,0.0058
718,0.0043,0.0172,0.0172,0.0063
719,0.0050,0.0193,0.0174,0.0061
720,0.0031,0.0364,0.0398,0.0196
721,0.0036,0.0218,0.0221,0.0131
722,0.0041,0.0189,0.0183,0.0108
723,0.0023,0.0171,0.0144,0.0046
724,0.0029,0.0263,0.0268,0.0095
725,0.0020,0.0122,0.0145,0.0036
726,0.0020,0.0122,0.0145,0.0036
727,0.0020,0.0122,0.0145,0.0036
728,0.0028,0.0109,0.0119,0.0041
729,0.0028,0.0109,0.0119,0.0041
730,0.0039,0.0112,0.0122,0.0051
731,0.0033,0.0135,0.0158,0.0051
732,0.0026,0.0178,0.0233,0.0045
733,0.0027,0.0159,0.0218,0.0038
734,0.0037,0.0118,0.0150,0.0038
735,0.0028,0.0288,0.0301,0.0140
736,0.0042,0.0108,0.0120,0.0042
737,0.0043,0.0117,0.0122,0.0051
738,0.0043,0.0146,0.0154,0.0060
739,0.0048,0.0162,0.0167,0.0061
740,0.0039,0.0112,0.0122,0.0051
741,0.0030,0.0451,0.0466,0.0255
742,0.0040,0.0253,0.0257,0.0166
743,0.0047,0.0201,0.0199,0.0131
744,0.0045,0.0219,0.0222,0.0126
745,0.0040,0.0223,0.0242,0.0115
746,0.0023,0.0389,0.0412,0.0205
747,0.0034,0.0191,0.0225,0.0100
748,0.0030,0.0130,0.0162,0.0074
749,0.0030,0.0103,0.0114,0.0054
750,0.0030,0.0128,0.0130,0.0046
751,0.0023,0.0141,0.0162,0.0042
752,0.0033,0.0135,0.0158,0.0051
753,0.0023,0.0157,0.0208,0.0035
754,0.0027,0.0229,0.0298,0.0041
755,0.0024,0.0265,0.0323,0.0056
756,0.0022,0.0219,0.0255,0.0078
757,0.0021,0.0480,0.0500,0.0264
758,0.0026,0.0161,0.0187,0.0090
759,0.0025,0.0137,0.0157,0.0087
760,0.0023,0.0156,0.0194,0.0087
761,0.0023,0.0199,0.0257,0.0097
762,0.0033,0.0206,0.0268,0.0131
763,0.0059,0.0202,0.0216,0.0227
764,0.0026,0.0178,0.0233,0.0045
765,0.0020,0.0122,0.0145,0.0036
766,0.0020,0.0122,0.0145,0.0036
767,0.0020,0.0122,0.0145,0.0036
768,0.0027,0.0504,0.0496,0.0291
769,0.0020,0.0122,0.0145,0.0036
770,0.0020,0.0122,0.0145,0.0036
771,0.0020,0.0122,0.0145,0.0036
772,0.0020,0.0122,0.0145,0.0036
773,0.0020,0.0122,0.0145,0.0036
774,0.0020,0.0122,0.0145,0.0036
775,0.0020,0.0122,0.0145,0.0036
776,0.0027,0.0159,0.0218,0.0038
777,0.0020,0.0122,0.0145,0.0036
778,0.0020,0.0122,0.0145,0.0036
779,0.0047,0.0416,0.0374,0.0297
780,0.0020,0.0122,0.0145,0.0036
781,0.0020,0.0122,0.0145,0.0036
782,0.0020,0.0122,0.0145,0.0036
783,0.0020,0.0122,0.0145,0.0036
784,0.0020,0.0122,0.0145,0.0036
785,0.0020,0.0122,0.0145,0.0036
786,0.0020,0.0122,0.0145,0.0036
787,0.0020,0.0122,0.0145,0.0036
788,0.0037,0.0118,0.0150,0.0038
789,0.0020,0.0122,0.0145,0.0036
790,0.0025,0.0270,0.0258,0.0061
791,0.0020,0.0122,0.0145,0.0036
792,0.0020,0.0122,0.0145,0.0036
793,0.0020,0.0122,0.0145,0.0036
794,0.0020,0.0122,0.0145,0.0036
795,0.0020,0.0122,0.0145,0.0036
796,0.0020,0.0122,0.0145,0.0036
797,0.0020,0.0122,0.0145,0.0036
798,0.0020,0.0122,0.0145,0.0036
799,0.0020,0.0122,0.0145,0.0036
800,0.0042,0.0108,0.0120,0.0042
801,0.0015,0.0176,0.0163,0.0040
802,0.0020,0.0122,0.0145,0.0036
803,0.0020,0.0122,0.0145,0.0036
804,0.0020,0.0122,0.0145,0.0036
805,0.0020,0.0122,0.0145,0.0036
806,0.0020,0.0122,0.0145,0.0036
807,0.0043,0.0146,0.0223,0.0069
808,0.0038,0.0129,0.0186,0.0046
809,0.0040,0.0116,0.0171,0.0041
810,0.0041,0.0116,0.0142,0.0047
811,0.0037,0.0118,0.0150,0.0038
812,0.0015,0.0176,0.0163,0.0040
813,0.0043,0.0117,0.0122,0.0051
814,0.0038,0.0118,0.0129,0.0053
815,0.0035,0.0128,0.0146,0.0051
816,0.0030,0.0133,0.0154,0.0046
817,0.0025,0.0147,0.0176,0.0042
818,0.0021,0.0140,0.0170,0.0037
819,0.0028,0.0109,0.0119,0.0041
820,0.0039,0.0112,0.0122,0.0051
821,0.0033,0.0135,0.0158,0.0051
822,0.0026,0.0178,0.0233,0.0045
823,0.0015,0.0176,0.0163,0.0040
824,0.0027,0.0159,0.0218,0.0038
825,0.0043,0.0146,0.0154,0.0060
826,0.0037,0.0118,0.0150,0.0038
827,0.0042,0.0108,0.0120,0.0042
828,0.0043,0.0117,0.0122,0.0051
829,0.0043,0.0146,0.0154,0.0060
830,0.0048,0.0162,0.0167,0.0061
831,0.0030,0.0451,0.0466,0.0255
832,0.0040,0.0253,0.0257,0.0166
833,0.0047,0.0201,0.0199,0.0131
834,0.0023,0.0171,0.0144,0.0046
835,0.0015,0.0176,0.0163,0.0040
836,0.0022,0.0114,0.0137,0.0036
837,0.0022,0.0114,0.0137,0.0036
838,0.0022,0.0114,0.0137,0.0036
839,0.0032,0.0108,0.0123,0.0041
840,0.0032,0.0108,0.0123,0.0041
841,0.0041,0.0097,0.0108,0.0051
842,0.0034,0.0103,0.0125,0.0051
843,0.0027,0.0138,0.0189,0.0044
844,0.0027,0.0146,0.0211,0.0037
845,0.0038,0.0103,0.0123,0.0037
846,0.0015,0.0176,0.0163,0.0040
847,0.0043,0.0105,0.0116,0.0040
848,0.0043,0.0106,0.0112,0.0049
849,0.0043,0.0135,0.0147,0.0059
850,0.0047,0.0160,0.0165,0.0061
851,0.0041,0.0097,0.0108,0.0051
852,0.0030,0.0501,0.0508,0.0291
853,0.0041,0.0297,0.0300,0.0199
854,0.0049,0.0241,0.0237,0.0156
855,0.0047,0.0246,0.0254,0.0144
856,0.0043,0.0242,0.0267,0.0124
857,0.0015,0.0176,0.0163,0.0040
858,0.0038,0.0197,0.0235,0.0104
859,0.0033,0.0141,0.0181,0.0079
860,0.0033,0.0100,0.0120,0.0056
861,0.0033,0.0120,0.0125,0.0047
862,0.0025,0.0115,0.0131,0.0042
863,0.0034,0.0103,0.0125,0.0051
864,0.0023,0.0141,0.0187,0.0035
865,0.0028,0.0227,0.0296,0.0043
866,0.0025,0.0255,0.0313,0.0063
867,0.0022,0.0210,0.0247,0.0091
868,0.0015,0.0176,0.0163,0.0040
869,0.0026,0.0153,0.0180,0.0105
870,0.0025,0.0139,0.0154,0.0106
871,0.0024,0.0143,0.0169,0.0110
872,0.0024,0.0166,0.0219,0.0121
873,0.0033,0.0182,0.0245,0.0163
874,0.0061,0.0234,0.0227,0.0270
875,0.0027,0.0138,0.0189,0.0044
876,0.0022,0.0114,0.0137,0.0036
877,0.0022,0.0114,0.0137,0.0036
878,0.0022,0.0114,0.0137,0.0036
879,0.0015,0.0176,0.0163,0.0040
880,0.0022,0.0114,0.0137,0.0036
881,0.0022,0.0114,0.0137,0.0036
882,0.0022,0.0114,0.0137,0.0036
883,0.0022,0.0114,0.0137,0.0036
884,0.0022,0.0114,0.0137,0.0036
885,0.0022,0.0114,0.0137,0.0036
886,0.0022,0.0114,0.0137,0.0036
887,0.0027,0.0146,0.0211,0.0037
888,0.0022,0.0114,0.0137,0.0036
889,0.0022,0.0114,0.0137,0.0036
890,0.0015,0.0176,0.0163,0.0040
891,0.0022,0.0114,0.0137,0.0036
892,0.0022,0.0114,0.0137,0.0036
893,0.0022,0.0114,0.0137,0.0036
894,0.0022,0.0114,0.0137,0.0036
895,0.0022,0.0114,0.0137,0.0036
896,0.0022,0.0114,0.0137,0.0036
897,0.0022,0.0114,0.0137,0.0036
898,0.0022,0.0114,0.0137,0.0036
899,0.0038,0.0103,0.0123,0.0037
900,0.0022,0.0114,0.0137,0.0036
901,0.0015,0.0176,0.0163,0.0040
902,0.0022,0.0114,0.0137,0.0036
903,0.0022,0.0114,0.0137,0.0036
904,0.0022,0.0114,0.0137,0.0036
905,0.0022,0.0114,0.0137,0.0036
906,0.0022,0.0114,0.0137,0.0036
907,0.0022,0.0114,0.0137,0.0036
908,0.0022,0.0114,0.0137,0.0036
909,0.0022,0.0114,0.0137,0.0036
910,0.0022,0.0114,0.0137,0.0036
911,0.0043,0.0105,0.0116,0.0040
912,0.0030,0.0263,0.0257,0.0059
913,0.0022,0.0114,0.0137,0.0036
914,0.0022,0.0114,0.0137,0.0036
915,0.0022,0.0114,0.0137,0.0036
916,0.0022,0.0114,0.0137,0.0036
917,0.0022,0.0114,0.0137,0.0036
918,0.0043,0.0150,0.0262,0.0060
919,0.0038,0.0134,0.0237,0.0043
920,0.0039,0.0117,0.0210,0.0043
921,0.0041,0.0110,0.0181,0.0051
922,0.0038,0.0103,0.0123,0.0037
923,0.0015,0.0176,0.0163,0.0040
924,0.0043,0.0106,0.0112,0.0049
925,0.0038,0.0108,0.0141,0.0056
926,0.0035,0.0125,0.0146,0.0054
927,0.0031,0.0138,0.0156,0.0049
928,0.0026,0.0151,0.0181,0.0042
929,0.0022,0.0136,0.0166,0.0037
930,0.0032,0.0108,0.0123,0.0041
931,0.0041,0.0097,0.0108,0.0051
932,0.0034,0.0103,0.0125,0.0051
933,0.0027,0.0138,0.0189,0.0044
934,0.0015,0.0176,0.0163,0.0040
935,0.0027,0.0146,0.0211,0.0037
936,0.0043,0.0135,0.0147,0.0059
937,0.0038,0.0103,0.0123,0.0037
938,0.0043,0.0105,0.0116,0.0040
939,0.0043,0.0106,0.0112,0.0049
940,0.0043,0.0135,0.0147,0.0059
941,0.0047,0.0160,0.0165,0.0061
942,0.0030,0.0501,0.0508,0.0291
943,0.0041,0.0297,0.0300,0.0199
944,0.0049,0.0241,0.0237,0.0156
945,0.0030,0.0165,0.0135,0.0058
946,0.0015,0.0176,0.0163,0.0040
947,0.0016,0.0173,0.0159,0.0040
948,0.0016,0.0173,0.0159,0.0040
949,0.0016,0.0173,0.0159,0.0040
950,0.0023,0.0167,0.0141,0.0046
951,0.0023,0.0167,0.0141,0.0046
952,0.0030,0.0173,0.0141,0.0057
953,0.0027,0.0250,0.0230,0.0061
954,0.0025,0.0289,0.0277,0.0059
955,0.0032,0.0272,0.0266,0.0057
956,0.0043,0.0247,0.0215,0.0058
957,0.0015,0.0176,0.0163,0.0040
958,0.0048,0.0209,0.0158,0.0061
959,0.0049,0.0229,0.0170,0.0064
960,0.0052,0.0219,0.0169,0.0064
961,0.0069,0.0245,0.0179,0.0062
962,0.0030,0.0173,0.0141,0.0057
963,0.0045,0.0402,0.0403,0.0264
964,0.0035,0.0319,0.0293,0.0211
965,0.0034,0.0296,0.0273,0.0171
966,0.0033,0.0294,0.0273,0.0147
967,0.0032,0.0335,0.0303,0.0146
968,0.0015,0.0176,0.0163,0.0040
969,0.0033,0.0342,0.0306,0.0147
970,0.0030,0.0281,0.0255,0.0117
971,0.0027,0.0210,0.0187,0.0084
972,0.0026,0.0206,0.0196,0.0065
973,0.0019,0.0196,0.0190,0.0053
974,0.0027,0.0250,0.0230,0.0061
975,0.0018,0.0201,0.0211,0.0034
976,0.0022,0.0254,0.0294,0.0041
977,0.0022,0.0279,0.0312,0.0053
978,0.0024,0.0260,0.0272,0.0072
979,0.0015,0.0176,0.0163,0.0040
980,0.0032,0.0242,0.0242,0.0094
981,0.0033,0.0265,0.0270,0.0135
982,0.0028,0.0361,0.0377,0.0196
983,0.0026,0.0448,0.0461,0.0251
984,0.0033,0.0477,0.0463,0.0278
985,0.0053,0.0400,0.0356,0.0292
986,0.0025,0.0289,0.0277,0.0059
987,0.0016,0.0173,0.0159,0.0040
988,0.0016,0.0173,0.0159,0.0040
989,0.0016,0.0173,0.0159,0.0040
990,0.0015,0.0176,0.0163,0.0040
991,0.0016,0.0173,0.0159,0.0040
992,0.0016,0.0173,0.0159,0.0040
993,0.0016,0.0173,0.0159,0.0040
994,0.0016,0.0173,0.0159,0.0040
995,0.0016,0.0173,0.0159,0.0040
996,0.0016,0.0173,0.0159,0.0040
997,0.0016,0.0173,0.0159,0.0040
998,0.0032,0.0272,0.0266,0.0057
999,0.0016,0.0173,0.0159,0.0040
1000,0.0016,0.0173,0.0159,0.0040
1001,0.0015,0.0176,0.0163,0.0040
1002,0.0016,0.0173,0.0159,0.0040
1003,0.0016,0.0173,0.0159,0.0040
1004,0.0016,0.0173,0.0159,0.0040
1005,0.0016,0.0173,0.0159,0.0040
1006,0.0016,0.0173,0.0159,0.0040
1007,0.0016,0.0173,0.0159,0.0040
1008,0.0016,0.0173,0.0159,0.0040
1009,0.0016,0.0173,0.0159,0.0040
1010,0.0043,0.0247,0.0215,0.0058
1011,0.0016,0.0173,0.0159,0.0040
1012,0.0015,0.0176,0.0163,0.0040
1013,0.0016,0.0173,0.0159,0.0040
1014,0.0016,0.0173,0.0159,0.0040
1015,0.0016,0.0173,0.0159,0.0040
1016,0.0016,0.0173,0.0159,0.0040
1017,0.0016,0.0173,0.0159,0.0040
1018,0.0016,0.0173,0.0159,0.0040
1019,0.0016,0.0173,0.0159,0.0040
1020,0.0016,0.0173,0.0159,0.0040
1021,0.0016,0.0173,0.0159,0.0040
1022,0.0048,0.0209,0.0158,0.0061
1023,0.0015,0.0176,0.0163,0.0040
1024,0.0016,0.0173,0.0159,0.0040
1025,0.0016,0.0173,0.0159,0.0040
1026,0.0016,0.0173,0.0159,0.0040
1027,0.0016,0.0173,0.0159,0.0040
1028,0.0016,0.0173,0.0159,0.0040
1029,0.0050,0.0201,0.0314,0.0131
1030,0.0058,0.0207,0.0303,0.0102
1031,0.0062,0.0206,0.0291,0.0078
1032,0.0064,0.0203,0.0272,0.0061
1033,0.0043,0.0247,0.0215,0.0058
1034,0.0039,0.0242,0.0211,0.0061
1035,0.0049,0.0229,0.0170,0.0064
1036,0.0055,0.0204,0.0247,0.0042
1037,0.0047,0.0193,0.0230,0.0039
1038,0.0038,0.0199,0.0226,0.0038
1039,0.0028,0.0209,0.0232,0.0038
1040,0.0019,0.0195,0.0204,0.0038
1041,0.0023,0.0167,0.0141,0.0046
1042,0.0030,0.0173,0.0141,0.0057
1043,0.0027,0.0250,0.0230,0.0061
1044,0.0025,0.0289,0.0277,0.0059
1045,0.0015,0.0176,0.0163,0.0040
1046,0.0032,0.0272,0.0266,0.0057
1047,0.0052,0.0219,0.0169,0.0064
1048,0.0043,0.0247,0.0215,0.0058
1049,0.0048,0.0209,0.0158,0.0061
1050,0.0049,0.0229,0.0170,0.0064
1051,0.0052,0.0219,0.0169,0.0064
1052,0.0069,0.0245,0.0179,0.0062
1053,0.0045,0.0402,0.0403,0.0264
1054,0.0035,0.0319,0.0293,0.0211
1055,0.0034,0.0296,0.0273,0.0171
1056,0.0027,0.0231,0.0211,0.0062
1057,0.0015,0.0176,0.0163,0.0040
1058,0.0016,0.0163,0.0160,0.0039
1059,0.0016,0.0163,0.0160,0.0039
1060,0.0016,0.0163,0.0160,0.0039
1061,0.0022,0.0148,0.0131,0.0045
1062,0.0022,0.0148,0.0131,0.0045
1063,0.0030,0.0178,0.0165,0.0055
1064,0.0027,0.0253,0.0251,0.0058
1065,0.0024,0.0285,0.0285,0.0055
1066,0.0031,0.0280,0.0296,0.0051
1067,0.0042,0.0223,0.0211,0.0053
1068,0.0015,0.0176,0.0163,0.0040
1069,0.0048,0.0194,0.0164,0.0057
1070,0.0048,0.0204,0.0165,0.0061
1071,0.0050,0.0195,0.0160,0.0062
1072,0.0066,0.0230,0.0175,0.0060
1073,0.0030,0.0178,0.0165,0.0055
1074,0.0040,0.0384,0.0408,0.0225
1075,0.0032,0.0282,0.0270,0.0175
1076,0.0033,0.0262,0.0246,0.0145
1077,0.0032,0.0252,0.0239,0.0127
1078,0.0030,0.0295,0.0275,0.0132
1079,0.0015,0.0176,0.0163,0.0040
1080,0.0029,0.0303,0.0285,0.0131
1081,0.0027,0.0225,0.0217,0.0100
1082,0.0026,0.0172,0.0159,0.0072
1083,0.0026,0.0189,0.0182,0.0059
1084,0.0019,0.0189,0.0190,0.0050
1085,0.0027,0.0253,0.0251,0.0058
1086,0.0018,0.0182,0.0199,0.0034
1087,0.0023,0.0239,0.0284,0.0039
1088,0.0022,0.0268,0.0303,0.0048
1089,0.0023,0.0250,0.0265,0.0064
1090,0.0015,0.0176,0.0163,0.0040
1091,0.0031,0.0217,0.0224,0.0078
1092,0.0032,0.0230,0.0243,0.0107
1093,0.0028,0.0322,0.0349,0.0158
1094,0.0027,0.0404,0.0431,0.0197
1095,0.0034,0.0420,0.0429,0.0216
1096,0.0056,0.0336,0.0314,0.0235
1097,0.0024,0.0285,0.0285,0.0055
1098,0.0016,0.0163,0.0160,0.0039
1099,0.0016,0.0163,0.0160,0.0039
1100,0.0016,0.0163,0.0160,0.0039
1101,0.0015,0.0176,0.0163,0.0040
1102,0.0016,0.0163,0.0160,0.0039
1103,0.0016,0.0163,0.0160,0.0039
1104,0.0016,0.0163,0.0160,0.0039
1105,0.0016,0.0163,0.0160,0.0039
1106,0.0016,0.0163,0.0160,0.0039
1107,0.0016,0.0163,0.0160,0.0039
1108,0.0016,0.0163,0.0160,0.0039
1109,0.0031,0.0280,0.0296,0.0051
1110,0.0016,0.0163,0.0160,0.0039
1111,0.0016,0.0163,0.0160,0.0039
1112,0.0015,0.0176,0.0163,0.0040
1113,0.0016,0.0163,0.0160,0.0039
1114,0.0016,0.0163,0.0160,0.0039
1115,0.0016,0.0163,0.0160,0.0039
1116,0.0016,0.0163,0.0160,0.0039
1117,0.0016,0.0163,0.0160,0.0039
1118,0.0016,0.0163,0.0160,0.0039
1119,0.0016,0.0163,0.0160,0.0039
1120,0.0016,0.0163,0.0160,0.0039
1121,0.0042,0.0223,0.0211,0.0053
1122,0.0016,0.0163,0.0160,0.0039
1123,0.0015,0.0176,0.0163,0.0040
1124,0.0016,0.0163,0.0160,0.0039
1125,0.0016,0.0163,0.0160,0.0039
1126,0.0016,0.0163,0.0160,0.0039
1127,0.0016,0.0163,0.0160,0.0039
1128,0.0016,0.0163,0.0160,0.0039
1129,0.0016,0.0163,0.0160,0.0039
1130,0.0016,0.0163,0.0160,0.0039
1131,0.0016,0.0163,0.0160,0.0039
1132,0.0016,0.0163,0.0160,0.0039
1133,0.0048,0.0194,0.0164,0.0057
1134,0.0015,0.0176,0.0163,0.0040
1135,0.0016,0.0163,0.0160,0.0039
1136,0.0016,0.0163,0.0160,0.0039
1137,0.0016,0.0163,0.0160,0.0039
1138,0.0016,0.0163,0.0160,0.0039
1139,0.0016,0.0163,0.0160,0.0039
1140,0.0048,0.0179,0.0241,0.0114
1141,0.0054,0.0186,0.0237,0.0085
1142,0.0059,0.0180,0.0226,0.0064
1143,0.0062,0.0180,0.0215,0.0051
1144,0.0042,0.0223,0.0211,0.0053
1145,0.0015,0.0176,0.0163,0.0040
1146,0.0048,0.0204,0.0165,0.0061
1147,0.0052,0.0183,0.0209,0.0040
1148,0.0044,0.0176,0.0203,0.0040
1149,0.0036,0.0196,0.0219,0.0040
1150,0.0027,0.0198,0.0221,0.0039
1151,0.0019,0.0179,0.0192,0.0039
1152,0.0022,0.0148,0.0131,0.0045
1153,0.0030,0.0178,0.0165,0.0055
1154,0.0027,0.0253,0.0251,0.0058
1155,0.0024,0.0285,0.0285,0.0055
1156,0.0043,0.0219,0.0168,0.0065
1157,0.0031,0.0280,0.0296,0.0051
1158,0.0050,0.0195,0.0160,0.0062
1159,0.0042,0.0223,0.0211,0.0053
1160,0.0048,0.0194,0.0164,0.0057
1161,0.0048,0.0204,0.0165,0.0061
1162,0.0050,0.0195,0.0160,0.0062
1163,0.0066,0.0230,0.0175,0.0060
1164,0.0040,0.0384,0.0408,0.0225
1165,0.0032,0.0282,0.0270,0.0175
1166,0.0033,0.0262,0.0246,0.0145
1167,0.0025,0.0270,0.0258,0.0061
1168,0.0015,0.0176,0.0163,0.0040
1169,0.0017,0.0146,0.0161,0.0038
1170,0.0017,0.0146,0.0161,0.0038
1171,0.0017,0.0146,0.0161,0.0038
1172,0.0023,0.0125,0.0126,0.0042
1173,0.0023,0.0125,0.0126,0.0042
1174,0.0033,0.0151,0.0154,0.0052
1175,0.0030,0.0210,0.0223,0.0053
1176,0.0024,0.0270,0.0312,0.0047
1177,0.0029,0.0222,0.0265,0.0042
1178,0.0041,0.0172,0.0189,0.0042
1179,0.0015,0.0176,0.0163,0.0040
1180,0.0047,0.0141,0.0145,0.0047
1181,0.0048,0.0138,0.0126,0.0054
1182,0.0049,0.0156,0.0150,0.0059
1183,0.0061,0.0210,0.0169,0.0057
1184,0.0033,0.0151,0.0154,0.0052
1185,0.0032,0.0419,0.0451,0.0224
1186,0.0033,0.0265,0.0269,0.0153
1187,0.0038,0.0227,0.0221,0.0126
1188,0.0037,0.0237,0.0232,0.0120
1189,0.0032,0.0244,0.0251,0.0116
1190,0.0015,0.0176,0.0163,0.0040
1191,0.0027,0.0242,0.0258,0.0110
1192,0.0025,0.0165,0.0186,0.0081
1193,0.0025,0.0124,0.0124,0.0056
1194,0.0026,0.0162,0.0162,0.0049
1195,0.0020,0.0163,0.0174,0.0045
1196,0.0030,0.0210,0.0223,0.0053
1197,0.0021,0.0165,0.0199,0.0035
1198,0.0026,0.0236,0.0293,0.0039
1199,0.0023,0.0263,0.0308,0.0050
1200,0.0023,0.0222,0.0249,0.0066
1201,0.0015,0.0176,0.0163,0.0040
1202,0.0029,0.0178,0.0199,0.0073
1203,0.0031,0.0169,0.0191,0.0075
1204,0.0028,0.0221,0.0262,0.0088
1205,0.0029,0.0288,0.0337,0.0106
1206,0.0037,0.0282,0.0328,0.0127
1207,0.0062,0.0223,0.0240,0.0198
1208,0.0024,0.0270,0.0312,0.0047
1209,0.0017,0.0146,0.0161,0.0038
1210,0.0017,0.0146,0.0161,0.0038
1211,0.0017,0.0146,0.0161,0.0038
1212,0.0015,0.0176,0.0163,0.0040
1213,0.0017,0.0146,0.0161,0.0038
1214,0.0017,0.0146,0.0161,0.0038
1215,0.0017,0.0146,0.0161,0.0038
1216,0.0017,0.0146,0.0161,0.0038
1217,0.0017,0.0146,0.0161,0.0038
1218,0.0017,0.0146,0.0161,0.0038
1219,0.0017,0.0146,0.0161,0.0038
1220,0.0029,0.0222,0.0265,0.0042
1221,0.0017,0.0146,0.0161,0.0038
1222,0.0017,0.0146,0.0161,0.0038
1223,0.0043,0.0200,0.0296,0.0147
1224,0.0017,0.0146,0.0161,0.0038
1225,0.0017,0.0146,0.0161,0.0038
1226,0.0017,0.0146,0.0161,0.0038
1227,0.0017,0.0146,0.0161,0.0038
1228,0.0017,0.0146,0.0161,0.0038
1229,0.0017,0.0146,0.0161,0.0038
1230,0.0017,0.0146,0.0161,0.0038
1231,0.0017,0.0146,0.0161,0.0038
1232,0.0041,0.0172,0.0189,0.0042
1233,0.0017,0.0146,0.0161,0.0038
1234,0.0043,0.0207,0.0291,0.0114
1235,0.0017,0.0146,0.0161,0.0038
1236,0.0017,0.0146,0.0161,0.0038
1237,0.0017,0.0146,0.0161,0.0038
1238,0.0017,0.0146,0.0161,0.0038
1239,0.0017,0.0146,0.0161,0.0038
1240,0.0017,0.0146,0.0161,0.0038
1241,0.0017,0.0146,0.0161,0.0038
1242,0.0017,0.0146,0.0161,0.0038
1243,0.0017,0.0146,0.0161,0.0038
1244,0.0047,0.0141,0.0145,0.0047
1245,0.0046,0.0208,0.0284,0.0087
1246,0.0017,0.0146,0.0161,0.0038
1247,0.0017,0.0146,0.0161,0.0038
1248,0.0017,0.0146,0.0161,0.0038
1249,0.0017,0.0146,0.0161,0.0038
1250,0.0017,0.0146,0.0161,0.0038
1251,0.0045,0.0138,0.0147,0.0082
1252,0.0051,0.0137,0.0141,0.0058
1253,0.0056,0.0134,0.0141,0.0044
1254,0.0057,0.0140,0.0139,0.0042
1255,0.0041,0.0172,0.0189,0.0042
1256,0.0050,0.0209,0.0272,0.0067
1257,0.0048,0.0138,0.0126,0.0054
1258,0.0049,0.0136,0.0140,0.0045
1259,0.0041,0.0147,0.0158,0.0046
1260,0.0033,0.0156,0.0172,0.0045
1261,0.0027,0.0176,0.0199,0.0043
1262,0.0021,0.0162,0.0185,0.0040
1263,0.0023,0.0125,0.0126,0.0042
1264,0.0033,0.0151,0.0154,0.0052
1265,0.0030,0.0210,0.0223,0.0053
1266,0.0024,0.0270,0.0312,0.0047
1267,0.0039,0.0242,0.0211,0.0061
1268,0.0029,0.0222,0.0265,0.0042
1269,0.0049,0.0156,0.0150,0.0059
1270,0.0041,0.0172,0.0189,0.0042
1271,0.0047,0.0141,0.0145,0.0047
1272,0.0048,0.0138,0.0126,0.0054
1273,0.0049,0.0156,0.0150,0.0059
1274,0.0061,0.0210,0.0169,0.0057
1275,0.0032,0.0419,0.0451,0.0224
1276,0.0033,0.0265,0.0269,0.0153
1277,0.0038,0.0227,0.0221,0.0126
1278,0.0030,0.0263,0.0257,0.0059
1279,0.0044,0.0240,0.0180,0.0068
1280,0.0021,0.0119,0.0138,0.0037
1281,0.0021,0.0119,0.0138,0.0037
1282,0.0021,0.0119,0.0138,0.0037
1283,0.0028,0.0109,0.0118,0.0041
1284,0.0028,0.0109,0.0118,0.0041
1285,0.0038,0.0123,0.0131,0.0050
1286,0.0032,0.0150,0.0172,0.0050
1287,0.0025,0.0196,0.0250,0.0044
1288,0.0028,0.0169,0.0228,0.0038
1289,0.0041,0.0118,0.0148,0.0037
1290,0.0046,0.0213,0.0255,0.0043
1291,0.0048,0.0107,0.0115,0.0041
1292,0.0049,0.0115,0.0116,0.0049
1293,0.0048,0.0137,0.0139,0.0056
1294,0.0058,0.0183,0.0154,0.0056
1295,0.0038,0.0123,0.0131,0.0050
1296,0.0030,0.0518,0.0529,0.0290
1297,0.0036,0.0316,0.0318,0.0198
1298,0.0043,0.0260,0.0257,0.0159
1299,0.0041,0.0276,0.0280,0.0150
1300,0.0037,0.0273,0.0296,0.0134
1301,0.0041,0.0202,0.0242,0.0039
1302,0.0032,0.0232,0.0272,0.0112
1303,0.0028,0.0154,0.0197,0.0080
1304,0.0028,0.0103,0.0124,0.0054
1305,0.0029,0.0118,0.0118,0.0046
1306,0.0024,0.0138,0.0153,0.0042
1307,0.0032,0.0150,0.0172,0.0050
1308,0.0024,0.0153,0.0199,0.0036
1309,0.0028,0.0215,0.0278,0.0043
1310,0.0024,0.0246,0.0299,0.0061
1311,0.0023,0.0201,0.0233,0.0087
1312,0.0033,0.0207,0.0238,0.0037
1313,0.0029,0.0148,0.0171,0.0102
1314,0.0030,0.0133,0.0148,0.0101
1315,0.0030,0.0144,0.0175,0.0102
1316,0.0031,0.0183,0.0237,0.0115
1317,0.0042,0.0196,0.0254,0.0159
1318,0.0068,0.0214,0.0222,0.0267
1319,0.0025,0.0196,0.0250,0.0044
1320,0.0021,0.0119,0.0138,0.0037
1321,0.0021,0.0119,0.0138,0.0037
1322,0.0021,0.0119,0.0138,0.0037
1323,0.0025,0.0218,0.0247,0.0037
1324,0.0021,0.0119,0.0138,0.0037
1325,0.0021,0.0119,0.0138,0.0037
1326,0.0021,0.0119,0.0138,0.0037
1327,0.0021,0.0119,0.0138,0.0037
1328,0.0021,0.0119,0.0138,0.0037
1329,0.0021,0.0119,0.0138,0.0037
1330,0.0021,0.0119,0.0138,0.0037
1331,0.0028,0.0169,0.0228,0.0038
1332,0.0021,0.0119,0.0138,0.0037
1333,0.0021,0.0119,0.0138,0.0037
1334,0.0018,0.0199,0.0213,0.0037
1335,0.0021,0.0119,0.0138,0.0037
1336,0.0021,0.0119,0.0138,0.0037
1337,0.0021,0.0119,0.0138,0.0037
1338,0.0021,0.0119,0.0138,0.0037
1339,0.0021,0.0119,0.0138,0.0037
1340,0.0021,0.0119,0.0138,0.0037
1341,0.0021,0.0119,0.0138,0.0037
1342,0.0021,0.0119,0.0138,0.0037
1343,0.0041,0.0118,0.0148,0.0037
1344,0.0021,0.0119,0.0138,0.0037
1345,0.0023,0.0171,0.0144,0.0046
1346,0.0021,0.0119,0.0138,0.0037
1347,0.0021,0.0119,0.0138,0.0037
1348,0.0021,0.0119,0.0138,0.0037
1349,0.0021,0.0119,0.0138,0.0037
1350,0.0021,0.0119,0.0138,0.0037
1351,0.0021,0.0119,0.0138,0.0037
1352,0.0021,0.0119,0.0138,0.0037
1353,0.0021,0.0119,0.0138,0.0037
1354,0.0021,0.0119,0.0138,0.0037
1355,0.0048,0.0107,0.0115,0.0041
1356,0.0030,0.0165,0.0135,0.0058
1357,0.0021,0.0119,0.0138,0.0037
1358,0.0021,0.0119,0.0138,0.0037
1359,0.0021,0.0119,0.0138,0.0037
1360,0.0021,0.0119,0.0138,0.0037
1361,0.0021,0.0119,0.0138,0.0037
1362,0.0044,0.0134,0.0208,0.0062
1363,0.0048,0.0120,0.0180,0.0044
1364,0.0053,0.0109,0.0173,0.0041
1365,0.0053,0.0106,0.0146,0.0048
1366,0.0041,0.0118,0.0148,0.0037
1367,0.0027,0.0231,0.0211,0.0062
1368,0.0049,0.0115,0.0116,0.0049
1369,0.0045,0.0106,0.0130,0.0053
1370,0.0040,0.0116,0.0140,0.0052
1371,0.0034,0.0122,0.0144,0.0048
1372,0.0027,0.0137,0.0162,0.0043
1373,0.0022,0.0133,0.0158,0.0039
1374,0.0028,0.0109,0.0118,0.0041
1375,0.0038,0.0123,0.0131,0.0050
1376,0.0032,0.0150,0.0172,0.0050
1377,0.0025,0.0196,0.0250,0.0044
1378,0.0025,0.0270,0.0258,0.0061
1379,0.0028,0.0169,0.0228,0.0038
1380,0.0048,0.0137,0.0139,0.0056
1381,0.0041,0.0118,0.0148,0.0037
1382,0.0048,0.0107,0.0115,0.0041
1383,0.0049,0.0115,0.0116,0.0049
1384,0.0048,0.0137,0.0139,0.0056
1385,0.0058,0.0183,0.0154,0.0056
1386,0.0030,0.0518,0.0529,0.0290
1387,0.0036,0.0316,0.0318,0.0198
1388,0.0043,0.0260,0.0257,0.0159
1389,0.0039,0.0242,0.0211,0.0061
1390,0.0030,0.0263,0.0257,0.0059
1391,0.0022,0.0111,0.0130,0.0036
1392,0.0022,0.0111,0.0130,0.0036
1393,0.0022,0.0111,0.0130,0.0036
1394,0.0031,0.0111,0.0124,0.0041
1395,0.0031,0.0111,0.0124,0.0041
1396,0.0040,0.0099,0.0109,0.0050
1397,0.0033,0.0115,0.0139,0.0050
1398,0.0025,0.0155,0.0206,0.0043
1399,0.0028,0.0156,0.0220,0.0037
1400,0.0042,0.0103,0.0120,0.0036
1401,0.0046,0.0240,0.0190,0.0069
1402,0.0048,0.0106,0.0112,0.0039
1403,0.0049,0.0112,0.0112,0.0047
1404,0.0049,0.0131,0.0132,0.0055
1405,0.0057,0.0183,0.0154,0.0056
1406,0.0040,0.0099,0.0109,0.0050
1407,0.0030,0.0570,0.0572,0.0327
1408,0.0037,0.0365,0.0365,0.0232
1409,0.0044,0.0308,0.0301,0.0186
1410,0.0043,0.0309,0.0319,0.0171
1411,0.0040,0.0302,0.0331,0.0148
1412,0.0039,0.0242,0.0211,0.0061
1413,0.0035,0.0235,0.0280,0.0115
1414,0.0032,0.0163,0.0213,0.0083
1415,0.0031,0.0102,0.0133,0.0056
1416,0.0032,0.0115,0.0117,0.0046
1417,0.0026,0.0113,0.0125,0.0041
1418,0.0033,0.0115,0.0139,0.0050
1419,0.0024,0.0135,0.0177,0.0036
1420,0.0028,0.0215,0.0280,0.0046
1421,0.0024,0.0239,0.0291,0.0068
1422,0.0023,0.0194,0.0230,0.0100
1423,0.0043,0.0219,0.0168,0.0065
1424,0.0028,0.0148,0.0172,0.0118
1425,0.0030,0.0143,0.0153,0.0123
1426,0.0030,0.0142,0.0159,0.0129
1427,0.0031,0.0157,0.0204,0.0144
1428,0.0043,0.0175,0.0234,0.0194
1429,0.0071,0.0249,0.0239,0.0311
1430,0.0025,0.0155,0.0206,0.0043
1431,0.0022,0.0111,0.0130,0.0036
1432,0.0022,0.0111,0.0130,0.0036
1433,0.0022,0.0111,0.0130,0.0036
1434,0.0044,0.0240,0.0180,0.0068
1435,0.0022,0.0111,0.0130,0.0036
1436,0.0022,0.0111,0.0130,0.0036
1437,0.0022,0.0111,0.0130,0.0036
1438,0.0022,0.0111,0.0130,0.0036
1439,0.0022,0.0111,0.0130,0.0036
1440,0.0022,0.0111,0.0130,0.0036
1441,0.0022,0.0111,0.0130,0.0036
1442,0.0028,0.0156,0.0220,0.0037
1443,0.0022,0.0111,0.0130,0.0036
1444,0.0022,0.0111,0.0130,0.0036
1445,0.0046,0.0240,0.0190,0.0069
1446,0.0022,0.0111,0.0130,0.0036
1447,0.0022,0.0111,0.0130,0.0036
1448,0.0022,0.0111,0.0130,0.0036
1449,0.0022,0.0111,0.0130,0.0036
1450,0.0022,0.0111,0.0130,0.0036
1451,0.0022,0.0111,0.0130,0.0036
1452,0.0022,0.0111,0.0130,0.0036
1453,0.0022,0.0111,0.0130,0.0036
1454,0.0042,0.0103,0.0120,0.0036
1455,0.0022,0.0111,0.0130,0.0036
1456,0.0059,0.0251,0.0193,0.0066
1457,0.0022,0.0111,0.0130,0.0036
1458,0.0022,0.0111,0.0130,0.0036
1459,0.0022,0.0111,0.0130,0.0036
1460,0.0022,0.0111,0.0130,0.0036
1461,0.0022,0.0111,0.0130,0.0036
1462,0.0022,0.0111,0.0130,0.0036
1463,0.0022,0.0111,0.0130,0.0036
1464,0.0022,0.0111,0.0130,0.0036
1465,0.0022,0.0111,0.0130,0.0036
1466,0.0048,0.0106,0.0112,0.0039
1467,0.0043,0.0377,0.0371,0.0257
1468,0.0022,0.0111,0.0130,0.0036
1469,0.0022,0.0111,0.0130,0.0036
1470,0.0022,0.0111,0.0130,0.0036
1471,0.0022,0.0111,0.0130,0.0036
1472,0.0022,0.0111,0.0130,0.0036
1473,0.0044,0.0142,0.0254,0.0055
1474,0.0048,0.0128,0.0234,0.0042
1475,0.0052,0.0113,0.0217,0.0043
1476,0.0052,0.0104,0.0190,0.0051
1477,0.0042,0.0103,0.0120,0.0036
1478,0.0035,0.0314,0.0280,0.0213
1479,0.0049,0.0112,0.0112,0.0047
1480,0.0045,0.0100,0.0151,0.0056
1481,0.0040,0.0114,0.0141,0.0055
1482,0.0034,0.0125,0.0144,0.0050
1483,0.0028,0.0139,0.0165,0.0044
1484,0.0024,0.0128,0.0153,0.0038
1485,0.0031,0.0111,0.0124,0.0041
1486,0.0040,0.0099,0.0109,0.0050
1487,0.0033,0.0115,0.0139,0.0050
1488,0.0025,0.0155,0.0206,0.0043
1489,0.0035,0.0293,0.0268,0.0174
1490,0.0028,0.0156,0.0220,0.0037
1491,0.0049,0.0131,0.0132,0.0055
1492,0.0042,0.0103,0.0120,0.0036
1493,0.0048,0.0106,0.0112,0.0039
1494,0.0049,0.0112,0.0112,0.0047
1495,0.0049,0.0131,0.0132,0.0055
1496,0.0057,0.0183,0.0154,0.0056
1497,0.0030,0.0570,0.0572,0.0327
1498,0.0037,0.0365,0.0365,0.0232
1499,0.0044,0.0308,0.0301,0.0186
1500,0.0036,0.0206,0.0182,0.0046
1501,0.0036,0.0206,0.0182,0.0046
1502,0.0066,0.0280,0.0218,0.0081
1503,0.0075,0.0268,0.0370,0.0410
1504,0.0024,0.0107,0.0114,0.0035
1505,0.0022,0.0143,0.0157,0.0037
1506,0.0024,0.0107,0.0114,0.0035
1507,0.0045,0.0105,0.0109,0.0036
1508,0.0026,0.0091,0.0099,0.0035
1509,0.0024,0.0107,0.0114,0.0035
1510,0.0024,0.0107,0.0114,0.0035
1511,0.0022,0.0143,0.0157,0.0037
1512,0.0024,0.0107,0.0114,0.0035
1513,0.0026,0.0091,0.0099,0.0035
1514,0.0062,0.0266,0.0362,0.0343
1515,0.0022,0.0143,0.0157,0.0037
1516,0.0024,0.0107,0.0114,0.0035
1517,0.0024,0.0107,0.0114,0.0035
1518,0.0022,0.0143,0.0157,0.0037
1519,0.0051,0.0119,0.0105,0.0037
1520,0.0024,0.0107,0.0114,0.0035
1521,0.0022,0.0143,0.0157,0.0037
1522,0.0024,0.0107,0.0114,0.0035
1523,0.0024,0.0107,0.0114,0.0035
1524,0.0026,0.0091,0.0099,0.0035
1525,0.0048,0.0268,0.0360,0.0294
1526,0.0040,0.0144,0.0242,0.0062
1527,0.0042,0.0128,0.0221,0.0048
1528,0.0046,0.0136,0.0200,0.0046
1529,0.0048,0.0113,0.0172,0.0052
1530,0.0043,0.0116,0.0107,0.0036
1531,0.0056,0.0140,0.0139,0.0053
1532,0.0046,0.0102,0.0123,0.0055
1533,0.0042,0.0106,0.0103,0.0053
1534,0.0037,0.0153,0.0175,0.0046
1535,0.0031,0.0103,0.0108,0.0043
1536,0.0047,0.0273,0.0367,0.0264
1537,0.0025,0.0124,0.0143,0.0036
1538,0.0031,0.0138,0.0144,0.0046
1539,0.0042,0.0105,0.0105,0.0054
1540,0.0035,0.0128,0.0136,0.0055
1541,0.0028,0.0166,0.0192,0.0043
1542,0.0032,0.0141,0.0186,0.0038
1543,0.0052,0.0118,0.0114,0.0057
1544,0.0047,0.0138,0.0153,0.0039
1545,0.0052,0.0110,0.0104,0.0038
1546,0.0052,0.0112,0.0104,0.0042
1547,0.0068,0.0283,0.0384,0.0265
1548,0.0053,0.0153,0.0150,0.0065
1549,0.0056,0.0154,0.0135,0.0062
1550,0.0047,0.0534,0.0539,0.0297
1551,0.0048,0.0270,0.0273,0.0161
1552,0.0051,0.0344,0.0351,0.0203
1553,0.0066,0.0210,0.0366,0.0314
1554,0.0072,0.0203,0.0344,0.0329
1555,0.0057,0.0228,0.0364,0.0362
1556,0.0035,0.0238,0.0344,0.0329
1557,0.0035,0.0259,0.0337,0.0287
1558,0.0036,0.0200,0.0189,0.0044
1559,0.0017,0.0162,0.0132,0.0039
1560,0.0017,0.0162,0.0132,0.0039
1561,0.0015,0.0176,0.0164,0.0040
1562,0.0025,0.0165,0.0125,0.0045
1563,0.0027,0.0179,0.0140,0.0045
1564,0.0031,0.0165,0.0133,0.0058
1565,0.0028,0.0232,0.0206,0.0059
1566,0.0025,0.0266,0.0247,0.0056
1567,0.0030,0.0266,0.0260,0.0059
1568,0.0035,0.0261,0.0216,0.0054
1569,0.0036,0.0200,0.0189,0.0044
1570,0.0041,0.0218,0.0156,0.0059
1571,0.0044,0.0240,0.0180,0.0068
1572,0.0045,0.0233,0.0176,0.0063
1573,0.0059,0.0252,0.0178,0.0064
1574,0.0034,0.0177,0.0141,0.0053
1575,0.0044,0.0445,0.0452,0.0285
1576,0.0035,0.0360,0.0340,0.0228
1577,0.0035,0.0290,0.0265,0.0173
1578,0.0035,0.0330,0.0309,0.0170
1579,0.0038,0.0444,0.0418,0.0213
1580,0.0036,0.0200,0.0189,0.0044
1581,0.0034,0.0337,0.0296,0.0149
1582,0.0034,0.0333,0.0303,0.0147
1583,0.0032,0.0241,0.0211,0.0103
1584,0.0027,0.0208,0.0201,0.0068
1585,0.0025,0.0186,0.0165,0.0052
1586,0.0028,0.0232,0.0206,0.0059
1587,0.0017,0.0205,0.0216,0.0034
1588,0.0024,0.0235,0.0265,0.0041
1589,0.0024,0.0267,0.0294,0.0056
1590,0.0022,0.0235,0.0232,0.0089
1591,0.0041,0.0169,0.0136,0.0062
1592,0.0026,0.0237,0.0227,0.0099
1593,0.0026,0.0266,0.0264,0.0135
1594,0.0023,0.0389,0.0412,0.0206
1595,0.0020,0.0441,0.0447,0.0245
1596,0.0027,0.0451,0.0421,0.0279
1597,0.0047,0.0417,0.0375,0.0298
1598,0.0025,0.0266,0.0247,0.0056
1599,0.0017,0.0162,0.0132,0.0039
1600,0.0015,0.0176,0.0164,0.0040
1601,0.0020,0.0167,0.0134,0.0040
1602,0.0041,0.0164,0.0130,0.0057
1603,0.0017,0.0162,0.0132,0.0039
1604,0.0015,0.0176,0.0164,0.0040
1605,0.0017,0.0162,0.0132,0.0039
1606,0.0017,0.0162,0.0132,0.0039
1607,0.0020,0.0167,0.0134,0.0040
1608,0.0017,0.0162,0.0132,0.0039
1609,0.0017,0.0162,0.0132,0.0039
1610,0.0030,0.0266,0.0260,0.0059
1611,0.0017,0.0162,0.0132,0.0039
1612,0.0020,0.0167,0.0134,0.0040
1613,0.0069,0.0298,0.0219,0.0086
1614,0.0047,0.0197,0.0168,0.0079
1615,0.0015,0.0176,0.0164,0.0040
1616,0.0017,0.0162,0.0132,0.0039
1617,0.0017,0.0162,0.0132,0.0039
1618,0.0015,0.0176,0.0164,0.0040
1619,0.0020,0.0167,0.0134,0.0040
1620,0.0017,0.0162,0.0132,0.0039
1621,0.0015,0.0176,0.0164,0.0040
1622,0.0017,0.0162,0.0132,0.0039
1623,0.0037,0.0240,0.0200,0.0056
1624,0.0020,0.0167,0.0134,0.0040
1625,0.0043,0.0262,0.0242,0.0082
1626,0.0017,0.0162,0.0132,0.0039
1627,0.0017,0.0162,0.0132,0.0039
1628,0.0015,0.0176,0.0164,0.0040
1629,0.0017,0.0162,0.0132,0.0039
1630,0.0020,0.0167,0.0134,0.0040
1631,0.0015,0.0176,0.0164,0.0040
1632,0.0017,0.0162,0.0132,0.0039
1633,0.0017,0.0162,0.0132,0.0039
1634,0.0015,0.0176,0.0164,0.0040
1635,0.0040,0.0235,0.0174,0.0056
1636,0.0040,0.0306,0.0294,0.0074
1637,0.0017,0.0162,0.0132,0.0039
1638,0.0015,0.0176,0.0164,0.0040
1639,0.0017,0.0162,0.0132,0.0039
1640,0.0017,0.0162,0.0132,0.0039
1641,0.0020,0.0167,0.0134,0.0040
1642,0.0044,0.0181,0.0271,0.0153
1643,0.0042,0.0188,0.0269,0.0120
1644,0.0046,0.0209,0.0285,0.0087
1645,0.0049,0.0188,0.0247,0.0071
1646,0.0035,0.0261,0.0216,0.0054
1647,0.0047,0.0300,0.0300,0.0068
1648,0.0044,0.0240,0.0180,0.0068
1649,0.0047,0.0192,0.0222,0.0046
1650,0.0042,0.0180,0.0202,0.0042
1651,0.0033,0.0207,0.0239,0.0037
1652,0.0028,0.0181,0.0182,0.0038
1653,0.0019,0.0184,0.0184,0.0037
1654,0.0023,0.0169,0.0142,0.0046
1655,0.0032,0.0165,0.0125,0.0054
1656,0.0028,0.0232,0.0206,0.0059
1657,0.0025,0.0284,0.0261,0.0054
1658,0.0056,0.0258,0.0230,0.0063
1659,0.0028,0.0245,0.0220,0.0055
1660,0.0045,0.0233,0.0176,0.0063
1661,0.0039,0.0241,0.0209,0.0061
1662,0.0041,0.0218,0.0156,0.0059
1663,0.0041,0.0251,0.0188,0.0057
1664,0.0046,0.0242,0.0191,0.0069
1665,0.0059,0.0252,0.0178,0.0064
1666,0.0044,0.0445,0.0452,0.0285
1667,0.0035,0.0315,0.0282,0.0213
1668,0.0036,0.0390,0.0377,0.0219
1669,0.0065,0.0251,0.0207,0.0074
1670,0.0077,0.0308,0.0469,0.0459
1671,0.0061,0.0285,0.0419,0.0383
1672,0.0043,0.0268,0.0373,0.0316
1673,0.0043,0.0261,0.0349,0.0266
1674,0.0071,0.0266,0.0345,0.0235
1675,0.0017,0.0149,0.0133,0.0038
1676,0.0017,0.0149,0.0133,0.0038
1677,0.0015,0.0167,0.0168,0.0039
1678,0.0024,0.0135,0.0105,0.0043
1679,0.0028,0.0144,0.0116,0.0043
1680,0.0069,0.0272,0.0211,0.0080
1681,0.0030,0.0167,0.0156,0.0056
1682,0.0030,0.0239,0.0234,0.0056
1683,0.0025,0.0260,0.0253,0.0052
1684,0.0029,0.0269,0.0287,0.0053
1685,0.0034,0.0236,0.0211,0.0049
1686,0.0040,0.0201,0.0164,0.0054
1687,0.0043,0.0218,0.0179,0.0065
1688,0.0044,0.0205,0.0164,0.0060
1689,0.0056,0.0232,0.0169,0.0061
1690,0.0035,0.0170,0.0156,0.0050
1691,0.0069,0.0267,0.0202,0.0086
1692,0.0038,0.0430,0.0453,0.0257
1693,0.0033,0.0326,0.0316,0.0199
1694,0.0035,0.0252,0.0234,0.0144
1695,0.0035,0.0285,0.0272,0.0151
1696,0.0035,0.0395,0.0381,0.0198
1697,0.0030,0.0289,0.0267,0.0129
1698,0.0031,0.0258,0.0247,0.0124
1699,0.0031,0.0187,0.0166,0.0087
1700,0.0026,0.0193,0.0190,0.0060
1701,0.0025,0.0171,0.0163,0.0047
1702,0.0073,0.0257,0.0184,0.0088
1703,0.0030,0.0239,0.0234,0.0056
1704,0.0017,0.0188,0.0209,0.0033
1705,0.0025,0.0216,0.0252,0.0040
1706,0.0024,0.0252,0.0280,0.0053
1707,0.0022,0.0215,0.0211,0.0087
1708,0.0025,0.0208,0.0204,0.0087
1709,0.0026,0.0228,0.0233,0.0110
1710,0.0023,0.0348,0.0382,0.0167
1711,0.0020,0.0394,0.0414,0.0194
1712,0.0027,0.0391,0.0381,0.0231
1713,0.0046,0.0190,0.0161,0.0072
1714,0.0048,0.0348,0.0328,0.0233
1715,0.0025,0.0260,0.0253,0.0052
1716,0.0017,0.0149,0.0133,0.0038
1717,0.0015,0.0167,0.0168,0.0039
1718,0.0020,0.0152,0.0133,0.0038
1719,0.0017,0.0149,0.0133,0.0038
1720,0.0015,0.0167,0.0168,0.0039
1721,0.0017,0.0149,0.0133,0.0038
1722,0.0017,0.0149,0.0133,0.0038
1723,0.0020,0.0152,0.0133,0.0038
1724,0.0070,0.0293,0.0208,0.0089
1725,0.0102,0.0343,0.0335,0.0230
1726,0.0017,0.0149,0.0133,0.0038
1727,0.0017,0.0149,0.0133,0.0038
1728,0.0029,0.0269,0.0287,0.0053
1729,0.0017,0.0149,0.0133,0.0038
1730,0.0020,0.0152,0.0133,0.0038
1731,0.0015,0.0167,0.0168,0.0039
1732,0.0017,0.0149,0.0133,0.0038
1733,0.0017,0.0149,0.0133,0.0038
1734,0.0015,0.0167,0.0168,0.0039
1735,0.0020,0.0152,0.0133,0.0038
1736,0.0089,0.0334,0.0307,0.0221
1737,0.0017,0.0149,0.0133,0.0038
1738,0.0015,0.0167,0.0168,0.0039
1739,0.0017,0.0149,0.0133,0.0038
1740,0.0036,0.0216,0.0199,0.0051
1741,0.0020,0.0152,0.0133,0.0038
1742,0.0017,0.0149,0.0133,0.0038
1743,0.0017,0.0149,0.0133,0.0038
1744,0.0015,0.0167,0.0168,0.0039
1745,0.0017,0.0149,0.0133,0.0038
1746,0.0020,0.0152,0.0133,0.0038
1747,0.0079,0.0325,0.0318,0.0194
1748,0.0015,0.0167,0.0168,0.0039
1749,0.0017,0.0149,0.0133,0.0038
1750,0.0017,0.0149,0.0133,0.0038
1751,0.0015,0.0167,0.0168,0.0039
1752,0.0039,0.0216,0.0176,0.0051
1753,0.0017,0.0149,0.0133,0.0038
1754,0.0015,0.0167,0.0168,0.0039
1755,0.0017,0.0149,0.0133,0.0038
1756,0.0017,0.0149,0.0133,0.0038
1757,0.0020,0.0152,0.0133,0.0038
1758,0.0067,0.0296,0.0299,0.0158
1759,0.0043,0.0164,0.0212,0.0134
1760,0.0040,0.0166,0.0210,0.0100
1761,0.0044,0.0185,0.0224,0.0071
1762,0.0048,0.0164,0.0193,0.0058
1763,0.0034,0.0236,0.0211,0.0049
1764,0.0043,0.0218,0.0179,0.0065
1765,0.0044,0.0171,0.0186,0.0042
1766,0.0039,0.0163,0.0175,0.0040
1767,0.0032,0.0206,0.0233,0.0038
1768,0.0027,0.0166,0.0168,0.0038
1769,0.0051,0.0344,0.0347,0.0149
1770,0.0019,0.0165,0.0169,0.0037
1771,0.0022,0.0147,0.0132,0.0045
1772,0.0033,0.0161,0.0144,0.0052
1773,0.0030,0.0239,0.0234,0.0056
1774,0.0025,0.0278,0.0268,0.0049
1775,0.0027,0.0252,0.0256,0.0049
1776,0.0044,0.0205,0.0164,0.0060
1777,0.0038,0.0219,0.0208,0.0055
1778,0.0040,0.0201,0.0164,0.0054
1779,0.0040,0.0219,0.0178,0.0053
1780,0.0045,0.0296,0.0285,0.0122
1781,0.0044,0.0218,0.0184,0.0067
1782,0.0056,0.0232,0.0169,0.0061
1783,0.0038,0.0430,0.0453,0.0257
1784,0.0033,0.0268,0.0248,0.0171
1785,0.0036,0.0359,0.0350,0.0206
1786,0.0075,0.0289,0.0444,0.0413
1787,0.0062,0.0266,0.0394,0.0352
1788,0.0043,0.0248,0.0343,0.0296
1789,0.0041,0.0241,0.0314,0.0253
1790,0.0065,0.0249,0.0306,0.0218
1791,0.0039,0.0253,0.0249,0.0102
1792,0.0019,0.0124,0.0133,0.0037
1793,0.0019,0.0124,0.0133,0.0037
1794,0.0016,0.0150,0.0169,0.0037
1795,0.0027,0.0104,0.0100,0.0041
1796,0.0031,0.0112,0.0110,0.0040
1797,0.0033,0.0140,0.0145,0.0053
1798,0.0033,0.0198,0.0207,0.0051
1799,0.0026,0.0250,0.0289,0.0044
1800,0.0027,0.0211,0.0257,0.0043
1801,0.0033,0.0184,0.0183,0.0040
1802,0.0043,0.0239,0.0238,0.0087
1803,0.0040,0.0142,0.0141,0.0045
1804,0.0043,0.0150,0.0140,0.0058
1805,0.0042,0.0155,0.0153,0.0056
1806,0.0051,0.0197,0.0158,0.0056
1807,0.0040,0.0146,0.0153,0.0047
1808,0.0030,0.0453,0.0482,0.0262
1809,0.0035,0.0302,0.0306,0.0185
1810,0.0041,0.0191,0.0184,0.0108
1811,0.0041,0.0252,0.0249,0.0140
1812,0.0038,0.0324,0.0336,0.0175
1813,0.0047,0.0245,0.0253,0.0078
1814,0.0028,0.0218,0.0226,0.0103
1815,0.0029,0.0179,0.0197,0.0098
1816,0.0030,0.0121,0.0118,0.0065
1817,0.0026,0.0168,0.0173,0.0050
1818,0.0027,0.0141,0.0150,0.0040
1819,0.0033,0.0198,0.0207,0.0051
1820,0.0020,0.0172,0.0212,0.0034
1821,0.0028,0.0205,0.0256,0.0041
1822,0.0025,0.0247,0.0286,0.0056
1823,0.0022,0.0173,0.0182,0.0095
1824,0.0043,0.0222,0.0230,0.0059
1825,0.0024,0.0155,0.0167,0.0085
1826,0.0024,0.0157,0.0171,0.0085
1827,0.0022,0.0244,0.0291,0.0090
1828,0.0021,0.0270,0.0312,0.0111
1829,0.0028,0.0271,0.0287,0.0183
1830,0.0054,0.0224,0.0245,0.0170
1831,0.0026,0.0250,0.0289,0.0044
1832,0.0019,0.0124,0.0133,0.0037
1833,0.0016,0.0150,0.0169,0.0037
1834,0.0023,0.0124,0.0131,0.0037
1835,0.0076,0.0296,0.0203,0.0091
1836,0.0043,0.0262,0.0242,0.0082
1837,0.0019,0.0124,0.0133,0.0037
1838,0.0016,0.0150,0.0169,0.0037
1839,0.0019,0.0124,0.0133,0.0037
1840,0.0019,0.0124,0.0133,0.0037
1841,0.0023,0.0124,0.0131,0.0037
1842,0.0019,0.0124,0.0133,0.0037
1843,0.0019,0.0124,0.0133,0.0037
1844,0.0027,0.0211,0.0257,0.0043
1845,0.0019,0.0124,0.0133,0.0037
1846,0.0023,0.0124,0.0131,0.0037
1847,0.0036,0.0249,0.0288,0.0030
1848,0.0016,0.0150,0.0169,0.0037
1849,0.0019,0.0124,0.0133,0.0037
1850,0.0019,0.0124,0.0133,0.0037
1851,0.0016,0.0150,0.0169,0.0037
1852,0.0023,0.0124,0.0131,0.0037
1853,0.0019,0.0124,0.0133,0.0037
1854,0.0016,0.0150,0.0169,0.0037
1855,0.0019,0.0124,0.0133,0.0037
1856,0.0035,0.0161,0.0170,0.0041
1857,0.0023,0.0124,0.0131,0.0037
1858,0.0043,0.0338,0.0427,0.0044
1859,0.0019,0.0124,0.0133,0.0037
1860,0.0019,0.0124,0.0133,0.0037
1861,0.0016,0.0150,0.0169,0.0037
1862,0.0019,0.0124,0.0133,0.0037
1863,0.0023,0.0124,0.0131,0.0037
1864,0.0016,0.0150,0.0169,0.0037
1865,0.0019,0.0124,0.0133,0.0037
1866,0.0019,0.0124,0.0133,0.0037
1867,0.0016,0.0150,0.0169,0.0037
1868,0.0039,0.0165,0.0160,0.0043
1869,0.0050,0.0397,0.0483,0.0059
1870,0.0019,0.0124,0.0133,0.0037
1871,0.0016,0.0150,0.0169,0.0037
1872,0.0019,0.0124,0.0133,0.0037
1873,0.0019,0.0124,0.0133,0.0037
1874,0.0023,0.0124,0.0131,0.0037
1875,0.0044,0.0129,0.0159,0.0095
1876,0.0038,0.0122,0.0147,0.0067
1877,0.0042,0.0141,0.0146,0.0047
1878,0.0044,0.0127,0.0125,0.0044
1879,0.0033,0.0184,0.0183,0.0040
1880,0.0054,0.0359,0.0400,0.0073
1881,0.0043,0.0150,0.0140,0.0058
1882,0.0041,0.0125,0.0117,0.0046
1883,0.0036,0.0130,0.0121,0.0046
1884,0.0030,0.0169,0.0190,0.0044
1885,0.0027,0.0144,0.0148,0.0042
1886,0.0021,0.0147,0.0165,0.0038
1887,0.0023,0.0123,0.0127,0.0042
1888,0.0036,0.0134,0.0136,0.0049
1889,0.0033,0.0198,0.0207,0.0051
1890,0.0028,0.0272,0.0306,0.0043
1891,0.0059,0.0393,0.0424,0.0109
1892,0.0026,0.0189,0.0220,0.0040
1893,0.0042,0.0155,0.0153,0.0056
1894,0.0037,0.0166,0.0186,0.0044
1895,0.0040,0.0142,0.0141,0.0045
1896,0.0040,0.0147,0.0131,0.0047
1897,0.0043,0.0172,0.0172,0.0063
1898,0.0051,0.0197,0.0158,0.0056
1899,0.0030,0.0453,0.0482,0.0262
1900,0.0036,0.0218,0.0221,0.0130
1901,0.0041,0.0324,0.0324,0.0200
1902,0.0055,0.0415,0.0438,0.0163
1903,0.0066,0.0263,0.0416,0.0353
1904,0.0063,0.0248,0.0380,0.0339
1905,0.0046,0.0245,0.0350,0.0326
1906,0.0036,0.0243,0.0325,0.0299
1907,0.0057,0.0257,0.0310,0.0257
1908,0.0023,0.0096,0.0111,0.0036
1909,0.0023,0.0096,0.0111,0.0036
1910,0.0020,0.0123,0.0146,0.0036
1911,0.0032,0.0085,0.0091,0.0040
1912,0.0035,0.0092,0.0102,0.0039
1913,0.0050,0.0512,0.0533,0.0237
1914,0.0039,0.0110,0.0119,0.0051
1915,0.0036,0.0147,0.0163,0.0048
1916,0.0027,0.0175,0.0223,0.0042
1917,0.0027,0.0158,0.0219,0.0038
1918,0.0033,0.0133,0.0142,0.0037
1919,0.0040,0.0093,0.0099,0.0039
1920,0.0043,0.0119,0.0124,0.0051
1921,0.0042,0.0123,0.0133,0.0054
1922,0.0048,0.0152,0.0147,0.0055
1923,0.0046,0.0122,0.0137,0.0045
1924,0.0050,0.0596,0.0609,0.0292
1925,0.0029,0.0533,0.0544,0.0318
1926,0.0040,0.0334,0.0336,0.0221
1927,0.0047,0.0199,0.0198,0.0131
1928,0.0046,0.0275,0.0280,0.0163
1929,0.0045,0.0328,0.0355,0.0181
1930,0.0034,0.0191,0.0225,0.0100
1931,0.0033,0.0160,0.0200,0.0092
1932,0.0033,0.0091,0.0110,0.0059
1933,0.0030,0.0128,0.0130,0.0046
1934,0.0031,0.0119,0.0137,0.0038
1935,0.0058,0.0547,0.0538,0.0279
1936,0.0036,0.0147,0.0163,0.0048
1937,0.0023,0.0158,0.0208,0.0035
1938,0.0030,0.0187,0.0246,0.0045
1939,0.0027,0.0226,0.0274,0.0066
1940,0.0022,0.0143,0.0161,0.0113
1941,0.0024,0.0118,0.0132,0.0110
1942,0.0023,0.0114,0.0117,0.0110
1943,0.0023,0.0156,0.0194,0.0088
1944,0.0022,0.0160,0.0205,0.0121
1945,0.0031,0.0204,0.0224,0.0221
1946,0.0047,0.0193,0.0146,0.0076
1947,0.0080,0.0504,0.0479,0.0289
1948,0.0059,0.0201,0.0216,0.0227
1949,0.0027,0.0175,0.0223,0.0042
1950,0.0023,0.0096,0.0111,0.0036
1951,0.0020,0.0123,0.0146,0.0036
1952,0.0027,0.0091,0.0107,0.0036
1953,0.0023,0.0096,0.0111,0.0036
1954,0.0020,0.0123,0.0146,0.0036
1955,0.0023,0.0096,0.0111,0.0036
1956,0.0023,0.0096,0.0111,0.0036
1957,0.0027,0.0091,0.0107,0.0036
1958,0.0040,0.0306,0.0294,0.0074
1959,0.0023,0.0096,0.0111,0.0036
1960,0.0023,0.0096,0.0111,0.0036
1961,0.0027,0.0158,0.0219,0.0038
1962,0.0023,0.0096,0.0111,0.0036
1963,0.0027,0.0091,0.0107,0.0036
1964,0.0020,0.0123,0.0146,0.0036
1965,0.0023,0.0096,0.0111,0.0036
1966,0.0023,0.0096,0.0111,0.0036
1967,0.0020,0.0123,0.0146,0.0036
1968,0.0027,0.0091,0.0107,0.0036
1969,0.0036,0.0200,0.0189,0.0044
1970,0.0023,0.0096,0.0111,0.0036
1971,0.0020,0.0123,0.0146,0.0036
1972,0.0023,0.0096,0.0111,0.0036
1973,0.0035,0.0100,0.0123,0.0036
1974,0.0027,0.0091,0.0107,0.0036
1975,0.0023,0.0096,0.0111,0.0036
1976,0.0023,0.0096,0.0111,0.0036
1977,0.0020,0.0123,0.0146,0.0036
1978,0.0023,0.0096,0.0111,0.0036
1979,0.0027,0.0091,0.0107,0.0036
1980,0.0036,0.0200,0.0189,0.0044
1981,0.0020,0.0123,0.0146,0.0036
1982,0.0023,0.0096,0.0111,0.0036
1983,0.0023,0.0096,0.0111,0.0036
1984,0.0020,0.0123,0.0146,0.0036
1985,0.0039,0.0123,0.0121,0.0038
1986,0.0023,0.0096,0.0111,0.0036
1987,0.0020,0.0123,0.0146,0.0036
1988,0.0023,0.0096,0.0111,0.0036
1989,0.0023,0.0096,0.0111,0.0036
1990,0.0027,0.0091,0.0107,0.0036
1991,0.0035,0.0181,0.0163,0.0042
1992,0.0044,0.0136,0.0240,0.0072
1993,0.0037,0.0107,0.0199,0.0049
1994,0.0040,0.0116,0.0172,0.0041
1995,0.0041,0.0089,0.0139,0.0049
1996,0.0033,0.0133,0.0142,0.0037
1997,0.0043,0.0119,0.0124,0.0051
1998,0.0039,0.0093,0.0104,0.0055
1999,0.0036,0.0097,0.0098,0.0053
2000,0.0030,0.0135,0.0157,0.0046
2001,0.0028,0.0099,0.0106,0.0044
2002,0.0036,0.0200,0.0189,0.0044
2003,0.0023,0.0116,0.0138,0.0037
2004,0.0028,0.0107,0.0117,0.0041
2005,0.0042,0.0105,0.0113,0.0047
2006,0.0036,0.0147,0.0163,0.0048
2007,0.0029,0.0211,0.0248,0.0041
2008,0.0026,0.0136,0.0181,0.0037
2009,0.0042,0.0123,0.0133,0.0054
2010,0.0037,0.0117,0.0150,0.0038
2011,0.0040,0.0093,0.0099,0.0039
2012,0.0040,0.0119,0.0124,0.0043
2013,0.0036,0.0200,0.0189,0.0044
2014,0.0043,0.0147,0.0155,0.0060
2015,0.0048,0.0152,0.0147,0.0055
2016,0.0029,0.0533,0.0544,0.0318
2017,0.0040,0.0254,0.0258,0.0166
2018,0.0049,0.0343,0.0347,0.0226
2019,0.0059,0.0264,0.0431,0.0360
2020,0.0060,0.0245,0.0390,0.0357
2021,0.0048,0.0274,0.0413,0.0394
2022,0.0034,0.0292,0.0407,0.0381
2023,0.0050,0.0313,0.0391,0.0332
2024,0.0036,0.0200,0.0189,0.0044
2025,0.0025,0.0087,0.0101,0.0035
2026,0.0025,0.0087,0.0101,0.0035
2027,0.0022,0.0114,0.0136,0.0036
2028,0.0035,0.0086,0.0099,0.0040
2029,0.0039,0.0092,0.0109,0.0039
2030,0.0041,0.0098,0.0108,0.0051
2031,0.0037,0.0119,0.0130,0.0048
2032,0.0028,0.0130,0.0171,0.0041
2033,0.0027,0.0147,0.0212,0.0037
2034,0.0034,0.0121,0.0107,0.0037
2035,0.0036,0.0200,0.0189,0.0044
2036,0.0040,0.0088,0.0088,0.0037
2037,0.0043,0.0107,0.0113,0.0049
2038,0.0042,0.0109,0.0123,0.0053
2039,0.0047,0.0151,0.0141,0.0055
2040,0.0047,0.0107,0.0119,0.0045
2041,0.0029,0.0580,0.0581,0.0353
2042,0.0042,0.0371,0.0372,0.0251
2043,0.0049,0.0241,0.0236,0.0156
2044,0.0049,0.0297,0.0308,0.0178
2045,0.0048,0.0352,0.0386,0.0190
2046,0.0035,0.0181,0.0163,0.0042
2047,0.0038,0.0197,0.0235,0.0104
2048,0.0036,0.0163,0.0213,0.0094
2049,0.0037,0.0086,0.0115,0.0061
2050,0.0033,0.0121,0.0125,0.0047
2051,0.0033,0.0093,0.0108,0.0039
2052,0.0037,0.0119,0.0130,0.0048
2053,0.0023,0.0140,0.0186,0.0035
2054,0.0031,0.0181,0.0241,0.0047
2055,0.0027,0.0218,0.0266,0.0074
2056,0.0022,0.0130,0.0151,0.0124
2057,0.0103,0.0404,0.0362,0.0299
2058,0.0036,0.0200,0.0189,0.0044
2059,0.0023,0.0111,0.0127,0.0125
2060,0.0023,0.0121,0.0119,0.0128
2061,0.0024,0.0143,0.0167,0.0110
2062,0.0022,0.0131,0.0167,0.0149
2063,0.0032,0.0195,0.0207,0.0253
2064,0.0061,0.0236,0.0227,0.0271
2065,0.0028,0.0130,0.0171,0.0041
2066,0.0025,0.0087,0.0101,0.0035
2067,0.0022,0.0114,0.0136,0.0036
2068,0.0028,0.0081,0.0097,0.0036
2069,0.0036,0.0200,0.0189,0.0044
2070,0.0025,0.0087,0.0101,0.0035
2071,0.0022,0.0114,0.0136,0.0036
2072,0.0025,0.0087,0.0101,0.0035
2073,0.0025,0.0087,0.0101,0.0035
2074,0.0028,0.0081,0.0097,0.0036
2075,0.0025,0.0087,0.0101,0.0035
2076,0.0025,0.0087,0.0101,0.0035
2077,0.0027,0.0147,0.0212,0.0037
2078,0.0025,0.0087,0.0101,0.0035
2079,0.0028,0.0081,0.0097,0.0036
2080,0.0047,0.0300,0.0300,0.0068
2081,0.0022,0.0114,0.0136,0.0036
2082,0.0025,0.0087,0.0101,0.0035
2083,0.0025,0.0087,0.0101,0.0035
2084,0.0022,0.0114,0.0136,0.0036
2085,0.0028,0.0081,0.0097,0.0036
2086,0.0025,0.0087,0.0101,0.0035
2087,0.0022,0.0114,0.0136,0.0036
2088,0.0025,0.0087,0.0101,0.0035
2089,0.0035,0.0084,0.0088,0.0036
2090,0.0028,0.0081,0.0097,0.0036
2091,0.0036,0.0200,0.0189,0.0044
2092,0.0025,0.0087,0.0101,0.0035
2093,0.0025,0.0087,0.0101,0.0035
2094,0.0022,0.0114,0.0136,0.0036
2095,0.0025,0.0087,0.0101,0.0035
2096,0.0028,0.0081,0.0097,0.0036
2097,0.0022,0.0114,0.0136,0.0036
2098,0.0025,0.0087,0.0101,0.0035
2099,0.0025,0.0087,0.0101,0.0035
2100,0.0022,0.0114,0.0136,0.0036
2101,0.0039,0.0115,0.0103,0.0037
2102,0.0035,0.0181,0.0163,0.0042
2103,0.0025,0.0087,0.0101,0.0035
2104,0.0022,0.0114,0.0136,0.0036
2105,0.0025,0.0087,0.0101,0.0035
2106,0.0025,0.0087,0.0101,0.0035
2107,0.0028,0.0081,0.0097,0.0036
2108,0.0043,0.0137,0.0277,0.0063
2109,0.0037,0.0115,0.0250,0.0045
2110,0.0039,0.0115,0.0208,0.0043
2111,0.0041,0.0083,0.0184,0.0052
2112,0.0034,0.0121,0.0107,0.0037
2113,0.0036,0.0200,0.0189,0.0044
2114,0.0043,0.0107,0.0113,0.0049
2115,0.0039,0.0077,0.0123,0.0058
2116,0.0036,0.0089,0.0097,0.0056
2117,0.0031,0.0138,0.0156,0.0049
2118,0.0029,0.0098,0.0107,0.0045
2119,0.0024,0.0106,0.0129,0.0037
2120,0.0032,0.0108,0.0122,0.0041
2121,0.0044,0.0088,0.0094,0.0047
2122,0.0037,0.0119,0.0130,0.0048
2123,0.0029,0.0172,0.0197,0.0041
2124,0.0036,0.0200,0.0189,0.0044
2125,0.0026,0.0125,0.0176,0.0037
2126,0.0042,0.0109,0.0123,0.0053
2127,0.0038,0.0103,0.0123,0.0037
2128,0.0040,0.0088,0.0088,0.0037
2129,0.0040,0.0102,0.0101,0.0041
2130,0.0043,0.0136,0.0148,0.0059
2131,0.0047,0.0151,0.0141,0.0055
2132,0.0029,0.0580,0.0581,0.0353
2133,0.0041,0.0295,0.0298,0.0198
2134,0.0051,0.0380,0.0381,0.0247
2135,0.0036,0.0200,0.0189,0.0044
2136,0.0057,0.0276,0.0451,0.0381
2137,0.0058,0.0251,0.0403,0.0372
2138,0.0048,0.0293,0.0445,0.0426
2139,0.0034,0.0325,0.0454,0.0422
2140,0.0048,0.0342,0.0442,0.0370
2141,0.0016,0.0163,0.0133,0.0040
2142,0.0016,0.0163,0.0133,0.0040
2143,0.0015,0.0176,0.0166,0.0040
2144,0.0024,0.0172,0.0132,0.0047
2145,0.0026,0.0187,0.0148,0.0047
2146,0.0036,0.0200,0.0189,0.0044
2147,0.0031,0.0160,0.0128,0.0061
2148,0.0029,0.0222,0.0192,0.0061
2149,0.0025,0.0249,0.0225,0.0059
2150,0.0029,0.0247,0.0241,0.0062
2151,0.0033,0.0257,0.0208,0.0056
2152,0.0038,0.0225,0.0163,0.0063
2153,0.0041,0.0254,0.0192,0.0074
2154,0.0043,0.0263,0.0204,0.0068
2155,0.0053,0.0266,0.0199,0.0068
2156,0.0034,0.0183,0.0147,0.0056
2157,0.0035,0.0181,0.0163,0.0042
2158,0.0043,0.0416,0.0415,0.0276
2159,0.0035,0.0350,0.0321,0.0227
2160,0.0036,0.0302,0.0273,0.0183
2161,0.0036,0.0320,0.0298,0.0169
2162,0.0039,0.0430,0.0401,0.0210
2163,0.0035,0.0332,0.0289,0.0151
2164,0.0035,0.0332,0.0298,0.0150
2165,0.0033,0.0248,0.0217,0.0108
2166,0.0028,0.0216,0.0213,0.0073
2167,0.0025,0.0188,0.0167,0.0056
2168,0.0089,0.0398,0.0354,0.0277
2169,0.0036,0.0200,0.0189,0.0044
2170,0.0029,0.0222,0.0192,0.0061
2171,0.0015,0.0209,0.0222,0.0034
2172,0.0022,0.0242,0.0275,0.0042
2173,0.0023,0.0279,0.0309,0.0056
2174,0.0023,0.0249,0.0247,0.0085
2175,0.0025,0.0258,0.0254,0.0099
2176,0.0023,0.0288,0.0295,0.0140
2177,0.0020,0.0426,0.0456,0.0221
2178,0.0019,0.0470,0.0482,0.0259
2179,0.0025,0.0474,0.0449,0.0285
2180,0.0036,0.0200,0.0189,0.0044
2181,0.0041,0.0439,0.0401,0.0310
2182,0.0025,0.0249,0.0225,0.0059
2183,0.0016,0.0163,0.0133,0.0040
2184,0.0015,0.0176,0.0166,0.0040
2185,0.0018,0.0174,0.0140,0.0041
2186,0.0016,0.0163,0.0133,0.0040
2187,0.0015,0.0176,0.0166,0.0040
2188,0.0016,0.0163,0.0133,0.0040
2189,0.0016,0.0163,0.0133,0.0040
2190,0.0018,0.0174,0.0140,0.0041
2191,0.0036,0.0200,0.0189,0.0044
2192,0.0016,0.0163,0.0133,0.0040
2193,0.0016,0.0163,0.0133,0.0040
2194,0.0029,0.0247,0.0241,0.0062
2195,0.0016,0.0163,0.0133,0.0040
2196,0.0018,0.0174,0.0140,0.0041
2197,0.0015,0.0176,0.0166,0.0040
2198,0.0016,0.0163,0.0133,0.0040
2199,0.0016,0.0163,0.0133,0.0040
2200,0.0015,0.0176,0.0166,0.0040
2201,0.0018,0.0174,0.0140,0.0041
2202,0.0059,0.0269,0.0249,0.0069
2203,0.0016,0.0163,0.0133,0.0040
2204,0.0015,0.0176,0.0166,0.0040
2205,0.0016,0.0163,0.0133,0.0040
2206,0.0034,0.0239,0.0197,0.0059
2207,0.0018,0.0174,0.0140,0.0041
2208,0.0016,0.0163,0.0133,0.0040
2209,0.0016,0.0163,0.0133,0.0040
2210,0.0015,0.0176,0.0166,0.0040
2211,0.0016,0.0163,0.0133,0.0040
2212,0.0018,0.0174,0.0140,0.0041
2213,0.0035,0.0181,0.0163,0.0042
2214,0.0015,0.0176,0.0166,0.0040
2215,0.0016,0.0163,0.0133,0.0040
2216,0.0016,0.0163,0.0133,0.0040
2217,0.0015,0.0176,0.0166,0.0040
2218,0.0038,0.0239,0.0174,0.0059
2219,0.0016,0.0163,0.0133,0.0040
2220,0.0015,0.0176,0.0166,0.0040
2221,0.0016,0.0163,0.0133,0.0040
2222,0.0016,0.0163,0.0133,0.0040
2223,0.0018,0.0174,0.0140,0.0041
2224,0.0036,0.0200,0.0189,0.0044
2225,0.0055,0.0195,0.0269,0.0169
2226,0.0039,0.0198,0.0268,0.0132
2227,0.0035,0.0217,0.0288,0.0096
2228,0.0037,0.0195,0.0250,0.0078
2229,0.0033,0.0257,0.0208,0.0056
2230,0.0041,0.0254,0.0192,0.0074
2231,0.0038,0.0198,0.0231,0.0048
2232,0.0035,0.0188,0.0215,0.0042
2233,0.0030,0.0218,0.0256,0.0037
2234,0.0024,0.0188,0.0195,0.0038
2235,0.0036,0.0200,0.0189,0.0044
2236,0.0017,0.0190,0.0194,0.0037
2237,0.0023,0.0174,0.0146,0.0048
2238,0.0032,0.0163,0.0124,0.0057
2239,0.0029,0.0222,0.0192,0.0061
2240,0.0025,0.0269,0.0240,0.0056
2241,0.0028,0.0235,0.0205,0.0058
2242,0.0043,0.0263,0.0204,0.0068
2243,0.0036,0.0244,0.0212,0.0064
2244,0.0038,0.0225,0.0163,0.0063
2245,0.0039,0.0259,0.0193,0.0061
2246,0.0036,0.0200,0.0189,0.0044
2247,0.0044,0.0266,0.0213,0.0074
2248,0.0053,0.0266,0.0199,0.0068
2249,0.0043,0.0416,0.0415,0.0276
2250,0.0036,0.0325,0.0280,0.0222
2251,0.0037,0.0373,0.0356,0.0214
2252,0.0064,0.0325,0.0500,0.0509
2253,0.0050,0.0309,0.0458,0.0425
2254,0.0047,0.0304,0.0420,0.0362
2255,0.0065,0.0296,0.0380,0.0304
2256,0.0098,0.0294,0.0348,0.0253
2257,0.0036,0.0200,0.0189,0.0044
2258,0.0015,0.0148,0.0134,0.0038
2259,0.0015,0.0148,0.0134,0.0038
2260,0.0014,0.0168,0.0170,0.0038
2261,0.0023,0.0137,0.0105,0.0044
2262,0.0026,0.0148,0.0118,0.0044
2263,0.0030,0.0156,0.0145,0.0058
2264,0.0030,0.0223,0.0213,0.0058
2265,0.0025,0.0241,0.0230,0.0054
2266,0.0028,0.0253,0.0271,0.0055
2267,0.0033,0.0228,0.0198,0.0051
2268,0.0035,0.0181,0.0163,0.0042
2269,0.0038,0.0206,0.0168,0.0058
2270,0.0041,0.0232,0.0191,0.0070
2271,0.0043,0.0230,0.0188,0.0065
2272,0.0050,0.0242,0.0191,0.0065
2273,0.0034,0.0166,0.0150,0.0052
2274,0.0037,0.0391,0.0410,0.0241
2275,0.0034,0.0307,0.0289,0.0192
2276,0.0037,0.0257,0.0236,0.0150
2277,0.0036,0.0268,0.0252,0.0146
2278,0.0036,0.0367,0.0349,0.0189
2279,0.0079,0.0372,0.0355,0.0234
2280,0.0036,0.0200,0.0189,0.0044
2281,0.0031,0.0279,0.0252,0.0128
2282,0.0032,0.0256,0.0237,0.0126
2283,0.0032,0.0194,0.0173,0.0091
2284,0.0027,0.0199,0.0201,0.0064
2285,0.0025,0.0170,0.0163,0.0049
2286,0.0030,0.0223,0.0213,0.0058
2287,0.0015,0.0192,0.0215,0.0033
2288,0.0023,0.0224,0.0264,0.0040
2289,0.0023,0.0267,0.0300,0.0052
2290,0.0022,0.0231,0.0231,0.0082
2291,0.0036,0.0200,0.0189,0.0044
2292,0.0024,0.0228,0.0230,0.0084
2293,0.0022,0.0249,0.0263,0.0113
2294,0.0019,0.0381,0.0421,0.0182
2295,0.0019,0.0425,0.0451,0.0208
2296,0.0023,0.0412,0.0408,0.0232
2297,0.0042,0.0367,0.0352,0.0241
2298,0.0025,0.0241,0.0230,0.0054
2299,0.0015,0.0148,0.0134,0.0038
2300,0.0014,0.0168,0.0170,0.0038
2301,0.0018,0.0155,0.0137,0.0038
2302,0.0036,0.0200,0.0189,0.0044
2303,0.0015,0.0148,0.0134,0.0038
2304,0.0014,0.0168,0.0170,0.0038
2305,0.0015,0.0148,0.0134,0.0038
2306,0.0015,0.0148,0.0134,0.0038
2307,0.0018,0.0155,0.0137,0.0038
2308,0.0015,0.0148,0.0134,0.0038
2309,0.0015,0.0148,0.0134,0.0038
2310,0.0028,0.0253,0.0271,0.0055
2311,0.0015,0.0148,0.0134,0.0038
2312,0.0018,0.0155,0.0137,0.0038
2313,0.0036,0.0200,0.0189,0.0044
2314,0.0014,0.0168,0.0170,0.0038
2315,0.0015,0.0148,0.0134,0.0038
2316,0.0015,0.0148,0.0134,0.0038
2317,0.0014,0.0168,0.0170,0.0038
2318,0.0018,0.0155,0.0137,0.0038
2319,0.0015,0.0148,0.0134,0.0038
2320,0.0014,0.0168,0.0170,0.0038
2321,0.0015,0.0148,0.0134,0.0038
2322,0.0033,0.0215,0.0195,0.0053
2323,0.0018,0.0155,0.0137,0.0038
2324,0.0064,0.0240,0.0190,0.0068
2325,0.0015,0.0148,0.0134,0.0038
2326,0.0015,0.0148,0.0134,0.0038
2327,0.0014,0.0168,0.0170,0.0038
2328,0.0015,0.0148,0.0134,0.0038
2329,0.0018,0.0155,0.0137,0.0038
2330,0.0014,0.0168,0.0170,0.0038
2331,0.0015,0.0148,0.0134,0.0038
2332,0.0015,0.0148,0.0134,0.0038
2333,0.0014,0.0168,0.0170,0.0038
2334,0.0037,0.0217,0.0175,0.0054
2335,0.0036,0.0200,0.0189,0.0044
2336,0.0015,0.0148,0.0134,0.0038
2337,0.0014,0.0168,0.0170,0.0038
2338,0.0015,0.0148,0.0134,0.0038
2339,0.0015,0.0148,0.0134,0.0038
2340,0.0018,0.0155,0.0137,0.0038
2341,0.0056,0.0180,0.0221,0.0147
2342,0.0040,0.0177,0.0217,0.0110
2343,0.0035,0.0195,0.0232,0.0078
2344,0.0036,0.0174,0.0203,0.0063
2345,0.0033,0.0228,0.0198,0.0051
2346,0.0036,0.0200,0.0189,0.0044
2347,0.0041,0.0232,0.0191,0.0070
2348,0.0036,0.0182,0.0199,0.0042
2349,0.0033,0.0173,0.0191,0.0039
2350,0.0028,0.0216,0.0251,0.0037
2351,0.0023,0.0172,0.0180,0.0037
2352,0.0016,0.0173,0.0182,0.0036
2353,0.0021,0.0146,0.0128,0.0046
2354,0.0032,0.0152,0.0133,0.0054
2355,0.0030,0.0223,0.0213,0.0058
2356,0.0026,0.0264,0.0248,0.0051
2357,0.0036,0.0200,0.0189,0.0044
2358,0.0027,0.0236,0.0236,0.0051
2359,0.0043,0.0230,0.0188,0.0065
2360,0.0036,0.0218,0.0207,0.0058
2361,0.0038,0.0206,0.0168,0.0058
2362,0.0039,0.0230,0.0186,0.0057
2363,0.0043,0.0240,0.0205,0.0073
2364,0.0050,0.0242,0.0191,0.0065
2365,0.0037,0.0391,0.0410,0.0241
2366,0.0035,0.0270,0.0238,0.0175
2367,0.0037,0.0334,0.0323,0.0195
2368,0.0036,0.0200,0.0189,0.0044
2369,0.0064,0.0309,0.0473,0.0456
2370,0.0050,0.0282,0.0418,0.0380
2371,0.0045,0.0293,0.0398,0.0343
2372,0.0062,0.0294,0.0366,0.0303
2373,0.0091,0.0295,0.0336,0.0255
2374,0.0017,0.0124,0.0136,0.0036
2375,0.0017,0.0124,0.0136,0.0036
2376,0.0015,0.0149,0.0171,0.0037
2377,0.0026,0.0102,0.0097,0.0041
2378,0.0029,0.0112,0.0110,0.0041
2379,0.0035,0.0181,0.0163,0.0042
2380,0.0033,0.0128,0.0133,0.0055
2381,0.0033,0.0182,0.0188,0.0053
2382,0.0027,0.0223,0.0259,0.0046
2383,0.0027,0.0199,0.0245,0.0044
2384,0.0032,0.0178,0.0175,0.0042
2385,0.0037,0.0148,0.0147,0.0047
2386,0.0040,0.0163,0.0153,0.0062
2387,0.0042,0.0182,0.0181,0.0061
2388,0.0046,0.0192,0.0176,0.0061
2389,0.0039,0.0141,0.0146,0.0048
2390,0.0067,0.0337,0.0332,0.0187
2391,0.0054,0.0243,0.0314,0.0128
2392,0.0030,0.0389,0.0420,0.0228
2393,0.0037,0.0247,0.0250,0.0157
2394,0.0044,0.0173,0.0166,0.0097
2395,0.0043,0.0206,0.0202,0.0119
2396,0.0039,0.0278,0.0287,0.0157
2397,0.0029,0.0192,0.0193,0.0095
2398,0.0030,0.0164,0.0171,0.0093
2399,0.0030,0.0125,0.0119,0.0065
2400,0.0026,0.0176,0.0187,0.0052
2401,0.0026,0.0145,0.0158,0.0041
2402,0.0057,0.0249,0.0308,0.0100
2403,0.0033,0.0182,0.0188,0.0053
2404,0.0018,0.0176,0.0221,0.0034
2405,0.0025,0.0215,0.0272,0.0039
2406,0.0024,0.0260,0.0306,0.0051
2407,0.0022,0.0192,0.0205,0.0086
2408,0.0023,0.0175,0.0192,0.0075
2409,0.0021,0.0176,0.0198,0.0077
2410,0.0019,0.0270,0.0322,0.0101
2411,0.0018,0.0295,0.0342,0.0112
2412,0.0023,0.0278,0.0302,0.0160
2413,0.0064,0.0255,0.0298,0.0080
2414,0.0046,0.0229,0.0258,0.0145
2415,0.0027,0.0223,0.0259,0.0046
2416,0.0017,0.0124,0.0136,0.0036
2417,0.0015,0.0149,0.0171,0.0037
2418,0.0020,0.0125,0.0134,0.0037
2419,0.0017,0.0124,0.0136,0.0036
2420,0.0015,0.0149,0.0171,0.0037
2421,0.0017,0.0124,0.0136,0.0036
2422,0.0017,0.0124,0.0136,0.0036
2423,0.0020,0.0125,0.0134,0.0037
2424,0.0070,0.0249,0.0286,0.0065
2425,0.0017,0.0124,0.0136,0.0036
2426,0.0017,0.0124,0.0136,0.0036
2427,0.0027,0.0199,0.0245,0.0044
2428,0.0017,0.0124,0.0136,0.0036
2429,0.0020,0.0125,0.0134,0.0037
2430,0.0015,0.0149,0.0171,0.0037
2431,0.0017,0.0124,0.0136,0.0036
2432,0.0017,0.0124,0.0136,0.0036
2433,0.0015,0.0149,0.0171,0.0037
2434,0.0020,0.0125,0.0134,0.0037
2435,0.0056,0.0258,0.0230,0.0063
2436,0.0017,0.0124,0.0136,0.0036
2437,0.0015,0.0149,0.0171,0.0037
2438,0.0017,0.0124,0.0136,0.0036
2439,0.0033,0.0156,0.0164,0.0043
2440,0.0020,0.0125,0.0134,0.0037
2441,0.0017,0.0124,0.0136,0.0036
2442,0.0017,0.0124,0.0136,0.0036
2443,0.0015,0.0149,0.0171,0.0037
2444,0.0017,0.0124,0.0136,0.0036
2445,0.0020,0.0125,0.0134,0.0037
2446,0.0069,0.0272,0.0211,0.0080
2447,0.0015,0.0149,0.0171,0.0037
2448,0.0017,0.0124,0.0136,0.0036
2449,0.0017,0.0124,0.0136,0.0036
2450,0.0015,0.0149,0.0171,0.0037
2451,0.0037,0.0163,0.0157,0.0044
2452,0.0017,0.0124,0.0136,0.0036
2453,0.0015,0.0149,0.0171,0.0037
2454,0.0017,0.0124,0.0136,0.0036
2455,0.0017,0.0124,0.0136,0.0036
2456,0.0020,0.0125,0.0134,0.0037
2457,0.0071,0.0237,0.0266,0.0049
2458,0.0057,0.0146,0.0179,0.0105
2459,0.0040,0.0136,0.0161,0.0073
2460,0.0033,0.0155,0.0160,0.0049
2461,0.0033,0.0137,0.0133,0.0044
2462,0.0032,0.0178,0.0175,0.0042
2463,0.0040,0.0163,0.0153,0.0062
2464,0.0034,0.0138,0.0130,0.0045
2465,0.0031,0.0142,0.0137,0.0044
2466,0.0027,0.0184,0.0212,0.0042
2467,0.0023,0.0151,0.0162,0.0041
2468,0.0064,0.0214,0.0247,0.0045
2469,0.0018,0.0154,0.0178,0.0037
2470,0.0022,0.0120,0.0124,0.0043
2471,0.0036,0.0125,0.0125,0.0051
2472,0.0033,0.0182,0.0188,0.0053
2473,0.0028,0.0253,0.0280,0.0044
2474,0.0026,0.0174,0.0202,0.0042
2475,0.0042,0.0182,0.0181,0.0061
2476,0.0035,0.0169,0.0190,0.0046
2477,0.0037,0.0148,0.0147,0.0047
2478,0.0039,0.0154,0.0138,0.0050
2479,0.0054,0.0231,0.0271,0.0042
2480,0.0043,0.0199,0.0197,0.0069
2481,0.0046,0.0192,0.0176,0.0061
2482,0.0030,0.0389,0.0420,0.0228
2483,0.0039,0.0183,0.0181,0.0112
2484,0.0044,0.0273,0.0274,0.0173
2485,0.0068,0.0296,0.0444,0.0381
2486,0.0051,0.0254,0.0368,0.0322
2487,0.0042,0.0271,0.0363,0.0322
2488,0.0051,0.0308,0.0387,0.0343
2489,0.0080,0.0326,0.0378,0.0311
2490,0.0042,0.0211,0.0227,0.0041
2491,0.0020,0.0095,0.0113,0.0035
2492,0.0020,0.0095,0.0113,0.0035
2493,0.0018,0.0122,0.0148,0.0036
2494,0.0031,0.0083,0.0088,0.0041
2495,0.0034,0.0092,0.0102,0.0040
2496,0.0039,0.0102,0.0112,0.0053
2497,0.0036,0.0137,0.0145,0.0050
2498,0.0028,0.0153,0.0196,0.0042
2499,0.0027,0.0147,0.0208,0.0039
2500,0.0032,0.0130,0.0135,0.0037
2501,0.0053,0.0386,0.0378,0.0171
2502,0.0036,0.0217,0.0231,0.0037
2503,0.0037,0.0093,0.0102,0.0040
2504,0.0040,0.0128,0.0135,0.0054
2505,0.0042,0.0148,0.0160,0.0058
2506,0.0044,0.0148,0.0174,0.0061
2507,0.0045,0.0120,0.0133,0.0047
2508,0.0030,0.0457,0.0472,0.0277
2509,0.0044,0.0263,0.0269,0.0184
2510,0.0051,0.0150,0.0151,0.0102
2511,0.0050,0.0206,0.0212,0.0131
2512,0.0047,0.0264,0.0288,0.0153
2513,0.0041,0.0169,0.0136,0.0062
2514,0.0036,0.0154,0.0178,0.0085
2515,0.0034,0.0129,0.0157,0.0082
2516,0.0034,0.0090,0.0096,0.0056
2517,0.0030,0.0137,0.0144,0.0048
2518,0.0030,0.0119,0.0141,0.0039
2519,0.0036,0.0137,0.0145,0.0050
2520,0.0020,0.0159,0.0214,0.0034
2521,0.0027,0.0196,0.0260,0.0041
2522,0.0025,0.0241,0.0296,0.0059
2523,0.0022,0.0159,0.0180,0.0102
2524,0.0047,0.0197,0.0168,0.0079
2525,0.0022,0.0133,0.0150,0.0095
2526,0.0020,0.0114,0.0125,0.0089
2527,0.0019,0.0177,0.0219,0.0075
2528,0.0018,0.0174,0.0225,0.0095
2529,0.0024,0.0200,0.0228,0.0183
2530,0.0050,0.0189,0.0213,0.0182
2531,0.0028,0.0153,0.0196,0.0042
2532,0.0020,0.0095,0.0113,0.0035
2533,0.0018,0.0122,0.0148,0.0036
2534,0.0024,0.0092,0.0109,0.0036
2535,0.0043,0.0262,0.0242,0.0082
2536,0.0020,0.0095,0.0113,0.0035
2537,0.0018,0.0122,0.0148,0.0036
2538,0.0020,0.0095,0.0113,0.0035
2539,0.0020,0.0095,0.0113,0.0035
2540,0.0024,0.0092,0.0109,0.0036
2541,0.0020,0.0095,0.0113,0.0035
2542,0.0020,0.0095,0.0113,0.0035
2543,0.0027,0.0147,0.0208,0.0039
2544,0.0020,0.0095,0.0113,0.0035
2545,0.0024,0.0092,0.0109,0.0036
2546,0.0039,0.0292,0.0272,0.0068
2547,0.0018,0.0122,0.0148,0.0036
2548,0.0020,0.0095,0.0113,0.0035
2549,0.0020,0.0095,0.0113,0.0035
2550,0.0018,0.0122,0.0148,0.0036
2551,0.0024,0.0092,0.0109,0.0036
2552,0.0020,0.0095,0.0113,0.0035
2553,0.0018,0.0122,0.0148,0.0036
2554,0.0020,0.0095,0.0113,0.0035
2555,0.0033,0.0099,0.0120,0.0037
2556,0.0024,0.0092,0.0109,0.0036
2557,0.0047,0.0300,0.0300,0.0068
2558,0.0020,0.0095,0.0113,0.0035
2559,0.0020,0.0095,0.0113,0.0035
2560,0.0018,0.0122,0.0148,0.0036
2561,0.0020,0.0095,0.0113,0.0035
2562,0.0024,0.0092,0.0109,0.0036
2563,0.0018,0.0122,0.0148,0.0036
2564,0.0020,0.0095,0.0113,0.0035
2565,0.0020,0.0095,0.0113,0.0035
2566,0.0018,0.0122,0.0148,0.0036
2567,0.0037,0.0116,0.0115,0.0039
2568,0.0069,0.0267,0.0202,0.0086
2569,0.0020,0.0095,0.0113,0.0035
2570,0.0018,0.0122,0.0148,0.0036
2571,0.0020,0.0095,0.0113,0.0035
2572,0.0020,0.0095,0.0113,0.0035
2573,0.0024,0.0092,0.0109,0.0036
2574,0.0057,0.0147,0.0244,0.0078
2575,0.0040,0.0118,0.0200,0.0051
2576,0.0032,0.0129,0.0173,0.0042
2577,0.0032,0.0099,0.0131,0.0048
2578,0.0032,0.0130,0.0135,0.0037
2579,0.0059,0.0269,0.0249,0.0069
2580,0.0040,0.0128,0.0135,0.0054
2581,0.0032,0.0104,0.0101,0.0054
2582,0.0031,0.0109,0.0108,0.0051
2583,0.0027,0.0147,0.0171,0.0044
2584,0.0024,0.0106,0.0116,0.0042
2585,0.0019,0.0123,0.0150,0.0036
2586,0.0027,0.0103,0.0113,0.0042
2587,0.0042,0.0101,0.0106,0.0049
2588,0.0036,0.0137,0.0145,0.0050
2589,0.0029,0.0194,0.0222,0.0041
2590,0.0065,0.0251,0.0207,0.0074
2591,0.0026,0.0122,0.0162,0.0037
2592,0.0042,0.0148,0.0160,0.0058
2593,0.0035,0.0115,0.0150,0.0038
2594,0.0037,0.0093,0.0102,0.0040
2595,0.0039,0.0122,0.0128,0.0045
2596,0.0043,0.0169,0.0178,0.0065
2597,0.0044,0.0148,0.0174,0.0061
2598,0.0030,0.0457,0.0472,0.0277
2599,0.0044,0.0191,0.0198,0.0132
2600,0.0053,0.0273,0.0281,0.0190
2601,0.0067,0.0261,0.0197,0.0072
2602,0.0073,0.0311,0.0460,0.0378
2603,0.0052,0.0258,0.0370,0.0324
2604,0.0042,0.0262,0.0356,0.0323
2605,0.0046,0.0337,0.0438,0.0393
2606,0.0071,0.0386,0.0464,0.0383
2607,0.0022,0.0084,0.0101,0.0035
2608,0.0022,0.0084,0.0101,0.0035
2609,0.0019,0.0113,0.0137,0.0036
2610,0.0034,0.0083,0.0095,0.0040
2611,0.0038,0.0091,0.0107,0.0040
2612,0.0036,0.0206,0.0182,0.0046
2613,0.0047,0.0337,0.0313,0.0143
2614,0.0069,0.0267,0.0202,0.0086
2615,0.0041,0.0096,0.0105,0.0052
2616,0.0037,0.0120,0.0121,0.0049
2617,0.0029,0.0114,0.0148,0.0042
2618,0.0027,0.0136,0.0200,0.0038
2619,0.0032,0.0119,0.0104,0.0037
2620,0.0037,0.0085,0.0092,0.0038
2621,0.0040,0.0113,0.0122,0.0051
2622,0.0042,0.0130,0.0148,0.0057
2623,0.0044,0.0143,0.0169,0.0060
2624,0.0047,0.0115,0.0125,0.0046
2625,0.0073,0.0257,0.0184,0.0088
2626,0.0031,0.0500,0.0507,0.0309
2627,0.0046,0.0289,0.0295,0.0206
2628,0.0053,0.0169,0.0168,0.0117
2629,0.0053,0.0225,0.0237,0.0145
2630,0.0051,0.0282,0.0313,0.0161
2631,0.0040,0.0154,0.0183,0.0086
2632,0.0038,0.0123,0.0160,0.0080
2633,0.0038,0.0081,0.0096,0.0056
2634,0.0033,0.0129,0.0138,0.0047
2635,0.0032,0.0095,0.0112,0.0039
2636,0.0102,0.0343,0.0335,0.0230
2637,0.0037,0.0120,0.0121,0.0049
2638,0.0021,0.0143,0.0192,0.0034
2639,0.0028,0.0188,0.0254,0.0043
2640,0.0026,0.0232,0.0286,0.0065
2641,0.0022,0.0145,0.0169,0.0111
2642,0.0022,0.0119,0.0136,0.0108
2643,0.0020,0.0112,0.0115,0.0108
2644,0.0019,0.0153,0.0185,0.0091
2645,0.0018,0.0138,0.0182,0.0114
2646,0.0025,0.0186,0.0209,0.0209
2647,0.0089,0.0334,0.0307,0.0221
2648,0.0052,0.0218,0.0218,0.0225
2649,0.0029,0.0114,0.0148,0.0042
2650,0.0022,0.0084,0.0101,0.0035
2651,0.0019,0.0113,0.0137,0.0036
2652,0.0025,0.0082,0.0099,0.0036
2653,0.0022,0.0084,0.0101,0.0035
2654,0.0019,0.0113,0.0137,0.0036
2655,0.0022,0.0084,0.0101,0.0035
2656,0.0022,0.0084,0.0101,0.0035
2657,0.0025,0.0082,0.0099,0.0036
2658,0.0077,0.0353,0.0357,0.0190
2659,0.0022,0.0084,0.0101,0.0035
2660,0.0022,0.0084,0.0101,0.0035
2661,0.0027,0.0136,0.0200,0.0038
2662,0.0022,0.0084,0.0101,0.0035
2663,0.0025,0.0082,0.0099,0.0036
2664,0.0019,0.0113,0.0137,0.0036
2665,0.0022,0.0084,0.0101,0.0035
2666,0.0022,0.0084,0.0101,0.0035
2667,0.0019,0.0113,0.0137,0.0036
2668,0.0025,0.0082,0.0099,0.0036
2669,0.0073,0.0240,0.0325,0.0343
2670,0.0022,0.0084,0.0101,0.0035
2671,0.0019,0.0113,0.0137,0.0036
2672,0.0022,0.0084,0.0101,0.0035
2673,0.0033,0.0087,0.0087,0.0036
2674,0.0025,0.0082,0.0099,0.0036
2675,0.0022,0.0084,0.0101,0.0035
2676,0.0022,0.0084,0.0101,0.0035
2677,0.0019,0.0113,0.0137,0.0036
2678,0.0022,0.0084,0.0101,0.0035
2679,0.0025,0.0082,0.0099,0.0036
2680,0.0063,0.0234,0.0313,0.0286
2681,0.0019,0.0113,0.0137,0.0036
2682,0.0022,0.0084,0.0101,0.0035
2683,0.0022,0.0084,0.0101,0.0035
2684,0.0019,0.0113,0.0137,0.0036
2685,0.0036,0.0110,0.0101,0.0037
2686,0.0022,0.0084,0.0101,0.0035
2687,0.0019,0.0113,0.0137,0.0036
2688,0.0022,0.0084,0.0101,0.0035
2689,0.0022,0.0084,0.0101,0.0035
2690,0.0025,0.0082,0.0099,0.0036
2691,0.0049,0.0233,0.0300,0.0241
2692,0.0057,0.0146,0.0279,0.0067
2693,0.0039,0.0122,0.0244,0.0047
2694,0.0032,0.0123,0.0202,0.0043
2695,0.0031,0.0090,0.0168,0.0052
2696,0.0032,0.0119,0.0104,0.0037
2697,0.0040,0.0113,0.0122,0.0051
2698,0.0032,0.0088,0.0107,0.0057
2699,0.0031,0.0103,0.0102,0.0054
2700,0.0028,0.0151,0.0173,0.0046
2701,0.0025,0.0108,0.0122,0.0042
2702,0.0046,0.0229,0.0293,0.0209
2703,0.0021,0.0113,0.0141,0.0036
2704,0.0030,0.0103,0.0117,0.0041
2705,0.0044,0.0093,0.0096,0.0049
2706,0.0037,0.0120,0.0121,0.0049
2707,0.0030,0.0163,0.0177,0.0041
2708,0.0026,0.0114,0.0159,0.0037
2709,0.0042,0.0130,0.0148,0.0057
2710,0.0035,0.0103,0.0124,0.0037
2711,0.0037,0.0085,0.0092,0.0038
2712,0.0039,0.0098,0.0103,0.0043
2713,0.0063,0.0239,0.0307,0.0210
2714,0.0043,0.0155,0.0170,0.0063
2715,0.0044,0.0143,0.0169,0.0060
2716,0.0031,0.0500,0.0507,0.0309
2717,0.0046,0.0216,0.0223,0.0156
2718,0.0055,0.0296,0.0301,0.0205
2719,0.0076,0.0328,0.0481,0.0395
2720,0.0053,0.0273,0.0390,0.0344
2721,0.0042,0.0271,0.0369,0.0336
2722,0.0044,0.0353,0.0458,0.0407
2723,0.0068,0.0413,0.0511,0.0418
2724,0.0041,0.0298,0.0284,0.0121
2725,0.0035,0.0175,0.0180,0.0040
2726,0.0035,0.0175,0.0180,0.0040
2727,0.0035,0.0175,0.0180,0.0040
2728,0.0041,0.0143,0.0128,0.0057
2729,0.0042,0.0133,0.0121,0.0053
2730,0.0048,0.0165,0.0152,0.0073
2731,0.0044,0.0220,0.0219,0.0074
2732,0.0040,0.0269,0.0297,0.0061
2733,0.0046,0.0241,0.0274,0.0053
2734,0.0056,0.0196,0.0202,0.0048
2735,0.0043,0.0267,0.0262,0.0100
2736,0.0065,0.0198,0.0189,0.0058
2737,0.0068,0.0200,0.0171,0.0069
2738,0.0068,0.0210,0.0178,0.0079
2739,0.0070,0.0219,0.0175,0.0085
2740,0.0048,0.0158,0.0148,0.0067
2741,0.0100,0.0285,0.0324,0.0128
2742,0.0090,0.0223,0.0234,0.0119
2743,0.0082,0.0228,0.0237,0.0112
2744,0.0069,0.0219,0.0236,0.0099
2745,0.0053,0.0281,0.0305,0.0111
2746,0.0048,0.0259,0.0266,0.0085
2747,0.0044,0.0229,0.0239,0.0085
2748,0.0038,0.0202,0.0212,0.0073
2749,0.0041,0.0203,0.0208,0.0065
2750,0.0047,0.0215,0.0230,0.0063
2751,0.0043,0.0195,0.0215,0.0049
2752,0.0044,0.0220,0.0219,0.0074
2753,0.0037,0.0236,0.0291,0.0030
2754,0.0044,0.0332,0.0433,0.0039
2755,0.0051,0.0389,0.0487,0.0047
2756,0.0054,0.0325,0.0376,0.0058
2757,0.0044,0.0231,0.0230,0.0064
2758,0.0058,0.0346,0.0386,0.0075
2759,0.0054,0.0347,0.0371,0.0108
2760,0.0050,0.0408,0.0430,0.0155
2761,0.0050,0.0473,0.0493,0.0190
2762,0.0058,0.0402,0.0417,0.0162
2763,0.0083,0.0362,0.0375,0.0168
2764,0.0040,0.0269,0.0297,0.0061
2765,0.0035,0.0175,0.0180,0.0040
2766,0.0035,0.0175,0.0180,0.0040
2767,0.0036,0.0156,0.0157,0.0038
2768,0.0043,0.0267,0.0229,0.0086
2769,0.0035,0.0175,0.0180,0.0040
2770,0.0035,0.0175,0.0180,0.0040
2771,0.0035,0.0175,0.0180,0.0040
2772,0.0035,0.0175,0.0180,0.0040
2773,0.0036,0.0156,0.0157,0.0038
2774,0.0035,0.0175,0.0180,0.0040
2775,0.0035,0.0175,0.0180,0.0040
2776,0.0046,0.0241,0.0274,0.0053
2777,0.0035,0.0175,0.0180,0.0040
2778,0.0036,0.0156,0.0157,0.0038
2779,0.0036,0.0262,0.0291,0.0030
2780,0.0035,0.0175,0.0180,0.0040
2781,0.0035,0.0175,0.0180,0.0040
2782,0.0035,0.0175,0.0180,0.0040
2783,0.0035,0.0175,0.0180,0.0040
2784,0.0036,0.0156,0.0157,0.0038
2785,0.0035,0.0175,0.0180,0.0040
2786,0.0035,0.0175,0.0180,0.0040
2787,0.0035,0.0175,0.0180,0.0040
2788,0.0058,0.0216,0.0229,0.0052
2789,0.0036,0.0156,0.0157,0.0038
2790,0.0042,0.0348,0.0430,0.0047
2791,0.0035,0.0175,0.0180,0.0040
2792,0.0035,0.0175,0.0180,0.0040
2793,0.0035,0.0175,0.0180,0.0040
2794,0.0035,0.0175,0.0180,0.0040
2795,0.0036,0.0156,0.0157,0.0038
2796,0.0035,0.0175,0.0180,0.0040
2797,0.0035,0.0175,0.0180,0.0040
2798,0.0035,0.0175,0.0180,0.0040
2799,0.0035,0.0175,0.0180,0.0040
2800,0.0064,0.0180,0.0166,0.0053
2801,0.0051,0.0405,0.0486,0.0068
2802,0.0035,0.0175,0.0180,0.0040
2803,0.0035,0.0175,0.0180,0.0040
2804,0.0035,0.0175,0.0180,0.0040
2805,0.0035,0.0175,0.0180,0.0040
2806,0.0036,0.0156,0.0157,0.0038
2807,0.0053,0.0197,0.0190,0.0100
2808,0.0055,0.0198,0.0186,0.0078
2809,0.0062,0.0208,0.0191,0.0066
2810,0.0068,0.0209,0.0186,0.0059
2811,0.0056,0.0196,0.0202,0.0048
2812,0.0054,0.0370,0.0405,0.0086
2813,0.0068,0.0200,0.0171,0.0069
2814,0.0070,0.0186,0.0174,0.0053
2815,0.0063,0.0175,0.0177,0.0050
2816,0.0053,0.0185,0.0214,0.0046
2817,0.0042,0.0183,0.0199,0.0043
2818,0.0036,0.0194,0.0218,0.0036
2819,0.0041,0.0143,0.0128,0.0057
2820,0.0048,0.0165,0.0152,0.0073
2821,0.0044,0.0220,0.0219,0.0074
2822,0.0039,0.0267,0.0289,0.0056
2823,0.0042,0.0190,0.0148,0.0064
2824,0.0059,0.0415,0.0442,0.0130
2825,0.0046,0.0241,0.0274,0.0053
2826,0.0068,0.0210,0.0178,0.0079
2827,0.0058,0.0216,0.0229,0.0052
2828,0.0065,0.0198,0.0189,0.0058
2829,0.0067,0.0180,0.0150,0.0062
2830,0.0068,0.0210,0.0178,0.0079
2831,0.0070,0.0219,0.0175,0.0085
2832,0.0100,0.0285,0.0324,0.0128
2833,0.0090,0.0223,0.0234,0.0119
2834,0.0080,0.0273,0.0297,0.0124
2835,0.0056,0.0448,0.0468,0.0194
2836,0.0064,0.0194,0.0258,0.0231
2837,0.0063,0.0194,0.0255,0.0224
2838,0.0051,0.0191,0.0243,0.0218
2839,0.0043,0.0179,0.0214,0.0189
2840,0.0056,0.0191,0.0210,0.0168
2841,0.0037,0.0140,0.0147,0.0037
2842,0.0037,0.0140,0.0147,0.0037
2843,0.0037,0.0140,0.0147,0.0037
2844,0.0043,0.0125,0.0118,0.0054
2845,0.0044,0.0111,0.0107,0.0050
2846,0.0050,0.0555,0.0570,0.0276
2847,0.0052,0.0127,0.0118,0.0070
2848,0.0046,0.0157,0.0164,0.0069
2849,0.0040,0.0197,0.0240,0.0055
2850,0.0045,0.0184,0.0230,0.0044
2851,0.0056,0.0135,0.0158,0.0039
2852,0.0066,0.0148,0.0152,0.0047
2853,0.0069,0.0157,0.0145,0.0059
2854,0.0068,0.0176,0.0157,0.0073
2855,0.0069,0.0181,0.0159,0.0083
2856,0.0052,0.0121,0.0117,0.0064
2857,0.0050,0.0646,0.0650,0.0346
2858,0.0100,0.0341,0.0377,0.0152
2859,0.0091,0.0198,0.0226,0.0097
2860,0.0084,0.0180,0.0202,0.0080
2861,0.0072,0.0197,0.0223,0.0081
2862,0.0057,0.0272,0.0310,0.0106
2863,0.0047,0.0202,0.0229,0.0070
2864,0.0041,0.0177,0.0198,0.0058
2865,0.0044,0.0166,0.0178,0.0051
2866,0.0048,0.0164,0.0176,0.0051
2867,0.0045,0.0161,0.0187,0.0043
2868,0.0057,0.0613,0.0584,0.0343
2869,0.0046,0.0157,0.0164,0.0069
2870,0.0038,0.0212,0.0277,0.0031
2871,0.0044,0.0309,0.0417,0.0038
2872,0.0051,0.0368,0.0472,0.0048
2873,0.0054,0.0294,0.0350,0.0067
2874,0.0057,0.0313,0.0349,0.0075
2875,0.0054,0.0297,0.0312,0.0090
2876,0.0050,0.0327,0.0333,0.0117
2877,0.0051,0.0370,0.0383,0.0140
2878,0.0060,0.0301,0.0317,0.0130
2879,0.0079,0.0578,0.0530,0.0363
2880,0.0087,0.0285,0.0308,0.0168
2881,0.0040,0.0197,0.0240,0.0055
2882,0.0037,0.0140,0.0147,0.0037
2883,0.0037,0.0140,0.0147,0.0037
2884,0.0037,0.0114,0.0119,0.0036
2885,0.0037,0.0140,0.0147,0.0037
2886,0.0037,0.0140,0.0147,0.0037
2887,0.0037,0.0140,0.0147,0.0037
2888,0.0037,0.0140,0.0147,0.0037
2889,0.0037,0.0114,0.0119,0.0036
2890,0.0041,0.0309,0.0280,0.0080
2891,0.0037,0.0140,0.0147,0.0037
2892,0.0037,0.0140,0.0147,0.0037
2893,0.0045,0.0184,0.0230,0.0044
2894,0.0037,0.0140,0.0147,0.0037
2895,0.0037,0.0114,0.0119,0.0036
2896,0.0037,0.0140,0.0147,0.0037
2897,0.0037,0.0140,0.0147,0.0037
2898,0.0037,0.0140,0.0147,0.0037
2899,0.0037,0.0140,0.0147,0.0037
2900,0.0037,0.0114,0.0119,0.0036
2901,0.0036,0.0206,0.0182,0.0046
2902,0.0037,0.0140,0.0147,0.0037
2903,0.0037,0.0140,0.0147,0.0037
2904,0.0037,0.0140,0.0147,0.0037
2905,0.0058,0.0160,0.0190,0.0042
2906,0.0037,0.0114,0.0119,0.0036
2907,0.0037,0.0140,0.0147,0.0037
2908,0.0037,0.0140,0.0147,0.0037
2909,0.0037,0.0140,0.0147,0.0037
2910,0.0037,0.0140,0.0147,0.0037
2911,0.0037,0.0114,0.0119,0.0036
2912,0.0036,0.0206,0.0182,0.0046
2913,0.0037,0.0140,0.0147,0.0037
2914,0.0037,0.0140,0.0147,0.0037
2915,0.0037,0.0140,0.0147,0.0037
2916,0.0037,0.0140,0.0147,0.0037
2917,0.0064,0.0124,0.0124,0.0043
2918,0.0037,0.0140,0.0147,0.0037
2919,0.0037,0.0140,0.0147,0.0037
2920,0.0037,0.0140,0.0147,0.0037
2921,0.0037,0.0140,0.0147,0.0037
2922,0.0037,0.0114,0.0119,0.0036
2923,0.0035,0.0191,0.0159,0.0044
2924,0.0053,0.0177,0.0191,0.0084
2925,0.0054,0.0171,0.0165,0.0069
2926,0.0060,0.0177,0.0164,0.0064
2927,0.0066,0.0171,0.0143,0.0062
2928,0.0056,0.0135,0.0158,0.0039
2929,0.0069,0.0157,0.0145,0.0059
2930,0.0068,0.0149,0.0122,0.0058
2931,0.0062,0.0139,0.0133,0.0054
2932,0.0053,0.0140,0.0162,0.0047
2933,0.0042,0.0127,0.0138,0.0042
2934,0.0042,0.0187,0.0143,0.0060
2935,0.0036,0.0206,0.0182,0.0046
2936,0.0037,0.0156,0.0180,0.0034
2937,0.0043,0.0125,0.0118,0.0054
2938,0.0052,0.0127,0.0118,0.0070
2939,0.0046,0.0157,0.0164,0.0069
2940,0.0040,0.0189,0.0222,0.0050
2941,0.0045,0.0184,0.0230,0.0044
2942,0.0068,0.0176,0.0157,0.0073
2943,0.0058,0.0160,0.0190,0.0042
2944,0.0066,0.0148,0.0152,0.0047
2945,0.0067,0.0136,0.0126,0.0052
2946,0.0036,0.0206,0.0182,0.0046
2947,0.0068,0.0176,0.0157,0.0073
2948,0.0069,0.0181,0.0159,0.0083
2949,0.0100,0.0341,0.0377,0.0152
2950,0.0091,0.0198,0.0226,0.0097
2951,0.0083,0.0249,0.0283,0.0113
2952,0.0059,0.0188,0.0264,0.0216
2953,0.0060,0.0177,0.0243,0.0223
2954,0.0052,0.0204,0.0283,0.0275
2955,0.0043,0.0207,0.0269,0.0261
2956,0.0052,0.0224,0.0254,0.0224
2957,0.0036,0.0206,0.0182,0.0046
2958,0.0037,0.0126,0.0131,0.0037
2959,0.0037,0.0126,0.0131,0.0037
2960,0.0037,0.0126,0.0131,0.0037
2961,0.0045,0.0121,0.0118,0.0053
2962,0.0046,0.0104,0.0106,0.0050
2963,0.0053,0.0115,0.0107,0.0069
2964,0.0047,0.0128,0.0132,0.0068
2965,0.0041,0.0155,0.0192,0.0053
2966,0.0045,0.0170,0.0221,0.0041
2967,0.0056,0.0113,0.0128,0.0037
2968,0.0036,0.0206,0.0182,0.0046
2969,0.0066,0.0143,0.0148,0.0043
2970,0.0069,0.0144,0.0137,0.0055
2971,0.0068,0.0161,0.0149,0.0070
2972,0.0068,0.0172,0.0156,0.0082
2973,0.0054,0.0108,0.0106,0.0063
2974,0.0100,0.0392,0.0420,0.0190
2975,0.0091,0.0226,0.0253,0.0121
2976,0.0084,0.0195,0.0217,0.0094
2977,0.0073,0.0208,0.0239,0.0090
2978,0.0059,0.0284,0.0326,0.0111
2979,0.0035,0.0191,0.0159,0.0044
2980,0.0050,0.0203,0.0237,0.0070
2981,0.0043,0.0175,0.0204,0.0056
2982,0.0046,0.0156,0.0172,0.0047
2983,0.0050,0.0152,0.0165,0.0048
2984,0.0046,0.0140,0.0162,0.0041
2985,0.0047,0.0128,0.0132,0.0068
2986,0.0038,0.0195,0.0257,0.0031
2987,0.0045,0.0298,0.0407,0.0038
2988,0.0051,0.0359,0.0462,0.0052
2989,0.0054,0.0282,0.0340,0.0078
2990,0.0036,0.0206,0.0182,0.0046
2991,0.0057,0.0300,0.0336,0.0085
2992,0.0054,0.0285,0.0296,0.0097
2993,0.0050,0.0304,0.0302,0.0119
2994,0.0051,0.0336,0.0341,0.0140
2995,0.0061,0.0267,0.0282,0.0149
2996,0.0088,0.0282,0.0293,0.0202
2997,0.0041,0.0155,0.0192,0.0053
2998,0.0037,0.0126,0.0131,0.0037
2999,0.0037,0.0126,0.0131,0.0037
3000,0.0038,0.0101,0.0104,0.0035
3001,0.0036,0.0206,0.0182,0.0046
3002,0.0037,0.0126,0.0131,0.0037
3003,0.0037,0.0126,0.0131,0.0037
3004,0.0037,0.0126,0.0131,0.0037
3005,0.0037,0.0126,0.0131,0.0037
3006,0.0038,0.0101,0.0104,0.0035
3007,0.0037,0.0126,0.0131,0.0037
3008,0.0037,0.0126,0.0131,0.0037
3009,0.0045,0.0170,0.0221,0.0041
3010,0.0037,0.0126,0.0131,0.0037
3011,0.0038,0.0101,0.0104,0.0035
3012,0.0048,0.0310,0.0289,0.0076
3013,0.0037,0.0126,0.0131,0.0037
3014,0.0037,0.0126,0.0131,0.0037
3015,0.0037,0.0126,0.0131,0.0037
3016,0.0037,0.0126,0.0131,0.0037
3017,0.0038,0.0101,0.0104,0.0035
3018,0.0037,0.0126,0.0131,0.0037
3019,0.0037,0.0126,0.0131,0.0037
3020,0.0037,0.0126,0.0131,0.0037
3021,0.0058,0.0142,0.0164,0.0039
3022,0.0038,0.0101,0.0104,0.0035
3023,0.0036,0.0206,0.0182,0.0046
3024,0.0037,0.0126,0.0131,0.0037
3025,0.0037,0.0126,0.0131,0.0037
3026,0.0037,0.0126,0.0131,0.0037
3027,0.0037,0.0126,0.0131,0.0037
3028,0.0038,0.0101,0.0104,0.0035
3029,0.0037,0.0126,0.0131,0.0037
3030,0.0037,0.0126,0.0131,0.0037
3031,0.0037,0.0126,0.0131,0.0037
3032,0.0037,0.0126,0.0131,0.0037
3033,0.0064,0.0119,0.0121,0.0039
3034,0.0035,0.0191,0.0159,0.0044
3035,0.0037,0.0126,0.0131,0.0037
3036,0.0037,0.0126,0.0131,0.0037
3037,0.0037,0.0126,0.0131,0.0037
3038,0.0037,0.0126,0.0131,0.0037
3039,0.0038,0.0101,0.0104,0.0035
3040,0.0053,0.0172,0.0217,0.0079
3041,0.0054,0.0165,0.0195,0.0067
3042,0.0059,0.0170,0.0183,0.0065
3043,0.0065,0.0162,0.0158,0.0065
3044,0.0056,0.0113,0.0128,0.0037
3045,0.0048,0.0196,0.0149,0.0082
3046,0.0036,0.0206,0.0182,0.0046
3047,0.0069,0.0144,0.0137,0.0055
3048,0.0068,0.0137,0.0117,0.0061
3049,0.0062,0.0129,0.0123,0.0056
3050,0.0053,0.0138,0.0157,0.0048
3051,0.0043,0.0124,0.0138,0.0043
3052,0.0038,0.0145,0.0169,0.0033
3053,0.0045,0.0121,0.0118,0.0053
3054,0.0053,0.0115,0.0107,0.0069
3055,0.0047,0.0128,0.0132,0.0068
3056,0.0040,0.0150,0.0176,0.0049
3057,0.0036,0.0206,0.0182,0.0046
3058,0.0045,0.0170,0.0221,0.0041
3059,0.0068,0.0161,0.0149,0.0070
3060,0.0058,0.0142,0.0164,0.0039
3061,0.0066,0.0143,0.0148,0.0043
3062,0.0067,0.0118,0.0112,0.0049
3063,0.0068,0.0161,0.0149,0.0070
3064,0.0068,0.0172,0.0156,0.0082
3065,0.0100,0.0392,0.0420,0.0190
3066,0.0091,0.0226,0.0253,0.0121
3067,0.0084,0.0267,0.0300,0.0130
3068,0.0036,0.0206,0.0182,0.0046
3069,0.0058,0.0200,0.0289,0.0239
3070,0.0057,0.0181,0.0255,0.0239
3071,0.0052,0.0218,0.0310,0.0303
3072,0.0042,0.0239,0.0317,0.0303
3073,0.0050,0.0251,0.0301,0.0260
3074,0.0018,0.0182,0.0154,0.0041
3075,0.0018,0.0182,0.0154,0.0041
3076,0.0019,0.0202,0.0190,0.0043
3077,0.0025,0.0174,0.0134,0.0050
3078,0.0027,0.0177,0.0137,0.0048
3079,0.0036,0.0206,0.0182,0.0046
3080,0.0032,0.0193,0.0159,0.0069
3081,0.0028,0.0252,0.0220,0.0069
3082,0.0027,0.0289,0.0264,0.0064
3083,0.0037,0.0298,0.0287,0.0068
3084,0.0044,0.0270,0.0220,0.0058
3085,0.0052,0.0235,0.0169,0.0065
3086,0.0056,0.0259,0.0195,0.0076
3087,0.0055,0.0243,0.0172,0.0069
3088,0.0067,0.0258,0.0174,0.0070
3089,0.0033,0.0182,0.0143,0.0059
3090,0.0035,0.0191,0.0159,0.0044
3091,0.0057,0.0417,0.0406,0.0270
3092,0.0044,0.0358,0.0327,0.0228
3093,0.0040,0.0308,0.0282,0.0193
3094,0.0036,0.0316,0.0298,0.0158
3095,0.0034,0.0401,0.0377,0.0180
3096,0.0034,0.0306,0.0268,0.0130
3097,0.0031,0.0296,0.0267,0.0122
3098,0.0030,0.0230,0.0203,0.0090
3099,0.0028,0.0233,0.0229,0.0076
3100,0.0026,0.0200,0.0187,0.0053
3101,0.0036,0.0206,0.0182,0.0046
3102,0.0028,0.0252,0.0220,0.0069
3103,0.0020,0.0237,0.0258,0.0032
3104,0.0024,0.0268,0.0311,0.0041
3105,0.0028,0.0310,0.0349,0.0055
3106,0.0031,0.0268,0.0272,0.0081
3107,0.0037,0.0283,0.0280,0.0100
3108,0.0036,0.0308,0.0311,0.0146
3109,0.0033,0.0456,0.0479,0.0236
3110,0.0030,0.0494,0.0500,0.0269
3111,0.0038,0.0484,0.0455,0.0285
3112,0.0036,0.0206,0.0182,0.0046
3113,0.0060,0.0471,0.0431,0.0313
3114,0.0027,0.0289,0.0264,0.0064
3115,0.0018,0.0182,0.0154,0.0041
3116,0.0019,0.0202,0.0190,0.0043
3117,0.0020,0.0178,0.0143,0.0040
3118,0.0018,0.0182,0.0154,0.0041
3119,0.0019,0.0202,0.0190,0.0043
3120,0.0018,0.0182,0.0154,0.0041
3121,0.0018,0.0182,0.0154,0.0041
3122,0.0020,0.0178,0.0143,0.0040
3123,0.0036,0.0206,0.0182,0.0046
3124,0.0018,0.0182,0.0154,0.0041
3125,0.0018,0.0182,0.0154,0.0041
3126,0.0037,0.0298,0.0287,0.0068
3127,0.0018,0.0182,0.0154,0.0041
3128,0.0020,0.0178,0.0143,0.0040
3129,0.0019,0.0202,0.0190,0.0043
3130,0.0018,0.0182,0.0154,0.0041
3131,0.0018,0.0182,0.0154,0.0041
3132,0.0019,0.0202,0.0190,0.0043
3133,0.0020,0.0178,0.0143,0.0040
3134,0.0059,0.0301,0.0261,0.0076
3135,0.0018,0.0182,0.0154,0.0041
3136,0.0019,0.0202,0.0190,0.0043
3137,0.0018,0.0182,0.0154,0.0041
3138,0.0046,0.0258,0.0212,0.0062
3139,0.0020,0.0178,0.0143,0.0040
3140,0.0018,0.0182,0.0154,0.0041
3141,0.0018,0.0182,0.0154,0.0041
3142,0.0019,0.0202,0.0190,0.0043
3143,0.0018,0.0182,0.0154,0.0041
3144,0.0020,0.0178,0.0143,0.0040
3145,0.0035,0.0191,0.0159,0.0044
3146,0.0019,0.0202,0.0190,0.0043
3147,0.0018,0.0182,0.0154,0.0041
3148,0.0018,0.0182,0.0154,0.0041
3149,0.0019,0.0202,0.0190,0.0043
3150,0.0051,0.0243,0.0173,0.0061
3151,0.0018,0.0182,0.0154,0.0041
3152,0.0019,0.0202,0.0190,0.0043
3153,0.0018,0.0182,0.0154,0.0041
3154,0.0018,0.0182,0.0154,0.0041
3155,0.0020,0.0178,0.0143,0.0040
3156,0.0043,0.0267,0.0229,0.0086
3157,0.0036,0.0206,0.0182,0.0046
3158,0.0043,0.0218,0.0328,0.0138
3159,0.0050,0.0223,0.0321,0.0107
3160,0.0055,0.0242,0.0334,0.0079
3161,0.0058,0.0221,0.0289,0.0064
3162,0.0044,0.0270,0.0220,0.0058
3163,0.0056,0.0259,0.0195,0.0076
3164,0.0054,0.0220,0.0258,0.0042
3165,0.0048,0.0201,0.0230,0.0038
3166,0.0039,0.0229,0.0268,0.0035
3167,0.0030,0.0197,0.0202,0.0037
3168,0.0036,0.0206,0.0182,0.0046
3169,0.0021,0.0206,0.0208,0.0037
3170,0.0025,0.0189,0.0161,0.0054
3171,0.0033,0.0180,0.0138,0.0063
3172,0.0028,0.0252,0.0220,0.0069
3173,0.0026,0.0298,0.0269,0.0060
3174,0.0035,0.0272,0.0243,0.0062
3175,0.0055,0.0243,0.0172,0.0069
3176,0.0049,0.0271,0.0236,0.0068
3177,0.0052,0.0235,0.0169,0.0065
3178,0.0052,0.0252,0.0180,0.0062
3179,0.0036,0.0206,0.0182,0.0046
3180,0.0056,0.0251,0.0188,0.0077
3181,0.0067,0.0258,0.0174,0.0070
3182,0.0057,0.0417,0.0406,0.0270
3183,0.0044,0.0332,0.0287,0.0232
3184,0.0040,0.0374,0.0360,0.0204
3185,0.0092,0.0275,0.0397,0.0410
3186,0.0074,0.0264,0.0366,0.0339
3187,0.0051,0.0264,0.0354,0.0285
3188,0.0035,0.0277,0.0371,0.0259
3189,0.0054,0.0276,0.0373,0.0243
3190,0.0036,0.0206,0.0182,0.0046
3191,0.0018,0.0172,0.0157,0.0039
3192,0.0018,0.0172,0.0157,0.0039
3193,0.0018,0.0195,0.0193,0.0041
3194,0.0025,0.0152,0.0121,0.0048
3195,0.0026,0.0149,0.0119,0.0046
3196,0.0031,0.0199,0.0182,0.0067
3197,0.0029,0.0256,0.0243,0.0065
3198,0.0026,0.0286,0.0274,0.0059
3199,0.0036,0.0300,0.0309,0.0060
3200,0.0043,0.0238,0.0210,0.0053
3201,0.0035,0.0191,0.0159,0.0044
3202,0.0052,0.0212,0.0167,0.0060
3203,0.0055,0.0236,0.0191,0.0072
3204,0.0054,0.0216,0.0162,0.0067
3205,0.0064,0.0230,0.0161,0.0067
3206,0.0033,0.0180,0.0162,0.0057
3207,0.0053,0.0390,0.0402,0.0224
3208,0.0043,0.0315,0.0297,0.0186
3209,0.0040,0.0263,0.0245,0.0155
3210,0.0036,0.0271,0.0260,0.0134
3211,0.0032,0.0358,0.0345,0.0163
3212,0.0036,0.0206,0.0182,0.0046
3213,0.0030,0.0261,0.0237,0.0111
3214,0.0028,0.0238,0.0225,0.0103
3215,0.0030,0.0192,0.0174,0.0077
3216,0.0027,0.0220,0.0216,0.0070
3217,0.0026,0.0189,0.0185,0.0049
3218,0.0029,0.0256,0.0243,0.0065
3219,0.0020,0.0225,0.0254,0.0031
3220,0.0025,0.0255,0.0304,0.0039
3221,0.0028,0.0299,0.0342,0.0050
3222,0.0030,0.0253,0.0259,0.0075
3223,0.0036,0.0206,0.0182,0.0046
3224,0.0036,0.0259,0.0263,0.0083
3225,0.0036,0.0272,0.0281,0.0117
3226,0.0032,0.0414,0.0447,0.0195
3227,0.0030,0.0445,0.0463,0.0214
3228,0.0038,0.0422,0.0415,0.0227
3229,0.0062,0.0400,0.0385,0.0241
3230,0.0026,0.0286,0.0274,0.0059
3231,0.0018,0.0172,0.0157,0.0039
3232,0.0018,0.0195,0.0193,0.0041
3233,0.0020,0.0164,0.0143,0.0038
3234,0.0036,0.0206,0.0182,0.0046
3235,0.0018,0.0172,0.0157,0.0039
3236,0.0018,0.0195,0.0193,0.0041
3237,0.0018,0.0172,0.0157,0.0039
3238,0.0018,0.0172,0.0157,0.0039
3239,0.0020,0.0164,0.0143,0.0038
3240,0.0018,0.0172,0.0157,0.0039
3241,0.0018,0.0172,0.0157,0.0039
3242,0.0036,0.0300,0.0309,0.0060
3243,0.0018,0.0172,0.0157,0.0039
3244,0.0020,0.0164,0.0143,0.0038
3245,0.0036,0.0206,0.0182,0.0046
3246,0.0018,0.0195,0.0193,0.0041
3247,0.0018,0.0172,0.0157,0.0039
3248,0.0018,0.0172,0.0157,0.0039
3249,0.0018,0.0195,0.0193,0.0041
3250,0.0020,0.0164,0.0143,0.0038
3251,0.0018,0.0172,0.0157,0.0039
3252,0.0018,0.0195,0.0193,0.0041
3253,0.0018,0.0172,0.0157,0.0039
3254,0.0046,0.0232,0.0207,0.0056
3255,0.0020,0.0164,0.0143,0.0038
3256,0.0065,0.0273,0.0202,0.0075
3257,0.0018,0.0172,0.0157,0.0039
3258,0.0018,0.0172,0.0157,0.0039
3259,0.0018,0.0195,0.0193,0.0041
3260,0.0018,0.0172,0.0157,0.0039
3261,0.0020,0.0164,0.0143,0.0038
3262,0.0018,0.0195,0.0193,0.0041
3263,0.0018,0.0172,0.0157,0.0039
3264,0.0018,0.0172,0.0157,0.0039
3265,0.0018,0.0195,0.0193,0.0041
3266,0.0050,0.0221,0.0175,0.0056
3267,0.0041,0.0309,0.0280,0.0080
3268,0.0036,0.0206,0.0182,0.0046
3269,0.0018,0.0172,0.0157,0.0039
3270,0.0018,0.0195,0.0193,0.0041
3271,0.0018,0.0172,0.0157,0.0039
3272,0.0018,0.0172,0.0157,0.0039
3273,0.0020,0.0164,0.0143,0.0038
3274,0.0042,0.0195,0.0255,0.0121
3275,0.0046,0.0199,0.0252,0.0090
3276,0.0053,0.0218,0.0268,0.0065
3277,0.0056,0.0198,0.0231,0.0053
3278,0.0043,0.0238,0.0210,0.0053
3279,0.0036,0.0206,0.0182,0.0046
3280,0.0055,0.0236,0.0191,0.0072
3281,0.0052,0.0199,0.0219,0.0040
3282,0.0046,0.0183,0.0199,0.0038
3283,0.0038,0.0227,0.0261,0.0037
3284,0.0029,0.0179,0.0182,0.0038
3285,0.0021,0.0187,0.0192,0.0037
3286,0.0023,0.0175,0.0155,0.0052
3287,0.0032,0.0182,0.0161,0.0061
3288,0.0029,0.0256,0.0243,0.0065
3289,0.0025,0.0293,0.0277,0.0055
3290,0.0036,0.0206,0.0182,0.0046
3291,0.0034,0.0274,0.0271,0.0055
3292,0.0054,0.0216,0.0162,0.0067
3293,0.0048,0.0249,0.0234,0.0062
3294,0.0052,0.0212,0.0167,0.0060
3295,0.0051,0.0226,0.0175,0.0058
3296,0.0055,0.0227,0.0180,0.0075
3297,0.0064,0.0230,0.0161,0.0067
3298,0.0053,0.0390,0.0402,0.0224
3299,0.0043,0.0277,0.0246,0.0180
3300,0.0039,0.0340,0.0334,0.0181
3301,0.0036,0.0206,0.0182,0.0046
3302,0.0089,0.0249,0.0366,0.0354
3303,0.0075,0.0231,0.0324,0.0291
3304,0.0052,0.0225,0.0297,0.0239
3305,0.0034,0.0229,0.0299,0.0209
3306,0.0049,0.0234,0.0303,0.0195
3307,0.0019,0.0152,0.0155,0.0038
3308,0.0019,0.0152,0.0155,0.0038
3309,0.0019,0.0177,0.0190,0.0039
3310,0.0026,0.0127,0.0118,0.0045
3311,0.0029,0.0121,0.0114,0.0043
3312,0.0035,0.0191,0.0159,0.0044
3313,0.0033,0.0172,0.0169,0.0063
3314,0.0032,0.0212,0.0215,0.0059
3315,0.0027,0.0263,0.0295,0.0050
3316,0.0034,0.0244,0.0282,0.0048
3317,0.0043,0.0185,0.0181,0.0042
3318,0.0051,0.0159,0.0148,0.0048
3319,0.0055,0.0174,0.0159,0.0064
3320,0.0052,0.0164,0.0146,0.0062
3321,0.0059,0.0197,0.0152,0.0064
3322,0.0037,0.0153,0.0155,0.0053
3323,0.0054,0.0265,0.0387,0.0144
3324,0.0048,0.0399,0.0429,0.0202
3325,0.0044,0.0270,0.0274,0.0142
3326,0.0045,0.0187,0.0180,0.0094
3327,0.0041,0.0232,0.0232,0.0109
3328,0.0034,0.0294,0.0308,0.0139
3329,0.0029,0.0202,0.0205,0.0085
3330,0.0026,0.0173,0.0185,0.0078
3331,0.0028,0.0142,0.0135,0.0056
3332,0.0027,0.0194,0.0197,0.0060
3333,0.0027,0.0162,0.0172,0.0042
3334,0.0059,0.0273,0.0379,0.0114
3335,0.0032,0.0212,0.0215,0.0059
3336,0.0022,0.0215,0.0260,0.0032
3337,0.0027,0.0248,0.0310,0.0037
3338,0.0029,0.0291,0.0346,0.0047
3339,0.0030,0.0214,0.0233,0.0077
3340,0.0035,0.0209,0.0227,0.0069
3341,0.0034,0.0204,0.0219,0.0076
3342,0.0032,0.0313,0.0355,0.0115
3343,0.0031,0.0320,0.0357,0.0116
3344,0.0040,0.0282,0.0306,0.0148
3345,0.0065,0.0279,0.0366,0.0092
3346,0.0067,0.0258,0.0292,0.0141
3347,0.0027,0.0263,0.0295,0.0050
3348,0.0019,0.0152,0.0155,0.0038
3349,0.0019,0.0177,0.0190,0.0039
3350,0.0021,0.0139,0.0141,0.0037
3351,0.0019,0.0152,0.0155,0.0038
3352,0.0019,0.0177,0.0190,0.0039
3353,0.0019,0.0152,0.0155,0.0038
3354,0.0019,0.0152,0.0155,0.0038
3355,0.0021,0.0139,0.0141,0.0037
3356,0.0072,0.0272,0.0346,0.0073
3357,0.0019,0.0152,0.0155,0.0038
3358,0.0019,0.0152,0.0155,0.0038
3359,0.0034,0.0244,0.0282,0.0048
3360,0.0019,0.0152,0.0155,0.0038
3361,0.0021,0.0139,0.0141,0.0037
3362,0.0019,0.0177,0.0190,0.0039
3363,0.0019,0.0152,0.0155,0.0038
3364,0.0019,0.0152,0.0155,0.0038
3365,0.0019,0.0177,0.0190,0.0039
3366,0.0021,0.0139,0.0141,0.0037
3367,0.0057,0.0290,0.0242,0.0071
3368,0.0019,0.0152,0.0155,0.0038
3369,0.0019,0.0177,0.0190,0.0039
3370,0.0019,0.0152,0.0155,0.0038
3371,0.0045,0.0176,0.0180,0.0044
3372,0.0021,0.0139,0.0141,0.0037
3373,0.0019,0.0152,0.0155,0.0038
3374,0.0019,0.0152,0.0155,0.0038
3375,0.0019,0.0177,0.0190,0.0039
3376,0.0019,0.0152,0.0155,0.0038
3377,0.0021,0.0139,0.0141,0.0037
3378,0.0048,0.0310,0.0289,0.0076
3379,0.0069,0.0298,0.0219,0.0086
3380,0.0019,0.0177,0.0190,0.0039
3381,0.0019,0.0152,0.0155,0.0038
3382,0.0019,0.0152,0.0155,0.0038
3383,0.0019,0.0177,0.0190,0.0039
3384,0.0050,0.0168,0.0155,0.0045
3385,0.0019,0.0152,0.0155,0.0038
3386,0.0019,0.0177,0.0190,0.0039
3387,0.0019,0.0152,0.0155,0.0038
3388,0.0019,0.0152,0.0155,0.0038
3389,0.0021,0.0139,0.0141,0.0037
3390,0.0073,0.0257,0.0306,0.0051
3391,0.0041,0.0153,0.0155,0.0088
3392,0.0044,0.0150,0.0152,0.0063
3393,0.0049,0.0170,0.0169,0.0046
3394,0.0052,0.0157,0.0146,0.0043
3395,0.0043,0.0185,0.0181,0.0042
3396,0.0055,0.0174,0.0159,0.0064
3397,0.0049,0.0149,0.0138,0.0045
3398,0.0043,0.0149,0.0140,0.0044
3399,0.0036,0.0189,0.0214,0.0042
3400,0.0029,0.0155,0.0160,0.0042
3401,0.0066,0.0235,0.0281,0.0045
3402,0.0022,0.0169,0.0185,0.0037
3403,0.0024,0.0156,0.0153,0.0049
3404,0.0035,0.0154,0.0149,0.0057
3405,0.0032,0.0212,0.0215,0.0059
3406,0.0027,0.0279,0.0307,0.0047
3407,0.0032,0.0212,0.0237,0.0044
3408,0.0052,0.0164,0.0146,0.0062
3409,0.0047,0.0197,0.0211,0.0049
3410,0.0051,0.0159,0.0148,0.0048
3411,0.0051,0.0155,0.0131,0.0051
3412,0.0055,0.0235,0.0279,0.0041
3413,0.0053,0.0183,0.0168,0.0071
3414,0.0059,0.0197,0.0152,0.0064
3415,0.0048,0.0399,0.0429,0.0202
3416,0.0044,0.0202,0.0200,0.0104
3417,0.0044,0.0297,0.0303,0.0160
3418,0.0080,0.0208,0.0329,0.0283
3419,0.0076,0.0198,0.0300,0.0270
3420,0.0055,0.0183,0.0259,0.0241
3421,0.0034,0.0179,0.0236,0.0207
3422,0.0042,0.0193,0.0229,0.0178
3423,0.0042,0.0227,0.0247,0.0040
3424,0.0022,0.0118,0.0126,0.0036
3425,0.0022,0.0118,0.0126,0.0036
3426,0.0021,0.0151,0.0167,0.0038
3427,0.0030,0.0106,0.0105,0.0044
3428,0.0033,0.0098,0.0101,0.0042
3429,0.0037,0.0140,0.0141,0.0061
3430,0.0034,0.0156,0.0166,0.0056
3431,0.0027,0.0188,0.0231,0.0046
3432,0.0034,0.0195,0.0247,0.0042
3433,0.0043,0.0134,0.0144,0.0036
3434,0.0036,0.0233,0.0245,0.0038
3435,0.0052,0.0114,0.0108,0.0041
3436,0.0055,0.0144,0.0142,0.0056
3437,0.0052,0.0132,0.0124,0.0059
3438,0.0056,0.0159,0.0138,0.0063
3439,0.0042,0.0123,0.0132,0.0051
3440,0.0047,0.0485,0.0499,0.0261
3441,0.0047,0.0303,0.0309,0.0176
3442,0.0049,0.0185,0.0184,0.0103
3443,0.0045,0.0250,0.0259,0.0129
3444,0.0041,0.0303,0.0332,0.0146
3445,0.0042,0.0190,0.0148,0.0064
3446,0.0033,0.0182,0.0209,0.0081
3447,0.0031,0.0150,0.0182,0.0072
3448,0.0032,0.0112,0.0120,0.0050
3449,0.0030,0.0148,0.0145,0.0053
3450,0.0030,0.0134,0.0151,0.0038
3451,0.0034,0.0156,0.0166,0.0056
3452,0.0024,0.0197,0.0250,0.0032
3453,0.0029,0.0228,0.0298,0.0040
3454,0.0030,0.0273,0.0335,0.0056
3455,0.0030,0.0185,0.0210,0.0095
3456,0.0048,0.0196,0.0149,0.0082
3457,0.0035,0.0175,0.0194,0.0091
3458,0.0034,0.0157,0.0163,0.0089
3459,0.0033,0.0231,0.0261,0.0093
3460,0.0032,0.0210,0.0247,0.0103
3461,0.0043,0.0191,0.0224,0.0177
3462,0.0072,0.0201,0.0242,0.0188
3463,0.0027,0.0188,0.0231,0.0046
3464,0.0022,0.0118,0.0126,0.0036
3465,0.0021,0.0151,0.0167,0.0038
3466,0.0025,0.0103,0.0110,0.0036
3467,0.0043,0.0267,0.0229,0.0086
3468,0.0022,0.0118,0.0126,0.0036
3469,0.0021,0.0151,0.0167,0.0038
3470,0.0022,0.0118,0.0126,0.0036
3471,0.0022,0.0118,0.0126,0.0036
3472,0.0025,0.0103,0.0110,0.0036
3473,0.0022,0.0118,0.0126,0.0036
3474,0.0022,0.0118,0.0126,0.0036
3475,0.0034,0.0195,0.0247,0.0042
3476,0.0022,0.0118,0.0126,0.0036
3477,0.0025,0.0103,0.0110,0.0036
3478,0.0039,0.0301,0.0265,0.0074
3479,0.0021,0.0151,0.0167,0.0038
3480,0.0022,0.0118,0.0126,0.0036
3481,0.0022,0.0118,0.0126,0.0036
3482,0.0021,0.0151,0.0167,0.0038
3483,0.0025,0.0103,0.0110,0.0036
3484,0.0022,0.0118,0.0126,0.0036
3485,0.0021,0.0151,0.0167,0.0038
3486,0.0022,0.0118,0.0126,0.0036
3487,0.0045,0.0121,0.0138,0.0037
3488,0.0025,0.0103,0.0110,0.0036
3489,0.0057,0.0290,0.0242,0.0071
3490,0.0048,0.0310,0.0289,0.0076
3491,0.0022,0.0118,0.0126,0.0036
3492,0.0022,0.0118,0.0126,0.0036
3493,0.0021,0.0151,0.0167,0.0038
3494,0.0022,0.0118,0.0126,0.0036
3495,0.0025,0.0103,0.0110,0.0036
3496,0.0021,0.0151,0.0167,0.0038
3497,0.0022,0.0118,0.0126,0.0036
3498,0.0022,0.0118,0.0126,0.0036
3499,0.0021,0.0151,0.0167,0.0038
3500,0.0050,0.0123,0.0113,0.0038
3501,0.0070,0.0293,0.0208,0.0089
3502,0.0022,0.0118,0.0126,0.0036
3503,0.0021,0.0151,0.0167,0.0038
3504,0.0022,0.0118,0.0126,0.0036
3505,0.0022,0.0118,0.0126,0.0036
3506,0.0025,0.0103,0.0110,0.0036
3507,0.0040,0.0143,0.0204,0.0069
3508,0.0041,0.0127,0.0174,0.0050
3509,0.0047,0.0140,0.0169,0.0044
3510,0.0048,0.0120,0.0136,0.0049
3511,0.0043,0.0134,0.0144,0.0036
3512,0.0059,0.0301,0.0261,0.0076
3513,0.0055,0.0144,0.0142,0.0056
3514,0.0046,0.0114,0.0110,0.0053
3515,0.0042,0.0114,0.0109,0.0050
3516,0.0036,0.0152,0.0177,0.0044
3517,0.0030,0.0107,0.0109,0.0042
3518,0.0024,0.0135,0.0153,0.0036
3519,0.0027,0.0139,0.0142,0.0047
3520,0.0040,0.0122,0.0121,0.0055
3521,0.0034,0.0156,0.0166,0.0056
3522,0.0028,0.0208,0.0244,0.0044
3523,0.0066,0.0280,0.0218,0.0081
3524,0.0032,0.0156,0.0197,0.0039
3525,0.0052,0.0132,0.0124,0.0059
3526,0.0047,0.0149,0.0176,0.0041
3527,0.0052,0.0114,0.0108,0.0041
3528,0.0051,0.0125,0.0119,0.0045
3529,0.0053,0.0164,0.0158,0.0067
3530,0.0056,0.0159,0.0138,0.0063
3531,0.0047,0.0485,0.0499,0.0261
3532,0.0047,0.0231,0.0235,0.0130
3533,0.0050,0.0312,0.0323,0.0183
3534,0.0067,0.0289,0.0206,0.0078
3535,0.0071,0.0201,0.0346,0.0292
3536,0.0074,0.0198,0.0329,0.0310
3537,0.0057,0.0206,0.0323,0.0320
3538,0.0034,0.0207,0.0297,0.0287
3539,0.0037,0.0230,0.0287,0.0246
3540,0.0024,0.0107,0.0114,0.0035
3541,0.0024,0.0107,0.0114,0.0035
3542,0.0022,0.0143,0.0157,0.0037
3543,0.0034,0.0107,0.0111,0.0043
3544,0.0036,0.0097,0.0108,0.0041
3545,0.0070,0.0293,0.0208,0.0089
3546,0.0040,0.0129,0.0132,0.0060
3547,0.0035,0.0128,0.0136,0.0055
3548,0.0028,0.0149,0.0187,0.0046
3549,0.0033,0.0187,0.0243,0.0040
3550,0.0043,0.0116,0.0107,0.0036
3551,0.0052,0.0110,0.0104,0.0038
3552,0.0056,0.0140,0.0139,0.0053
3553,0.0052,0.0118,0.0114,0.0057
3554,0.0056,0.0154,0.0135,0.0062
3555,0.0044,0.0105,0.0113,0.0050
3556,0.0076,0.0296,0.0203,0.0091
3557,0.0047,0.0534,0.0539,0.0297
3558,0.0048,0.0340,0.0345,0.0206
3559,0.0050,0.0224,0.0220,0.0126
3560,0.0047,0.0274,0.0289,0.0145
3561,0.0043,0.0327,0.0362,0.0158
3562,0.0037,0.0192,0.0225,0.0087
3563,0.0034,0.0156,0.0197,0.0075
3564,0.0035,0.0107,0.0126,0.0052
3565,0.0033,0.0140,0.0139,0.0052
3566,0.0032,0.0110,0.0124,0.0038
3567,0.0103,0.0404,0.0362,0.0299
3568,0.0035,0.0128,0.0136,0.0055
3569,0.0024,0.0183,0.0232,0.0033
3570,0.0030,0.0221,0.0293,0.0042
3571,0.0030,0.0264,0.0326,0.0063
3572,0.0030,0.0172,0.0202,0.0107
3573,0.0035,0.0166,0.0185,0.0107
3574,0.0034,0.0156,0.0158,0.0109
3575,0.0034,0.0215,0.0236,0.0108
3576,0.0033,0.0179,0.0210,0.0126
3577,0.0044,0.0168,0.0200,0.0208
3578,0.0089,0.0398,0.0354,0.0277
3579,0.0074,0.0217,0.0239,0.0233
3580,0.0028,0.0149,0.0187,0.0046
3581,0.0024,0.0107,0.0114,0.0035
3582,0.0022,0.0143,0.0157,0.0037
3583,0.0026,0.0091,0.0099,0.0035
3584,0.0024,0.0107,0.0114,0.0035
3585,0.0022,0.0143,0.0157,0.0037
3586,0.0024,0.0107,0.0114,0.0035
3587,0.0024,0.0107,0.0114,0.0035
3588,0.0026,0.0091,0.0099,0.0035
3589,0.0077,0.0397,0.0390,0.0227
3590,0.0024,0.0107,0.0114,0.0035
3591,0.0024,0.0107,0.0114,0.0035
3592,0.0033,0.0187,0.0243,0.0040
3593,0.0024,0.0107,0.0114,0.0035
3594,0.0026,0.0091,0.0099,0.0035
3595,0.0022,0.0143,0.0157,0.0037
3596,0.0024,0.0107,0.0114,0.0035
3597,0.0024,0.0107,0.0114,0.0035
3598,0.0022,0.0143,0.0157,0.0037
3599,0.0026,0.0091,0.0099,0.0035
Total Error Summary
Vdc  RMSE=  0.0036
Idc  RMSE=  0.0202
Id   RMSE=  0.0212
Iq   RMSE=  0.0098
