Read Model from: ./ucf7s/
Export Model to: ./ucf7s/ucf7s_fhf.json
idx_in [0, 1, 2, 3, 4, 5, 6]
idx_out [7, 8, 9, 10]
make_mimo_block iir
H1s[0][0]  Real Poles: [-114.16950104  -77.80715945] Freqs [Hz]: []
H1s[0][1]  Real Poles: [-149.41080904  -21.39407599] Freqs [Hz]: []
H1s[0][2]  Real Poles: [-111.79457533  -80.27296958] Freqs [Hz]: []
H1s[0][3]  Real Poles: [-120.28156966 -120.28156966] Freqs [Hz]: [8.212092270246597]
H1s[1][0]  Real Poles: [-155.67761746   -1.77450391] Freqs [Hz]: []
H1s[1][1]  Real Poles: [-125.93000573  -53.24558276] Freqs [Hz]: []
H1s[1][2]  Real Poles: [-139.06255937  -34.9102857 ] Freqs [Hz]: []
H1s[1][3]  Real Poles: [-135.09015834  -34.67816913] Freqs [Hz]: []
H1s[2][0]  Real Poles: [-104.53229249 -104.53229249] Freqs [Hz]: [7.031564749324502]
H1s[2][1]  Real Poles: [-101.85374068  -94.39854948] Freqs [Hz]: []
H1s[2][2]  Real Poles: [-102.66003758 -102.66003758] Freqs [Hz]: [7.619547018105586]
H1s[2][3]  Real Poles: [-119.71742064 -119.71742064] Freqs [Hz]: [8.905140458844514]
H1s[3][0]  Real Poles: [-102.83206683 -102.83206683] Freqs [Hz]: [5.77017607566394]
H1s[3][1]  Real Poles: [-113.7909323 -113.7909323] Freqs [Hz]: [6.3514546953531905]
H1s[3][2]  Real Poles: [-102.7348619 -102.7348619] Freqs [Hz]: [8.675129635519435]
H1s[3][3]  Real Poles: [-98.23429808 -98.23429808] Freqs [Hz]: [3.4033270528755706]
model_folder = ./ucf7s/
model_root = ucf7s
data_path = d:/data/ucf3/ucf7.hdf5
idx_in [0, 1, 2, 3, 4, 5, 6]
idx_out [7, 8, 9, 10]
read 3600 dataframes
dt=0.010000 data_len=401 n_io=11 n_case=3600
['G', 'Ud', 'Uq', 'Vd', 'Vq', 'GVrms', 'Ctrl'] ['Vdc', 'Idc', 'Id', 'Iq'] (3600, 401, 11)
make_mimo_block iir
Idx,Vdc,Idc,Id,Iq
#,RMSE,RMSE,RMSE,RMSE
Total,0.0052,0.0247,0.0471,0.0114
0,0.0031,0.0207,0.0664,0.0030
1,0.0031,0.0207,0.0664,0.0030
2,0.0035,0.0344,0.0793,0.0042
3,0.0031,0.0179,0.0471,0.0022
4,0.0033,0.0225,0.0675,0.0031
5,0.0033,0.0225,0.0675,0.0031
6,0.0033,0.0225,0.0675,0.0031
7,0.0032,0.0230,0.0676,0.0037
8,0.0032,0.0230,0.0676,0.0037
9,0.0033,0.0235,0.0702,0.0042
10,0.0034,0.0269,0.0763,0.0048
11,0.0037,0.0312,0.0793,0.0052
12,0.0040,0.0344,0.0800,0.0055
13,0.0039,0.0359,0.0793,0.0056
14,0.0031,0.0179,0.0471,0.0022
15,0.0039,0.0358,0.0770,0.0056
16,0.0038,0.0381,0.0749,0.0052
17,0.0037,0.0386,0.0707,0.0046
18,0.0034,0.0396,0.0667,0.0042
19,0.0033,0.0235,0.0702,0.0042
20,0.0077,0.0410,0.0726,0.0524
21,0.0070,0.0448,0.0739,0.0456
22,0.0066,0.0423,0.0740,0.0391
23,0.0061,0.0355,0.0720,0.0327
24,0.0055,0.0257,0.0689,0.0267
25,0.0031,0.0179,0.0471,0.0022
26,0.0050,0.0209,0.0659,0.0213
27,0.0045,0.0207,0.0657,0.0175
28,0.0040,0.0210,0.0656,0.0137
29,0.0037,0.0213,0.0649,0.0098
30,0.0033,0.0223,0.0667,0.0065
31,0.0034,0.0269,0.0763,0.0048
32,0.0033,0.0229,0.0677,0.0021
33,0.0038,0.0234,0.0665,0.0052
34,0.0043,0.0239,0.0674,0.0088
35,0.0049,0.0248,0.0683,0.0127
36,0.0030,0.0203,0.0482,0.0025
37,0.0059,0.0267,0.0686,0.0171
38,0.0068,0.0302,0.0713,0.0225
39,0.0075,0.0393,0.0743,0.0290
40,0.0078,0.0436,0.0759,0.0363
41,0.0079,0.0401,0.0750,0.0438
42,0.0093,0.0370,0.0726,0.0512
43,0.0037,0.0312,0.0793,0.0052
44,0.0033,0.0225,0.0675,0.0031
45,0.0033,0.0225,0.0675,0.0031
46,0.0033,0.0225,0.0675,0.0031
47,0.0030,0.0203,0.0482,0.0025
48,0.0033,0.0225,0.0675,0.0031
49,0.0033,0.0225,0.0675,0.0031
50,0.0033,0.0225,0.0675,0.0031
51,0.0033,0.0225,0.0675,0.0031
52,0.0033,0.0225,0.0675,0.0031
53,0.0033,0.0225,0.0675,0.0031
54,0.0033,0.0225,0.0675,0.0031
55,0.0040,0.0344,0.0800,0.0055
56,0.0033,0.0225,0.0675,0.0031
57,0.0033,0.0225,0.0675,0.0031
58,0.0031,0.0186,0.0514,0.0027
59,0.0033,0.0225,0.0675,0.0031
60,0.0033,0.0225,0.0675,0.0031
61,0.0033,0.0225,0.0675,0.0031
62,0.0033,0.0225,0.0675,0.0031
63,0.0033,0.0225,0.0675,0.0031
64,0.0033,0.0225,0.0675,0.0031
65,0.0033,0.0225,0.0675,0.0031
66,0.0033,0.0225,0.0675,0.0031
67,0.0039,0.0359,0.0793,0.0056
68,0.0033,0.0225,0.0675,0.0031
69,0.0033,0.0215,0.0571,0.0030
70,0.0033,0.0225,0.0675,0.0031
71,0.0033,0.0225,0.0675,0.0031
72,0.0033,0.0225,0.0675,0.0031
73,0.0033,0.0225,0.0675,0.0031
74,0.0033,0.0225,0.0675,0.0031
75,0.0033,0.0225,0.0675,0.0031
76,0.0033,0.0225,0.0675,0.0031
77,0.0033,0.0225,0.0675,0.0031
78,0.0033,0.0225,0.0675,0.0031
79,0.0039,0.0358,0.0770,0.0056
80,0.0036,0.0263,0.0595,0.0032
81,0.0033,0.0225,0.0675,0.0031
82,0.0033,0.0225,0.0675,0.0031
83,0.0033,0.0225,0.0675,0.0031
84,0.0033,0.0225,0.0675,0.0031
85,0.0033,0.0225,0.0675,0.0031
86,0.0099,0.0210,0.0465,0.0027
87,0.0068,0.0196,0.0498,0.0025
88,0.0047,0.0211,0.0528,0.0022
89,0.0036,0.0254,0.0558,0.0021
90,0.0039,0.0359,0.0793,0.0056
91,0.0037,0.0280,0.0594,0.0032
92,0.0038,0.0381,0.0749,0.0052
93,0.0046,0.0374,0.0610,0.0021
94,0.0052,0.0399,0.0624,0.0022
95,0.0052,0.0400,0.0647,0.0023
96,0.0049,0.0369,0.0660,0.0024
97,0.0041,0.0290,0.0674,0.0027
98,0.0032,0.0230,0.0676,0.0037
99,0.0033,0.0235,0.0702,0.0042
100,0.0034,0.0269,0.0763,0.0048
101,0.0037,0.0312,0.0793,0.0052
102,0.0036,0.0287,0.0589,0.0033
103,0.0040,0.0344,0.0800,0.0055
104,0.0037,0.0386,0.0707,0.0046
105,0.0039,0.0359,0.0793,0.0056
106,0.0039,0.0358,0.0770,0.0056
107,0.0038,0.0381,0.0749,0.0052
108,0.0037,0.0386,0.0707,0.0046
109,0.0034,0.0396,0.0667,0.0042
110,0.0077,0.0410,0.0726,0.0524
111,0.0070,0.0448,0.0739,0.0456
112,0.0066,0.0423,0.0740,0.0391
113,0.0035,0.0368,0.0774,0.0039
114,0.0036,0.0286,0.0565,0.0032
115,0.0032,0.0193,0.0484,0.0023
116,0.0032,0.0193,0.0484,0.0023
117,0.0032,0.0193,0.0484,0.0023
118,0.0031,0.0199,0.0492,0.0028
119,0.0031,0.0199,0.0492,0.0028
120,0.0032,0.0196,0.0515,0.0033
121,0.0034,0.0236,0.0566,0.0038
122,0.0037,0.0283,0.0587,0.0042
123,0.0039,0.0300,0.0580,0.0044
124,0.0039,0.0302,0.0570,0.0046
125,0.0034,0.0307,0.0541,0.0029
126,0.0039,0.0301,0.0545,0.0045
127,0.0038,0.0325,0.0524,0.0041
128,0.0037,0.0321,0.0480,0.0035
129,0.0034,0.0324,0.0439,0.0033
130,0.0032,0.0196,0.0515,0.0033
131,0.0075,0.0297,0.0519,0.0381
132,0.0069,0.0365,0.0540,0.0329
133,0.0065,0.0364,0.0547,0.0281
134,0.0060,0.0320,0.0536,0.0233
135,0.0054,0.0225,0.0503,0.0185
136,0.0033,0.0309,0.0501,0.0029
137,0.0049,0.0184,0.0478,0.0147
138,0.0044,0.0177,0.0473,0.0119
139,0.0039,0.0180,0.0468,0.0092
140,0.0036,0.0185,0.0466,0.0067
141,0.0033,0.0190,0.0477,0.0044
142,0.0034,0.0236,0.0566,0.0038
143,0.0032,0.0198,0.0485,0.0019
144,0.0037,0.0203,0.0477,0.0040
145,0.0042,0.0211,0.0482,0.0066
146,0.0049,0.0216,0.0497,0.0093
147,0.0032,0.0325,0.0458,0.0035
148,0.0058,0.0230,0.0498,0.0122
149,0.0068,0.0270,0.0520,0.0160
150,0.0075,0.0363,0.0552,0.0211
151,0.0078,0.0391,0.0557,0.0268
152,0.0078,0.0341,0.0543,0.0328
153,0.0093,0.0332,0.0517,0.0388
154,0.0037,0.0283,0.0587,0.0042
155,0.0032,0.0193,0.0484,0.0023
156,0.0032,0.0193,0.0484,0.0023
157,0.0032,0.0193,0.0484,0.0023
158,0.0031,0.0186,0.0514,0.0027
159,0.0032,0.0193,0.0484,0.0023
160,0.0032,0.0193,0.0484,0.0023
161,0.0032,0.0193,0.0484,0.0023
162,0.0032,0.0193,0.0484,0.0023
163,0.0032,0.0193,0.0484,0.0023
164,0.0032,0.0193,0.0484,0.0023
165,0.0032,0.0193,0.0484,0.0023
166,0.0039,0.0300,0.0580,0.0044
167,0.0032,0.0193,0.0484,0.0023
168,0.0032,0.0193,0.0484,0.0023
169,0.0074,0.0255,0.0495,0.0344
170,0.0032,0.0193,0.0484,0.0023
171,0.0032,0.0193,0.0484,0.0023
172,0.0032,0.0193,0.0484,0.0023
173,0.0032,0.0193,0.0484,0.0023
174,0.0032,0.0193,0.0484,0.0023
175,0.0032,0.0193,0.0484,0.0023
176,0.0032,0.0193,0.0484,0.0023
177,0.0032,0.0193,0.0484,0.0023
178,0.0039,0.0302,0.0570,0.0046
179,0.0032,0.0193,0.0484,0.0023
180,0.0067,0.0293,0.0515,0.0294
181,0.0032,0.0193,0.0484,0.0023
182,0.0032,0.0193,0.0484,0.0023
183,0.0032,0.0193,0.0484,0.0023
184,0.0032,0.0193,0.0484,0.0023
185,0.0032,0.0193,0.0484,0.0023
186,0.0032,0.0193,0.0484,0.0023
187,0.0032,0.0193,0.0484,0.0023
188,0.0032,0.0193,0.0484,0.0023
189,0.0032,0.0193,0.0484,0.0023
190,0.0039,0.0301,0.0545,0.0045
191,0.0063,0.0292,0.0520,0.0248
192,0.0032,0.0193,0.0484,0.0023
193,0.0032,0.0193,0.0484,0.0023
194,0.0032,0.0193,0.0484,0.0023
195,0.0032,0.0193,0.0484,0.0023
196,0.0032,0.0193,0.0484,0.0023
197,0.0096,0.0220,0.0306,0.0022
198,0.0065,0.0186,0.0334,0.0019
199,0.0045,0.0187,0.0363,0.0018
200,0.0036,0.0225,0.0394,0.0017
201,0.0039,0.0302,0.0570,0.0046
202,0.0058,0.0257,0.0510,0.0205
203,0.0038,0.0325,0.0524,0.0041
204,0.0048,0.0332,0.0436,0.0018
205,0.0053,0.0361,0.0450,0.0019
206,0.0054,0.0370,0.0470,0.0019
207,0.0049,0.0331,0.0476,0.0020
208,0.0041,0.0252,0.0486,0.0020
209,0.0031,0.0199,0.0492,0.0028
210,0.0032,0.0196,0.0515,0.0033
211,0.0034,0.0236,0.0566,0.0038
212,0.0037,0.0283,0.0587,0.0042
213,0.0053,0.0185,0.0477,0.0162
214,0.0039,0.0300,0.0580,0.0044
215,0.0037,0.0321,0.0480,0.0035
216,0.0039,0.0302,0.0570,0.0046
217,0.0039,0.0301,0.0545,0.0045
218,0.0038,0.0325,0.0524,0.0041
219,0.0037,0.0321,0.0480,0.0035
220,0.0034,0.0324,0.0439,0.0033
221,0.0075,0.0297,0.0519,0.0381
222,0.0069,0.0365,0.0540,0.0329
223,0.0065,0.0364,0.0547,0.0281
224,0.0033,0.0367,0.0733,0.0037
225,0.0048,0.0171,0.0451,0.0129
226,0.0031,0.0133,0.0193,0.0016
227,0.0031,0.0133,0.0193,0.0016
228,0.0031,0.0133,0.0193,0.0016
229,0.0029,0.0145,0.0187,0.0016
230,0.0029,0.0145,0.0187,0.0016
231,0.0031,0.0141,0.0192,0.0020
232,0.0033,0.0174,0.0211,0.0024
233,0.0035,0.0209,0.0214,0.0027
234,0.0036,0.0212,0.0205,0.0029
235,0.0036,0.0204,0.0199,0.0030
236,0.0043,0.0175,0.0451,0.0107
237,0.0035,0.0195,0.0190,0.0028
238,0.0035,0.0207,0.0197,0.0025
239,0.0034,0.0211,0.0212,0.0026
240,0.0033,0.0231,0.0250,0.0035
241,0.0031,0.0141,0.0192,0.0020
242,0.0076,0.0177,0.0206,0.0138
243,0.0068,0.0214,0.0215,0.0112
244,0.0063,0.0246,0.0223,0.0089
245,0.0058,0.0214,0.0219,0.0069
246,0.0053,0.0165,0.0209,0.0056
247,0.0038,0.0177,0.0445,0.0083
248,0.0048,0.0138,0.0199,0.0052
249,0.0043,0.0133,0.0195,0.0050
250,0.0038,0.0135,0.0194,0.0046
251,0.0034,0.0135,0.0194,0.0038
252,0.0031,0.0135,0.0195,0.0027
253,0.0033,0.0174,0.0211,0.0024
254,0.0031,0.0137,0.0192,0.0018
255,0.0036,0.0148,0.0190,0.0033
256,0.0042,0.0154,0.0190,0.0049
257,0.0048,0.0153,0.0192,0.0063
258,0.0035,0.0173,0.0448,0.0062
259,0.0059,0.0165,0.0198,0.0070
260,0.0069,0.0219,0.0209,0.0073
261,0.0076,0.0299,0.0220,0.0079
262,0.0078,0.0306,0.0216,0.0096
263,0.0078,0.0234,0.0204,0.0123
264,0.0095,0.0273,0.0192,0.0155
265,0.0035,0.0209,0.0214,0.0027
266,0.0031,0.0133,0.0193,0.0016
267,0.0031,0.0133,0.0193,0.0016
268,0.0031,0.0133,0.0193,0.0016
269,0.0032,0.0176,0.0461,0.0042
270,0.0031,0.0133,0.0193,0.0016
271,0.0031,0.0133,0.0193,0.0016
272,0.0031,0.0133,0.0193,0.0016
273,0.0031,0.0133,0.0193,0.0016
274,0.0031,0.0133,0.0193,0.0016
275,0.0031,0.0133,0.0193,0.0016
276,0.0031,0.0133,0.0193,0.0016
277,0.0036,0.0212,0.0205,0.0029
278,0.0031,0.0133,0.0193,0.0016
279,0.0031,0.0133,0.0193,0.0016
280,0.0033,0.0215,0.0571,0.0030
281,0.0031,0.0133,0.0193,0.0016
282,0.0031,0.0133,0.0193,0.0016
283,0.0031,0.0133,0.0193,0.0016
284,0.0031,0.0133,0.0193,0.0016
285,0.0031,0.0133,0.0193,0.0016
286,0.0031,0.0133,0.0193,0.0016
287,0.0031,0.0133,0.0193,0.0016
288,0.0031,0.0133,0.0193,0.0016
289,0.0036,0.0204,0.0199,0.0030
290,0.0031,0.0133,0.0193,0.0016
291,0.0031,0.0187,0.0475,0.0019
292,0.0031,0.0133,0.0193,0.0016
293,0.0031,0.0133,0.0193,0.0016
294,0.0031,0.0133,0.0193,0.0016
295,0.0031,0.0133,0.0193,0.0016
296,0.0031,0.0133,0.0193,0.0016
297,0.0031,0.0133,0.0193,0.0016
298,0.0031,0.0133,0.0193,0.0016
299,0.0031,0.0133,0.0193,0.0016
300,0.0031,0.0133,0.0193,0.0016
301,0.0035,0.0195,0.0190,0.0028
302,0.0035,0.0196,0.0473,0.0040
303,0.0031,0.0133,0.0193,0.0016
304,0.0031,0.0133,0.0193,0.0016
305,0.0031,0.0133,0.0193,0.0016
306,0.0031,0.0133,0.0193,0.0016
307,0.0031,0.0133,0.0193,0.0016
308,0.0089,0.0260,0.0211,0.0019
309,0.0061,0.0207,0.0202,0.0018
310,0.0043,0.0165,0.0200,0.0017
311,0.0038,0.0170,0.0202,0.0019
312,0.0036,0.0204,0.0199,0.0030
313,0.0040,0.0211,0.0477,0.0065
314,0.0035,0.0207,0.0197,0.0025
315,0.0051,0.0263,0.0215,0.0022
316,0.0056,0.0296,0.0218,0.0023
317,0.0055,0.0302,0.0217,0.0023
318,0.0050,0.0272,0.0216,0.0022
319,0.0041,0.0194,0.0207,0.0019
320,0.0029,0.0145,0.0187,0.0016
321,0.0031,0.0141,0.0192,0.0020
322,0.0033,0.0174,0.0211,0.0024
323,0.0035,0.0209,0.0214,0.0027
324,0.0047,0.0217,0.0496,0.0092
325,0.0036,0.0212,0.0205,0.0029
326,0.0034,0.0211,0.0212,0.0026
327,0.0036,0.0204,0.0199,0.0030
328,0.0035,0.0195,0.0190,0.0028
329,0.0035,0.0207,0.0197,0.0025
330,0.0034,0.0211,0.0212,0.0026
331,0.0033,0.0231,0.0250,0.0035
332,0.0076,0.0177,0.0206,0.0138
333,0.0068,0.0214,0.0215,0.0112
334,0.0063,0.0246,0.0223,0.0089
335,0.0032,0.0375,0.0690,0.0038
336,0.0056,0.0212,0.0500,0.0120
337,0.0030,0.0105,0.0313,0.0020
338,0.0030,0.0105,0.0313,0.0020
339,0.0030,0.0105,0.0313,0.0020
340,0.0029,0.0121,0.0306,0.0016
341,0.0029,0.0121,0.0306,0.0016
342,0.0031,0.0101,0.0282,0.0015
343,0.0031,0.0118,0.0281,0.0018
344,0.0033,0.0142,0.0282,0.0020
345,0.0034,0.0149,0.0302,0.0022
346,0.0032,0.0133,0.0330,0.0023
347,0.0066,0.0232,0.0529,0.0158
348,0.0031,0.0137,0.0372,0.0022
349,0.0031,0.0153,0.0413,0.0024
350,0.0032,0.0175,0.0473,0.0031
351,0.0032,0.0207,0.0529,0.0045
352,0.0031,0.0101,0.0282,0.0015
353,0.0081,0.0255,0.0350,0.0185
354,0.0070,0.0171,0.0327,0.0164
355,0.0064,0.0176,0.0313,0.0146
356,0.0059,0.0150,0.0316,0.0136
357,0.0053,0.0126,0.0314,0.0125
358,0.0073,0.0302,0.0561,0.0207
359,0.0048,0.0115,0.0324,0.0119
360,0.0042,0.0115,0.0325,0.0107
361,0.0037,0.0118,0.0328,0.0090
362,0.0034,0.0115,0.0332,0.0070
363,0.0030,0.0105,0.0318,0.0045
364,0.0031,0.0118,0.0281,0.0018
365,0.0031,0.0110,0.0313,0.0022
366,0.0036,0.0118,0.0317,0.0050
367,0.0042,0.0119,0.0310,0.0080
368,0.0049,0.0113,0.0302,0.0105
369,0.0076,0.0330,0.0569,0.0263
370,0.0059,0.0128,0.0302,0.0125
371,0.0069,0.0189,0.0284,0.0133
372,0.0075,0.0237,0.0289,0.0134
373,0.0078,0.0233,0.0291,0.0131
374,0.0079,0.0165,0.0303,0.0129
375,0.0096,0.0290,0.0332,0.0132
376,0.0033,0.0142,0.0282,0.0020
377,0.0030,0.0105,0.0313,0.0020
378,0.0030,0.0105,0.0313,0.0020
379,0.0030,0.0105,0.0313,0.0020
380,0.0079,0.0304,0.0556,0.0321
381,0.0030,0.0105,0.0313,0.0020
382,0.0030,0.0105,0.0313,0.0020
383,0.0030,0.0105,0.0313,0.0020
384,0.0030,0.0105,0.0313,0.0020
385,0.0030,0.0105,0.0313,0.0020
386,0.0030,0.0105,0.0313,0.0020
387,0.0030,0.0105,0.0313,0.0020
388,0.0034,0.0149,0.0302,0.0022
389,0.0030,0.0105,0.0313,0.0020
390,0.0030,0.0105,0.0313,0.0020
391,0.0098,0.0363,0.0532,0.0380
392,0.0030,0.0105,0.0313,0.0020
393,0.0030,0.0105,0.0313,0.0020
394,0.0030,0.0105,0.0313,0.0020
395,0.0030,0.0105,0.0313,0.0020
396,0.0030,0.0105,0.0313,0.0020
397,0.0030,0.0105,0.0313,0.0020
398,0.0030,0.0105,0.0313,0.0020
399,0.0030,0.0105,0.0313,0.0020
400,0.0032,0.0133,0.0330,0.0023
401,0.0030,0.0105,0.0313,0.0020
402,0.0036,0.0263,0.0595,0.0032
403,0.0030,0.0105,0.0313,0.0020
404,0.0030,0.0105,0.0313,0.0020
405,0.0030,0.0105,0.0313,0.0020
406,0.0030,0.0105,0.0313,0.0020
407,0.0030,0.0105,0.0313,0.0020
408,0.0030,0.0105,0.0313,0.0020
409,0.0030,0.0105,0.0313,0.0020
410,0.0030,0.0105,0.0313,0.0020
411,0.0030,0.0105,0.0313,0.0020
412,0.0031,0.0137,0.0372,0.0022
413,0.0031,0.0179,0.0471,0.0022
414,0.0030,0.0105,0.0313,0.0020
415,0.0030,0.0105,0.0313,0.0020
416,0.0030,0.0105,0.0313,0.0020
417,0.0030,0.0105,0.0313,0.0020
418,0.0030,0.0105,0.0313,0.0020
419,0.0087,0.0321,0.0419,0.0021
420,0.0059,0.0245,0.0399,0.0021
421,0.0043,0.0190,0.0384,0.0022
422,0.0039,0.0148,0.0367,0.0024
423,0.0032,0.0133,0.0330,0.0023
424,0.0031,0.0179,0.0471,0.0022
425,0.0031,0.0153,0.0413,0.0024
426,0.0052,0.0201,0.0354,0.0029
427,0.0057,0.0242,0.0350,0.0030
428,0.0055,0.0247,0.0333,0.0029
429,0.0049,0.0209,0.0334,0.0028
430,0.0039,0.0136,0.0322,0.0024
431,0.0029,0.0121,0.0306,0.0016
432,0.0031,0.0101,0.0282,0.0015
433,0.0031,0.0118,0.0281,0.0018
434,0.0033,0.0142,0.0282,0.0020
435,0.0031,0.0179,0.0471,0.0022
436,0.0034,0.0149,0.0302,0.0022
437,0.0032,0.0175,0.0473,0.0031
438,0.0032,0.0133,0.0330,0.0023
439,0.0031,0.0137,0.0372,0.0022
440,0.0031,0.0153,0.0413,0.0024
441,0.0032,0.0175,0.0473,0.0031
442,0.0032,0.0207,0.0529,0.0045
443,0.0081,0.0255,0.0350,0.0185
444,0.0070,0.0171,0.0327,0.0164
445,0.0064,0.0176,0.0313,0.0146
446,0.0032,0.0220,0.0703,0.0037
447,0.0031,0.0179,0.0471,0.0022
448,0.0030,0.0111,0.0432,0.0023
449,0.0030,0.0111,0.0432,0.0023
450,0.0030,0.0111,0.0432,0.0023
451,0.0029,0.0104,0.0404,0.0017
452,0.0029,0.0104,0.0404,0.0017
453,0.0031,0.0096,0.0398,0.0015
454,0.0031,0.0101,0.0400,0.0017
455,0.0032,0.0130,0.0395,0.0019
456,0.0033,0.0133,0.0430,0.0020
457,0.0031,0.0117,0.0470,0.0022
458,0.0031,0.0179,0.0471,0.0022
459,0.0031,0.0130,0.0511,0.0022
460,0.0030,0.0160,0.0559,0.0026
461,0.0031,0.0180,0.0612,0.0035
462,0.0031,0.0212,0.0676,0.0051
463,0.0031,0.0096,0.0398,0.0015
464,0.0084,0.0318,0.0473,0.0261
465,0.0073,0.0183,0.0442,0.0231
466,0.0066,0.0153,0.0421,0.0205
467,0.0060,0.0140,0.0425,0.0190
468,0.0054,0.0120,0.0426,0.0174
469,0.0031,0.0179,0.0471,0.0022
470,0.0049,0.0112,0.0429,0.0157
471,0.0043,0.0113,0.0428,0.0137
472,0.0038,0.0120,0.0436,0.0114
473,0.0033,0.0108,0.0436,0.0086
474,0.0030,0.0110,0.0433,0.0055
475,0.0031,0.0101,0.0400,0.0017
476,0.0031,0.0122,0.0430,0.0025
477,0.0036,0.0117,0.0426,0.0061
478,0.0042,0.0113,0.0417,0.0098
479,0.0049,0.0103,0.0404,0.0131
480,0.0031,0.0179,0.0471,0.0022
481,0.0059,0.0119,0.0401,0.0157
482,0.0069,0.0172,0.0394,0.0175
483,0.0075,0.0214,0.0398,0.0185
484,0.0078,0.0226,0.0390,0.0185
485,0.0079,0.0147,0.0414,0.0189
486,0.0097,0.0312,0.0454,0.0196
487,0.0032,0.0130,0.0395,0.0019
488,0.0030,0.0111,0.0432,0.0023
489,0.0030,0.0111,0.0432,0.0023
490,0.0030,0.0111,0.0432,0.0023
491,0.0031,0.0179,0.0471,0.0022
492,0.0030,0.0111,0.0432,0.0023
493,0.0030,0.0111,0.0432,0.0023
494,0.0030,0.0111,0.0432,0.0023
495,0.0030,0.0111,0.0432,0.0023
496,0.0030,0.0111,0.0432,0.0023
497,0.0030,0.0111,0.0432,0.0023
498,0.0030,0.0111,0.0432,0.0023
499,0.0033,0.0133,0.0430,0.0020
500,0.0030,0.0111,0.0432,0.0023
501,0.0030,0.0111,0.0432,0.0023
502,0.0031,0.0179,0.0471,0.0022
503,0.0030,0.0111,0.0432,0.0023
504,0.0030,0.0111,0.0432,0.0023
505,0.0030,0.0111,0.0432,0.0023
506,0.0030,0.0111,0.0432,0.0023
507,0.0030,0.0111,0.0432,0.0023
508,0.0030,0.0111,0.0432,0.0023
509,0.0030,0.0111,0.0432,0.0023
510,0.0030,0.0111,0.0432,0.0023
511,0.0031,0.0117,0.0470,0.0022
512,0.0030,0.0111,0.0432,0.0023
513,0.0031,0.0179,0.0471,0.0022
514,0.0030,0.0111,0.0432,0.0023
515,0.0030,0.0111,0.0432,0.0023
516,0.0030,0.0111,0.0432,0.0023
517,0.0030,0.0111,0.0432,0.0023
518,0.0030,0.0111,0.0432,0.0023
519,0.0030,0.0111,0.0432,0.0023
520,0.0030,0.0111,0.0432,0.0023
521,0.0030,0.0111,0.0432,0.0023
522,0.0030,0.0111,0.0432,0.0023
523,0.0031,0.0130,0.0511,0.0022
524,0.0037,0.0280,0.0594,0.0032
525,0.0030,0.0111,0.0432,0.0023
526,0.0030,0.0111,0.0432,0.0023
527,0.0030,0.0111,0.0432,0.0023
528,0.0030,0.0111,0.0432,0.0023
529,0.0030,0.0111,0.0432,0.0023
530,0.0086,0.0344,0.0520,0.0022
531,0.0058,0.0271,0.0501,0.0022
532,0.0043,0.0211,0.0487,0.0024
533,0.0039,0.0158,0.0471,0.0026
534,0.0031,0.0117,0.0470,0.0022
535,0.0031,0.0179,0.0471,0.0022
536,0.0030,0.0160,0.0559,0.0026
537,0.0052,0.0182,0.0455,0.0031
538,0.0057,0.0223,0.0444,0.0032
539,0.0056,0.0228,0.0433,0.0032
540,0.0049,0.0194,0.0432,0.0031
541,0.0039,0.0126,0.0426,0.0027
542,0.0029,0.0104,0.0404,0.0017
543,0.0031,0.0096,0.0398,0.0015
544,0.0031,0.0101,0.0400,0.0017
545,0.0032,0.0130,0.0395,0.0019
546,0.0031,0.0179,0.0471,0.0022
547,0.0033,0.0133,0.0430,0.0020
548,0.0031,0.0180,0.0612,0.0035
549,0.0031,0.0117,0.0470,0.0022
550,0.0031,0.0130,0.0511,0.0022
551,0.0030,0.0160,0.0559,0.0026
552,0.0031,0.0180,0.0612,0.0035
553,0.0031,0.0212,0.0676,0.0051
554,0.0084,0.0318,0.0473,0.0261
555,0.0073,0.0183,0.0442,0.0231
556,0.0066,0.0153,0.0421,0.0205
557,0.0075,0.0360,0.0702,0.0487
558,0.0031,0.0179,0.0471,0.0022
559,0.0031,0.0179,0.0471,0.0022
560,0.0031,0.0179,0.0471,0.0022
561,0.0031,0.0179,0.0471,0.0022
562,0.0031,0.0179,0.0471,0.0022
563,0.0031,0.0179,0.0471,0.0022
564,0.0031,0.0179,0.0471,0.0022
565,0.0031,0.0179,0.0471,0.0022
566,0.0036,0.0287,0.0589,0.0033
567,0.0031,0.0179,0.0471,0.0022
568,0.0069,0.0379,0.0714,0.0421
569,0.0031,0.0179,0.0471,0.0022
570,0.0031,0.0179,0.0471,0.0022
571,0.0031,0.0179,0.0471,0.0022
572,0.0031,0.0179,0.0471,0.0022
573,0.0031,0.0179,0.0471,0.0022
574,0.0031,0.0179,0.0471,0.0022
575,0.0031,0.0179,0.0471,0.0022
576,0.0031,0.0179,0.0471,0.0022
577,0.0031,0.0179,0.0471,0.0022
578,0.0036,0.0286,0.0565,0.0032
579,0.0064,0.0364,0.0717,0.0359
580,0.0031,0.0179,0.0471,0.0022
581,0.0031,0.0179,0.0471,0.0022
582,0.0031,0.0179,0.0471,0.0022
583,0.0031,0.0179,0.0471,0.0022
584,0.0031,0.0179,0.0471,0.0022
585,0.0095,0.0182,0.0296,0.0033
586,0.0066,0.0164,0.0319,0.0028
587,0.0046,0.0175,0.0343,0.0024
588,0.0035,0.0218,0.0367,0.0021
589,0.0036,0.0287,0.0589,0.0033
590,0.0059,0.0302,0.0698,0.0299
591,0.0034,0.0307,0.0541,0.0029
592,0.0045,0.0313,0.0410,0.0018
593,0.0051,0.0329,0.0420,0.0018
594,0.0051,0.0339,0.0445,0.0018
595,0.0047,0.0293,0.0455,0.0019
596,0.0039,0.0215,0.0465,0.0020
597,0.0030,0.0203,0.0482,0.0025
598,0.0031,0.0186,0.0514,0.0027
599,0.0033,0.0215,0.0571,0.0030
600,0.0036,0.0263,0.0595,0.0032
601,0.0054,0.0221,0.0666,0.0243
602,0.0037,0.0280,0.0594,0.0032
603,0.0033,0.0309,0.0501,0.0029
604,0.0036,0.0287,0.0589,0.0033
605,0.0036,0.0286,0.0565,0.0032
606,0.0034,0.0307,0.0541,0.0029
607,0.0033,0.0309,0.0501,0.0029
608,0.0032,0.0325,0.0458,0.0035
609,0.0074,0.0255,0.0495,0.0344
610,0.0067,0.0293,0.0515,0.0294
611,0.0063,0.0292,0.0520,0.0248
612,0.0031,0.0207,0.0664,0.0030
613,0.0049,0.0193,0.0636,0.0195
614,0.0030,0.0142,0.0180,0.0016
615,0.0030,0.0142,0.0180,0.0016
616,0.0030,0.0142,0.0180,0.0016
617,0.0028,0.0171,0.0173,0.0015
618,0.0028,0.0171,0.0173,0.0015
619,0.0030,0.0144,0.0180,0.0016
620,0.0032,0.0150,0.0202,0.0018
621,0.0034,0.0180,0.0211,0.0018
622,0.0035,0.0187,0.0204,0.0019
623,0.0034,0.0188,0.0197,0.0020
624,0.0044,0.0199,0.0634,0.0161
625,0.0033,0.0191,0.0186,0.0020
626,0.0032,0.0221,0.0189,0.0023
627,0.0032,0.0241,0.0199,0.0032
628,0.0032,0.0297,0.0235,0.0045
629,0.0030,0.0144,0.0180,0.0016
630,0.0076,0.0225,0.0202,0.0121
631,0.0067,0.0163,0.0206,0.0097
632,0.0062,0.0171,0.0209,0.0079
633,0.0057,0.0151,0.0205,0.0067
634,0.0052,0.0134,0.0196,0.0062
635,0.0039,0.0201,0.0636,0.0127
636,0.0047,0.0146,0.0189,0.0063
637,0.0042,0.0154,0.0185,0.0061
638,0.0037,0.0153,0.0184,0.0054
639,0.0034,0.0146,0.0182,0.0044
640,0.0030,0.0143,0.0181,0.0030
641,0.0032,0.0150,0.0202,0.0018
642,0.0030,0.0152,0.0178,0.0019
643,0.0035,0.0168,0.0177,0.0036
644,0.0040,0.0179,0.0177,0.0055
645,0.0046,0.0179,0.0180,0.0069
646,0.0036,0.0198,0.0634,0.0092
647,0.0056,0.0155,0.0186,0.0077
648,0.0066,0.0169,0.0201,0.0080
649,0.0073,0.0221,0.0212,0.0083
650,0.0076,0.0232,0.0212,0.0096
651,0.0078,0.0203,0.0202,0.0120
652,0.0099,0.0351,0.0189,0.0149
653,0.0034,0.0180,0.0211,0.0018
654,0.0030,0.0142,0.0180,0.0016
655,0.0030,0.0142,0.0180,0.0016
656,0.0030,0.0142,0.0180,0.0016
657,0.0032,0.0205,0.0653,0.0062
658,0.0030,0.0142,0.0180,0.0016
659,0.0030,0.0142,0.0180,0.0016
660,0.0030,0.0142,0.0180,0.0016
661,0.0030,0.0142,0.0180,0.0016
662,0.0030,0.0142,0.0180,0.0016
663,0.0030,0.0142,0.0180,0.0016
664,0.0030,0.0142,0.0180,0.0016
665,0.0035,0.0187,0.0204,0.0019
666,0.0030,0.0142,0.0180,0.0016
667,0.0030,0.0142,0.0180,0.0016
668,0.0033,0.0247,0.0771,0.0040
669,0.0030,0.0142,0.0180,0.0016
670,0.0030,0.0142,0.0180,0.0016
671,0.0030,0.0142,0.0180,0.0016
672,0.0030,0.0142,0.0180,0.0016
673,0.0030,0.0142,0.0180,0.0016
674,0.0030,0.0142,0.0180,0.0016
675,0.0030,0.0142,0.0180,0.0016
676,0.0030,0.0142,0.0180,0.0016
677,0.0034,0.0188,0.0197,0.0020
678,0.0030,0.0142,0.0180,0.0016
679,0.0031,0.0212,0.0670,0.0021
680,0.0030,0.0142,0.0180,0.0016
681,0.0030,0.0142,0.0180,0.0016
682,0.0030,0.0142,0.0180,0.0016
683,0.0030,0.0142,0.0180,0.0016
684,0.0030,0.0142,0.0180,0.0016
685,0.0030,0.0142,0.0180,0.0016
686,0.0030,0.0142,0.0180,0.0016
687,0.0030,0.0142,0.0180,0.0016
688,0.0030,0.0142,0.0180,0.0016
689,0.0033,0.0191,0.0186,0.0020
690,0.0036,0.0220,0.0665,0.0051
691,0.0030,0.0142,0.0180,0.0016
692,0.0030,0.0142,0.0180,0.0016
693,0.0030,0.0142,0.0180,0.0016
694,0.0030,0.0142,0.0180,0.0016
695,0.0030,0.0142,0.0180,0.0016
696,0.0089,0.0218,0.0234,0.0026
697,0.0061,0.0176,0.0220,0.0021
698,0.0043,0.0145,0.0210,0.0017
699,0.0037,0.0153,0.0206,0.0015
700,0.0034,0.0188,0.0197,0.0020
701,0.0041,0.0230,0.0675,0.0086
702,0.0032,0.0221,0.0189,0.0023
703,0.0049,0.0233,0.0205,0.0016
704,0.0054,0.0258,0.0207,0.0018
705,0.0053,0.0256,0.0204,0.0019
706,0.0049,0.0224,0.0199,0.0019
707,0.0040,0.0150,0.0190,0.0018
708,0.0028,0.0171,0.0173,0.0015
709,0.0030,0.0144,0.0180,0.0016
710,0.0032,0.0150,0.0202,0.0018
711,0.0034,0.0180,0.0211,0.0018
712,0.0048,0.0242,0.0685,0.0124
713,0.0035,0.0187,0.0204,0.0019
714,0.0032,0.0241,0.0199,0.0032
715,0.0034,0.0188,0.0197,0.0020
716,0.0033,0.0191,0.0186,0.0020
717,0.0032,0.0221,0.0189,0.0023
718,0.0032,0.0241,0.0199,0.0032
719,0.0032,0.0297,0.0235,0.0045
720,0.0076,0.0225,0.0202,0.0121
721,0.0067,0.0163,0.0206,0.0097
722,0.0062,0.0171,0.0209,0.0079
723,0.0031,0.0228,0.0669,0.0034
724,0.0057,0.0248,0.0693,0.0168
725,0.0029,0.0147,0.0329,0.0021
726,0.0029,0.0147,0.0329,0.0021
727,0.0029,0.0147,0.0329,0.0021
728,0.0028,0.0172,0.0312,0.0017
729,0.0028,0.0172,0.0312,0.0017
730,0.0030,0.0123,0.0285,0.0015
731,0.0031,0.0111,0.0272,0.0015
732,0.0032,0.0119,0.0267,0.0016
733,0.0033,0.0126,0.0285,0.0017
734,0.0031,0.0134,0.0311,0.0019
735,0.0066,0.0263,0.0724,0.0221
736,0.0030,0.0165,0.0353,0.0022
737,0.0030,0.0207,0.0394,0.0030
738,0.0031,0.0256,0.0454,0.0042
739,0.0033,0.0331,0.0518,0.0059
740,0.0030,0.0123,0.0285,0.0015
741,0.0081,0.0364,0.0379,0.0224
742,0.0070,0.0198,0.0351,0.0200
743,0.0063,0.0143,0.0335,0.0180
744,0.0058,0.0137,0.0339,0.0169
745,0.0052,0.0138,0.0342,0.0155
746,0.0072,0.0337,0.0757,0.0285
747,0.0047,0.0152,0.0348,0.0143
748,0.0041,0.0161,0.0349,0.0126
749,0.0036,0.0166,0.0349,0.0103
750,0.0033,0.0155,0.0349,0.0078
751,0.0030,0.0146,0.0337,0.0050
752,0.0031,0.0111,0.0272,0.0015
753,0.0030,0.0160,0.0324,0.0023
754,0.0035,0.0167,0.0321,0.0054
755,0.0040,0.0171,0.0310,0.0086
756,0.0047,0.0159,0.0298,0.0113
757,0.0076,0.0385,0.0776,0.0357
758,0.0057,0.0135,0.0294,0.0134
759,0.0067,0.0128,0.0279,0.0143
760,0.0073,0.0158,0.0275,0.0144
761,0.0076,0.0165,0.0274,0.0140
762,0.0079,0.0165,0.0289,0.0137
763,0.0100,0.0399,0.0321,0.0139
764,0.0032,0.0119,0.0267,0.0016
765,0.0029,0.0147,0.0329,0.0021
766,0.0029,0.0147,0.0329,0.0021
767,0.0029,0.0147,0.0329,0.0021
768,0.0079,0.0361,0.0764,0.0431
769,0.0029,0.0147,0.0329,0.0021
770,0.0029,0.0147,0.0329,0.0021
771,0.0029,0.0147,0.0329,0.0021
772,0.0029,0.0147,0.0329,0.0021
773,0.0029,0.0147,0.0329,0.0021
774,0.0029,0.0147,0.0329,0.0021
775,0.0029,0.0147,0.0329,0.0021
776,0.0033,0.0126,0.0285,0.0017
777,0.0029,0.0147,0.0329,0.0021
778,0.0029,0.0147,0.0329,0.0021
779,0.0098,0.0384,0.0743,0.0505
780,0.0029,0.0147,0.0329,0.0021
781,0.0029,0.0147,0.0329,0.0021
782,0.0029,0.0147,0.0329,0.0021
783,0.0029,0.0147,0.0329,0.0021
784,0.0029,0.0147,0.0329,0.0021
785,0.0029,0.0147,0.0329,0.0021
786,0.0029,0.0147,0.0329,0.0021
787,0.0029,0.0147,0.0329,0.0021
788,0.0031,0.0134,0.0311,0.0019
789,0.0029,0.0147,0.0329,0.0021
790,0.0036,0.0297,0.0806,0.0041
791,0.0029,0.0147,0.0329,0.0021
792,0.0029,0.0147,0.0329,0.0021
793,0.0029,0.0147,0.0329,0.0021
794,0.0029,0.0147,0.0329,0.0021
795,0.0029,0.0147,0.0329,0.0021
796,0.0029,0.0147,0.0329,0.0021
797,0.0029,0.0147,0.0329,0.0021
798,0.0029,0.0147,0.0329,0.0021
799,0.0029,0.0147,0.0329,0.0021
800,0.0030,0.0165,0.0353,0.0022
801,0.0031,0.0207,0.0664,0.0030
802,0.0029,0.0147,0.0329,0.0021
803,0.0029,0.0147,0.0329,0.0021
804,0.0029,0.0147,0.0329,0.0021
805,0.0029,0.0147,0.0329,0.0021
806,0.0029,0.0147,0.0329,0.0021
807,0.0086,0.0289,0.0457,0.0024
808,0.0059,0.0223,0.0436,0.0020
809,0.0043,0.0174,0.0417,0.0018
810,0.0039,0.0138,0.0403,0.0018
811,0.0031,0.0134,0.0311,0.0019
812,0.0031,0.0207,0.0664,0.0030
813,0.0030,0.0207,0.0394,0.0030
814,0.0051,0.0168,0.0380,0.0022
815,0.0056,0.0198,0.0375,0.0024
816,0.0054,0.0196,0.0357,0.0025
817,0.0048,0.0154,0.0352,0.0025
818,0.0039,0.0108,0.0341,0.0024
819,0.0028,0.0172,0.0312,0.0017
820,0.0030,0.0123,0.0285,0.0015
821,0.0031,0.0111,0.0272,0.0015
822,0.0032,0.0119,0.0267,0.0016
823,0.0031,0.0207,0.0664,0.0030
824,0.0033,0.0126,0.0285,0.0017
825,0.0031,0.0256,0.0454,0.0042
826,0.0031,0.0134,0.0311,0.0019
827,0.0030,0.0165,0.0353,0.0022
828,0.0030,0.0207,0.0394,0.0030
829,0.0031,0.0256,0.0454,0.0042
830,0.0033,0.0331,0.0518,0.0059
831,0.0081,0.0364,0.0379,0.0224
832,0.0070,0.0198,0.0351,0.0200
833,0.0063,0.0143,0.0335,0.0180
834,0.0031,0.0228,0.0669,0.0034
835,0.0031,0.0207,0.0664,0.0030
836,0.0029,0.0162,0.0447,0.0024
837,0.0029,0.0162,0.0447,0.0024
838,0.0029,0.0162,0.0447,0.0024
839,0.0028,0.0173,0.0424,0.0020
840,0.0028,0.0173,0.0424,0.0020
841,0.0030,0.0129,0.0398,0.0016
842,0.0031,0.0112,0.0396,0.0016
843,0.0032,0.0103,0.0394,0.0016
844,0.0032,0.0111,0.0417,0.0018
845,0.0030,0.0135,0.0449,0.0020
846,0.0031,0.0207,0.0664,0.0030
847,0.0030,0.0170,0.0488,0.0025
848,0.0030,0.0231,0.0540,0.0034
849,0.0031,0.0280,0.0596,0.0047
850,0.0034,0.0353,0.0662,0.0065
851,0.0030,0.0129,0.0398,0.0016
852,0.0084,0.0436,0.0503,0.0304
853,0.0072,0.0250,0.0474,0.0273
854,0.0065,0.0172,0.0455,0.0245
855,0.0059,0.0158,0.0455,0.0225
856,0.0053,0.0155,0.0453,0.0203
857,0.0031,0.0207,0.0664,0.0030
858,0.0047,0.0164,0.0459,0.0183
859,0.0042,0.0179,0.0463,0.0158
860,0.0037,0.0179,0.0463,0.0129
861,0.0033,0.0160,0.0460,0.0096
862,0.0030,0.0163,0.0453,0.0060
863,0.0031,0.0112,0.0396,0.0016
864,0.0030,0.0184,0.0443,0.0026
865,0.0035,0.0177,0.0434,0.0065
866,0.0040,0.0177,0.0422,0.0104
867,0.0047,0.0171,0.0413,0.0139
868,0.0031,0.0207,0.0664,0.0030
869,0.0057,0.0129,0.0400,0.0166
870,0.0067,0.0120,0.0384,0.0184
871,0.0073,0.0140,0.0387,0.0195
872,0.0076,0.0148,0.0386,0.0197
873,0.0079,0.0167,0.0404,0.0199
874,0.0101,0.0431,0.0442,0.0205
875,0.0032,0.0103,0.0394,0.0016
876,0.0029,0.0162,0.0447,0.0024
877,0.0029,0.0162,0.0447,0.0024
878,0.0029,0.0162,0.0447,0.0024
879,0.0031,0.0207,0.0664,0.0030
880,0.0029,0.0162,0.0447,0.0024
881,0.0029,0.0162,0.0447,0.0024
882,0.0029,0.0162,0.0447,0.0024
883,0.0029,0.0162,0.0447,0.0024
884,0.0029,0.0162,0.0447,0.0024
885,0.0029,0.0162,0.0447,0.0024
886,0.0029,0.0162,0.0447,0.0024
887,0.0032,0.0111,0.0417,0.0018
888,0.0029,0.0162,0.0447,0.0024
889,0.0029,0.0162,0.0447,0.0024
890,0.0031,0.0207,0.0664,0.0030
891,0.0029,0.0162,0.0447,0.0024
892,0.0029,0.0162,0.0447,0.0024
893,0.0029,0.0162,0.0447,0.0024
894,0.0029,0.0162,0.0447,0.0024
895,0.0029,0.0162,0.0447,0.0024
896,0.0029,0.0162,0.0447,0.0024
897,0.0029,0.0162,0.0447,0.0024
898,0.0029,0.0162,0.0447,0.0024
899,0.0030,0.0135,0.0449,0.0020
900,0.0029,0.0162,0.0447,0.0024
901,0.0031,0.0207,0.0664,0.0030
902,0.0029,0.0162,0.0447,0.0024
903,0.0029,0.0162,0.0447,0.0024
904,0.0029,0.0162,0.0447,0.0024
905,0.0029,0.0162,0.0447,0.0024
906,0.0029,0.0162,0.0447,0.0024
907,0.0029,0.0162,0.0447,0.0024
908,0.0029,0.0162,0.0447,0.0024
909,0.0029,0.0162,0.0447,0.0024
910,0.0029,0.0162,0.0447,0.0024
911,0.0030,0.0170,0.0488,0.0025
912,0.0038,0.0330,0.0815,0.0043
913,0.0029,0.0162,0.0447,0.0024
914,0.0029,0.0162,0.0447,0.0024
915,0.0029,0.0162,0.0447,0.0024
916,0.0029,0.0162,0.0447,0.0024
917,0.0029,0.0162,0.0447,0.0024
918,0.0084,0.0312,0.0559,0.0024
919,0.0058,0.0255,0.0544,0.0020
920,0.0043,0.0201,0.0524,0.0019
921,0.0039,0.0155,0.0515,0.0020
922,0.0030,0.0135,0.0449,0.0020
923,0.0031,0.0207,0.0664,0.0030
924,0.0030,0.0231,0.0540,0.0034
925,0.0051,0.0150,0.0487,0.0024
926,0.0057,0.0179,0.0476,0.0027
927,0.0055,0.0175,0.0466,0.0028
928,0.0049,0.0138,0.0459,0.0029
929,0.0039,0.0103,0.0448,0.0026
930,0.0028,0.0173,0.0424,0.0020
931,0.0030,0.0129,0.0398,0.0016
932,0.0031,0.0112,0.0396,0.0016
933,0.0032,0.0103,0.0394,0.0016
934,0.0031,0.0207,0.0664,0.0030
935,0.0032,0.0111,0.0417,0.0018
936,0.0031,0.0280,0.0596,0.0047
937,0.0030,0.0135,0.0449,0.0020
938,0.0030,0.0170,0.0488,0.0025
939,0.0030,0.0231,0.0540,0.0034
940,0.0031,0.0280,0.0596,0.0047
941,0.0034,0.0353,0.0662,0.0065
942,0.0084,0.0436,0.0503,0.0304
943,0.0072,0.0250,0.0474,0.0273
944,0.0065,0.0172,0.0455,0.0245
945,0.0032,0.0220,0.0703,0.0037
946,0.0031,0.0207,0.0664,0.0030
947,0.0030,0.0217,0.0644,0.0027
948,0.0030,0.0217,0.0644,0.0027
949,0.0030,0.0217,0.0644,0.0027
950,0.0031,0.0207,0.0654,0.0029
951,0.0031,0.0207,0.0654,0.0029
952,0.0032,0.0205,0.0692,0.0029
953,0.0033,0.0267,0.0765,0.0030
954,0.0035,0.0323,0.0801,0.0030
955,0.0036,0.0358,0.0816,0.0031
956,0.0034,0.0366,0.0816,0.0031
957,0.0031,0.0207,0.0664,0.0030
958,0.0032,0.0357,0.0797,0.0031
959,0.0031,0.0375,0.0777,0.0032
960,0.0031,0.0372,0.0737,0.0036
961,0.0036,0.0395,0.0696,0.0044
962,0.0032,0.0205,0.0692,0.0029
963,0.0073,0.0378,0.0685,0.0452
964,0.0067,0.0382,0.0696,0.0386
965,0.0063,0.0367,0.0697,0.0327
966,0.0058,0.0312,0.0678,0.0271
967,0.0053,0.0234,0.0645,0.0219
968,0.0031,0.0207,0.0664,0.0030
969,0.0048,0.0198,0.0616,0.0175
970,0.0043,0.0200,0.0613,0.0145
971,0.0038,0.0203,0.0615,0.0115
972,0.0035,0.0203,0.0613,0.0084
973,0.0032,0.0214,0.0632,0.0057
974,0.0033,0.0267,0.0765,0.0030
975,0.0030,0.0214,0.0652,0.0022
976,0.0035,0.0208,0.0650,0.0052
977,0.0040,0.0214,0.0664,0.0086
978,0.0047,0.0225,0.0677,0.0124
979,0.0031,0.0207,0.0664,0.0030
980,0.0057,0.0234,0.0689,0.0167
981,0.0065,0.0260,0.0721,0.0219
982,0.0071,0.0344,0.0758,0.0282
983,0.0075,0.0388,0.0777,0.0353
984,0.0080,0.0361,0.0767,0.0425
985,0.0102,0.0392,0.0747,0.0498
986,0.0035,0.0323,0.0801,0.0030
987,0.0030,0.0217,0.0644,0.0027
988,0.0030,0.0217,0.0644,0.0027
989,0.0030,0.0217,0.0644,0.0027
990,0.0031,0.0207,0.0664,0.0030
991,0.0030,0.0217,0.0644,0.0027
992,0.0030,0.0217,0.0644,0.0027
993,0.0030,0.0217,0.0644,0.0027
994,0.0030,0.0217,0.0644,0.0027
995,0.0030,0.0217,0.0644,0.0027
996,0.0030,0.0217,0.0644,0.0027
997,0.0030,0.0217,0.0644,0.0027
998,0.0036,0.0358,0.0816,0.0031
999,0.0030,0.0217,0.0644,0.0027
1000,0.0030,0.0217,0.0644,0.0027
1001,0.0031,0.0207,0.0664,0.0030
1002,0.0030,0.0217,0.0644,0.0027
1003,0.0030,0.0217,0.0644,0.0027
1004,0.0030,0.0217,0.0644,0.0027
1005,0.0030,0.0217,0.0644,0.0027
1006,0.0030,0.0217,0.0644,0.0027
1007,0.0030,0.0217,0.0644,0.0027
1008,0.0030,0.0217,0.0644,0.0027
1009,0.0030,0.0217,0.0644,0.0027
1010,0.0034,0.0366,0.0816,0.0031
1011,0.0030,0.0217,0.0644,0.0027
1012,0.0031,0.0207,0.0664,0.0030
1013,0.0030,0.0217,0.0644,0.0027
1014,0.0030,0.0217,0.0644,0.0027
1015,0.0030,0.0217,0.0644,0.0027
1016,0.0030,0.0217,0.0644,0.0027
1017,0.0030,0.0217,0.0644,0.0027
1018,0.0030,0.0217,0.0644,0.0027
1019,0.0030,0.0217,0.0644,0.0027
1020,0.0030,0.0217,0.0644,0.0027
1021,0.0030,0.0217,0.0644,0.0027
1022,0.0032,0.0357,0.0797,0.0031
1023,0.0031,0.0207,0.0664,0.0030
1024,0.0030,0.0217,0.0644,0.0027
1025,0.0030,0.0217,0.0644,0.0027
1026,0.0030,0.0217,0.0644,0.0027
1027,0.0030,0.0217,0.0644,0.0027
1028,0.0030,0.0217,0.0644,0.0027
1029,0.0102,0.0185,0.0449,0.0052
1030,0.0073,0.0208,0.0472,0.0046
1031,0.0051,0.0244,0.0497,0.0041
1032,0.0037,0.0293,0.0520,0.0036
1033,0.0034,0.0366,0.0816,0.0031
1034,0.0037,0.0342,0.0813,0.0043
1035,0.0031,0.0375,0.0777,0.0032
1036,0.0040,0.0398,0.0565,0.0028
1037,0.0046,0.0409,0.0579,0.0026
1038,0.0047,0.0407,0.0600,0.0025
1039,0.0044,0.0369,0.0618,0.0025
1040,0.0037,0.0286,0.0633,0.0026
1041,0.0031,0.0207,0.0654,0.0029
1042,0.0032,0.0205,0.0692,0.0029
1043,0.0033,0.0267,0.0765,0.0030
1044,0.0035,0.0323,0.0801,0.0030
1045,0.0031,0.0207,0.0664,0.0030
1046,0.0036,0.0358,0.0816,0.0031
1047,0.0031,0.0372,0.0737,0.0036
1048,0.0034,0.0366,0.0816,0.0031
1049,0.0032,0.0357,0.0797,0.0031
1050,0.0031,0.0375,0.0777,0.0032
1051,0.0031,0.0372,0.0737,0.0036
1052,0.0036,0.0395,0.0696,0.0044
1053,0.0073,0.0378,0.0685,0.0452
1054,0.0067,0.0382,0.0696,0.0386
1055,0.0063,0.0367,0.0697,0.0327
1056,0.0033,0.0247,0.0771,0.0040
1057,0.0031,0.0207,0.0664,0.0030
1058,0.0030,0.0184,0.0449,0.0020
1059,0.0030,0.0184,0.0449,0.0020
1060,0.0030,0.0184,0.0449,0.0020
1061,0.0029,0.0188,0.0464,0.0021
1062,0.0029,0.0188,0.0464,0.0021
1063,0.0031,0.0179,0.0501,0.0021
1064,0.0032,0.0234,0.0562,0.0022
1065,0.0034,0.0287,0.0590,0.0022
1066,0.0035,0.0301,0.0592,0.0023
1067,0.0034,0.0303,0.0590,0.0024
1068,0.0031,0.0207,0.0664,0.0030
1069,0.0032,0.0295,0.0566,0.0025
1070,0.0031,0.0316,0.0543,0.0029
1071,0.0031,0.0324,0.0504,0.0036
1072,0.0036,0.0368,0.0461,0.0047
1073,0.0031,0.0179,0.0501,0.0021
1074,0.0073,0.0273,0.0477,0.0309
1075,0.0066,0.0286,0.0495,0.0260
1076,0.0062,0.0286,0.0498,0.0216
1077,0.0057,0.0260,0.0488,0.0177
1078,0.0052,0.0191,0.0454,0.0139
1079,0.0031,0.0207,0.0664,0.0030
1080,0.0047,0.0174,0.0429,0.0112
1081,0.0042,0.0175,0.0427,0.0094
1082,0.0038,0.0176,0.0422,0.0075
1083,0.0034,0.0175,0.0425,0.0057
1084,0.0031,0.0182,0.0438,0.0038
1085,0.0032,0.0234,0.0562,0.0022
1086,0.0030,0.0181,0.0455,0.0020
1087,0.0034,0.0183,0.0457,0.0041
1088,0.0039,0.0190,0.0463,0.0066
1089,0.0045,0.0202,0.0483,0.0093
1090,0.0031,0.0207,0.0664,0.0030
1091,0.0055,0.0198,0.0490,0.0121
1092,0.0064,0.0228,0.0522,0.0157
1093,0.0071,0.0308,0.0560,0.0205
1094,0.0075,0.0333,0.0566,0.0258
1095,0.0079,0.0305,0.0556,0.0316
1096,0.0102,0.0374,0.0535,0.0374
1097,0.0034,0.0287,0.0590,0.0022
1098,0.0030,0.0184,0.0449,0.0020
1099,0.0030,0.0184,0.0449,0.0020
1100,0.0030,0.0184,0.0449,0.0020
1101,0.0031,0.0207,0.0664,0.0030
1102,0.0030,0.0184,0.0449,0.0020
1103,0.0030,0.0184,0.0449,0.0020
1104,0.0030,0.0184,0.0449,0.0020
1105,0.0030,0.0184,0.0449,0.0020
1106,0.0030,0.0184,0.0449,0.0020
1107,0.0030,0.0184,0.0449,0.0020
1108,0.0030,0.0184,0.0449,0.0020
1109,0.0035,0.0301,0.0592,0.0023
1110,0.0030,0.0184,0.0449,0.0020
1111,0.0030,0.0184,0.0449,0.0020
1112,0.0031,0.0207,0.0664,0.0030
1113,0.0030,0.0184,0.0449,0.0020
1114,0.0030,0.0184,0.0449,0.0020
1115,0.0030,0.0184,0.0449,0.0020
1116,0.0030,0.0184,0.0449,0.0020
1117,0.0030,0.0184,0.0449,0.0020
1118,0.0030,0.0184,0.0449,0.0020
1119,0.0030,0.0184,0.0449,0.0020
1120,0.0030,0.0184,0.0449,0.0020
1121,0.0034,0.0303,0.0590,0.0024
1122,0.0030,0.0184,0.0449,0.0020
1123,0.0031,0.0207,0.0664,0.0030
1124,0.0030,0.0184,0.0449,0.0020
1125,0.0030,0.0184,0.0449,0.0020
1126,0.0030,0.0184,0.0449,0.0020
1127,0.0030,0.0184,0.0449,0.0020
1128,0.0030,0.0184,0.0449,0.0020
1129,0.0030,0.0184,0.0449,0.0020
1130,0.0030,0.0184,0.0449,0.0020
1131,0.0030,0.0184,0.0449,0.0020
1132,0.0030,0.0184,0.0449,0.0020
1133,0.0032,0.0295,0.0566,0.0025
1134,0.0031,0.0207,0.0664,0.0030
1135,0.0030,0.0184,0.0449,0.0020
1136,0.0030,0.0184,0.0449,0.0020
1137,0.0030,0.0184,0.0449,0.0020
1138,0.0030,0.0184,0.0449,0.0020
1139,0.0030,0.0184,0.0449,0.0020
1140,0.0098,0.0162,0.0295,0.0045
1141,0.0069,0.0171,0.0310,0.0039
1142,0.0048,0.0199,0.0330,0.0033
1143,0.0035,0.0254,0.0353,0.0029
1144,0.0034,0.0303,0.0590,0.0024
1145,0.0031,0.0207,0.0664,0.0030
1146,0.0031,0.0316,0.0543,0.0029
1147,0.0042,0.0348,0.0387,0.0020
1148,0.0048,0.0362,0.0398,0.0018
1149,0.0049,0.0372,0.0419,0.0018
1150,0.0045,0.0327,0.0433,0.0019
1151,0.0037,0.0241,0.0442,0.0019
1152,0.0029,0.0188,0.0464,0.0021
1153,0.0031,0.0179,0.0501,0.0021
1154,0.0032,0.0234,0.0562,0.0022
1155,0.0034,0.0287,0.0590,0.0022
1156,0.0035,0.0344,0.0793,0.0042
1157,0.0035,0.0301,0.0592,0.0023
1158,0.0031,0.0324,0.0504,0.0036
1159,0.0034,0.0303,0.0590,0.0024
1160,0.0032,0.0295,0.0566,0.0025
1161,0.0031,0.0316,0.0543,0.0029
1162,0.0031,0.0324,0.0504,0.0036
1163,0.0036,0.0368,0.0461,0.0047
1164,0.0073,0.0273,0.0477,0.0309
1165,0.0066,0.0286,0.0495,0.0260
1166,0.0062,0.0286,0.0498,0.0216
1167,0.0036,0.0297,0.0806,0.0041
1168,0.0031,0.0207,0.0664,0.0030
1169,0.0029,0.0136,0.0175,0.0018
1170,0.0029,0.0136,0.0175,0.0018
1171,0.0029,0.0136,0.0175,0.0018
1172,0.0028,0.0158,0.0166,0.0016
1173,0.0028,0.0158,0.0166,0.0016
1174,0.0030,0.0137,0.0170,0.0016
1175,0.0032,0.0160,0.0191,0.0016
1176,0.0034,0.0197,0.0202,0.0018
1177,0.0034,0.0198,0.0197,0.0020
1178,0.0032,0.0195,0.0192,0.0023
1179,0.0031,0.0207,0.0664,0.0030
1180,0.0031,0.0202,0.0181,0.0028
1181,0.0030,0.0249,0.0186,0.0036
1182,0.0032,0.0299,0.0199,0.0048
1183,0.0037,0.0398,0.0238,0.0063
1184,0.0030,0.0137,0.0170,0.0016
1185,0.0075,0.0268,0.0206,0.0127
1186,0.0066,0.0169,0.0205,0.0106
1187,0.0061,0.0161,0.0205,0.0093
1188,0.0056,0.0144,0.0200,0.0086
1189,0.0051,0.0138,0.0194,0.0084
1190,0.0031,0.0207,0.0664,0.0030
1191,0.0046,0.0148,0.0191,0.0084
1192,0.0041,0.0152,0.0187,0.0078
1193,0.0036,0.0148,0.0185,0.0067
1194,0.0033,0.0138,0.0182,0.0053
1195,0.0030,0.0138,0.0179,0.0035
1196,0.0032,0.0160,0.0191,0.0016
1197,0.0029,0.0142,0.0172,0.0019
1198,0.0033,0.0153,0.0171,0.0038
1199,0.0038,0.0164,0.0169,0.0058
1200,0.0045,0.0170,0.0172,0.0075
1201,0.0031,0.0207,0.0664,0.0030
1202,0.0055,0.0148,0.0178,0.0084
1203,0.0064,0.0166,0.0192,0.0087
1204,0.0071,0.0214,0.0204,0.0089
1205,0.0075,0.0228,0.0206,0.0099
1206,0.0079,0.0204,0.0197,0.0118
1207,0.0103,0.0376,0.0189,0.0145
1208,0.0034,0.0197,0.0202,0.0018
1209,0.0029,0.0136,0.0175,0.0018
1210,0.0029,0.0136,0.0175,0.0018
1211,0.0029,0.0136,0.0175,0.0018
1212,0.0031,0.0207,0.0664,0.0030
1213,0.0029,0.0136,0.0175,0.0018
1214,0.0029,0.0136,0.0175,0.0018
1215,0.0029,0.0136,0.0175,0.0018
1216,0.0029,0.0136,0.0175,0.0018
1217,0.0029,0.0136,0.0175,0.0018
1218,0.0029,0.0136,0.0175,0.0018
1219,0.0029,0.0136,0.0175,0.0018
1220,0.0034,0.0198,0.0197,0.0020
1221,0.0029,0.0136,0.0175,0.0018
1222,0.0029,0.0136,0.0175,0.0018
1223,0.0099,0.0180,0.0453,0.0039
1224,0.0029,0.0136,0.0175,0.0018
1225,0.0029,0.0136,0.0175,0.0018
1226,0.0029,0.0136,0.0175,0.0018
1227,0.0029,0.0136,0.0175,0.0018
1228,0.0029,0.0136,0.0175,0.0018
1229,0.0029,0.0136,0.0175,0.0018
1230,0.0029,0.0136,0.0175,0.0018
1231,0.0029,0.0136,0.0175,0.0018
1232,0.0032,0.0195,0.0192,0.0023
1233,0.0029,0.0136,0.0175,0.0018
1234,0.0069,0.0181,0.0481,0.0035
1235,0.0029,0.0136,0.0175,0.0018
1236,0.0029,0.0136,0.0175,0.0018
1237,0.0029,0.0136,0.0175,0.0018
1238,0.0029,0.0136,0.0175,0.0018
1239,0.0029,0.0136,0.0175,0.0018
1240,0.0029,0.0136,0.0175,0.0018
1241,0.0029,0.0136,0.0175,0.0018
1242,0.0029,0.0136,0.0175,0.0018
1243,0.0029,0.0136,0.0175,0.0018
1244,0.0031,0.0202,0.0181,0.0028
1245,0.0048,0.0206,0.0510,0.0031
1246,0.0029,0.0136,0.0175,0.0018
1247,0.0029,0.0136,0.0175,0.0018
1248,0.0029,0.0136,0.0175,0.0018
1249,0.0029,0.0136,0.0175,0.0018
1250,0.0029,0.0136,0.0175,0.0018
1251,0.0091,0.0167,0.0261,0.0036
1252,0.0063,0.0141,0.0246,0.0029
1253,0.0044,0.0135,0.0233,0.0024
1254,0.0035,0.0168,0.0222,0.0019
1255,0.0032,0.0195,0.0192,0.0023
1256,0.0036,0.0253,0.0536,0.0028
1257,0.0030,0.0249,0.0186,0.0036
1258,0.0046,0.0256,0.0213,0.0014
1259,0.0051,0.0281,0.0211,0.0015
1260,0.0051,0.0274,0.0205,0.0017
1261,0.0048,0.0242,0.0196,0.0018
1262,0.0039,0.0166,0.0187,0.0018
1263,0.0028,0.0158,0.0166,0.0016
1264,0.0030,0.0137,0.0170,0.0016
1265,0.0032,0.0160,0.0191,0.0016
1266,0.0034,0.0197,0.0202,0.0018
1267,0.0037,0.0342,0.0813,0.0043
1268,0.0034,0.0198,0.0197,0.0020
1269,0.0032,0.0299,0.0199,0.0048
1270,0.0032,0.0195,0.0192,0.0023
1271,0.0031,0.0202,0.0181,0.0028
1272,0.0030,0.0249,0.0186,0.0036
1273,0.0032,0.0299,0.0199,0.0048
1274,0.0037,0.0398,0.0238,0.0063
1275,0.0075,0.0268,0.0206,0.0127
1276,0.0066,0.0169,0.0205,0.0106
1277,0.0061,0.0161,0.0205,0.0093
1278,0.0038,0.0330,0.0815,0.0043
1279,0.0035,0.0368,0.0774,0.0039
1280,0.0029,0.0140,0.0355,0.0024
1281,0.0029,0.0140,0.0355,0.0024
1282,0.0029,0.0140,0.0355,0.0024
1283,0.0027,0.0169,0.0335,0.0022
1284,0.0027,0.0169,0.0335,0.0022
1285,0.0030,0.0122,0.0298,0.0020
1286,0.0031,0.0119,0.0279,0.0020
1287,0.0032,0.0127,0.0274,0.0023
1288,0.0032,0.0133,0.0287,0.0026
1289,0.0030,0.0144,0.0314,0.0030
1290,0.0044,0.0358,0.0586,0.0024
1291,0.0030,0.0192,0.0355,0.0036
1292,0.0031,0.0267,0.0400,0.0046
1293,0.0034,0.0348,0.0460,0.0060
1294,0.0040,0.0469,0.0524,0.0077
1295,0.0030,0.0122,0.0298,0.0020
1296,0.0080,0.0424,0.0406,0.0269
1297,0.0069,0.0237,0.0378,0.0244
1298,0.0062,0.0160,0.0362,0.0221
1299,0.0057,0.0153,0.0367,0.0206
1300,0.0051,0.0152,0.0370,0.0188
1301,0.0049,0.0372,0.0600,0.0024
1302,0.0046,0.0164,0.0379,0.0171
1303,0.0041,0.0168,0.0381,0.0148
1304,0.0036,0.0166,0.0381,0.0120
1305,0.0033,0.0150,0.0380,0.0090
1306,0.0030,0.0140,0.0366,0.0057
1307,0.0031,0.0119,0.0279,0.0020
1308,0.0029,0.0153,0.0349,0.0022
1309,0.0033,0.0164,0.0343,0.0056
1310,0.0038,0.0169,0.0329,0.0089
1311,0.0045,0.0164,0.0315,0.0119
1312,0.0050,0.0372,0.0624,0.0024
1313,0.0055,0.0139,0.0305,0.0141
1314,0.0065,0.0126,0.0285,0.0151
1315,0.0071,0.0150,0.0278,0.0153
1316,0.0075,0.0157,0.0278,0.0150
1317,0.0079,0.0179,0.0293,0.0147
1318,0.0104,0.0432,0.0328,0.0150
1319,0.0032,0.0127,0.0274,0.0023
1320,0.0029,0.0140,0.0355,0.0024
1321,0.0029,0.0140,0.0355,0.0024
1322,0.0029,0.0140,0.0355,0.0024
1323,0.0046,0.0333,0.0641,0.0025
1324,0.0029,0.0140,0.0355,0.0024
1325,0.0029,0.0140,0.0355,0.0024
1326,0.0029,0.0140,0.0355,0.0024
1327,0.0029,0.0140,0.0355,0.0024
1328,0.0029,0.0140,0.0355,0.0024
1329,0.0029,0.0140,0.0355,0.0024
1330,0.0029,0.0140,0.0355,0.0024
1331,0.0032,0.0133,0.0287,0.0026
1332,0.0029,0.0140,0.0355,0.0024
1333,0.0029,0.0140,0.0355,0.0024
1334,0.0039,0.0256,0.0655,0.0027
1335,0.0029,0.0140,0.0355,0.0024
1336,0.0029,0.0140,0.0355,0.0024
1337,0.0029,0.0140,0.0355,0.0024
1338,0.0029,0.0140,0.0355,0.0024
1339,0.0029,0.0140,0.0355,0.0024
1340,0.0029,0.0140,0.0355,0.0024
1341,0.0029,0.0140,0.0355,0.0024
1342,0.0029,0.0140,0.0355,0.0024
1343,0.0030,0.0144,0.0314,0.0030
1344,0.0029,0.0140,0.0355,0.0024
1345,0.0031,0.0228,0.0669,0.0034
1346,0.0029,0.0140,0.0355,0.0024
1347,0.0029,0.0140,0.0355,0.0024
1348,0.0029,0.0140,0.0355,0.0024
1349,0.0029,0.0140,0.0355,0.0024
1350,0.0029,0.0140,0.0355,0.0024
1351,0.0029,0.0140,0.0355,0.0024
1352,0.0029,0.0140,0.0355,0.0024
1353,0.0029,0.0140,0.0355,0.0024
1354,0.0029,0.0140,0.0355,0.0024
1355,0.0030,0.0192,0.0355,0.0036
1356,0.0032,0.0220,0.0703,0.0037
1357,0.0029,0.0140,0.0355,0.0024
1358,0.0029,0.0140,0.0355,0.0024
1359,0.0029,0.0140,0.0355,0.0024
1360,0.0029,0.0140,0.0355,0.0024
1361,0.0029,0.0140,0.0355,0.0024
1362,0.0088,0.0229,0.0489,0.0032
1363,0.0061,0.0177,0.0473,0.0026
1364,0.0043,0.0139,0.0454,0.0021
1365,0.0037,0.0122,0.0437,0.0017
1366,0.0030,0.0144,0.0314,0.0030
1367,0.0033,0.0247,0.0771,0.0040
1368,0.0031,0.0267,0.0400,0.0046
1369,0.0048,0.0179,0.0415,0.0018
1370,0.0054,0.0208,0.0408,0.0021
1371,0.0053,0.0205,0.0393,0.0023
1372,0.0048,0.0165,0.0380,0.0025
1373,0.0038,0.0111,0.0368,0.0025
1374,0.0027,0.0169,0.0335,0.0022
1375,0.0030,0.0122,0.0298,0.0020
1376,0.0031,0.0119,0.0279,0.0020
1377,0.0032,0.0127,0.0274,0.0023
1378,0.0036,0.0297,0.0806,0.0041
1379,0.0032,0.0133,0.0287,0.0026
1380,0.0034,0.0348,0.0460,0.0060
1381,0.0030,0.0144,0.0314,0.0030
1382,0.0030,0.0192,0.0355,0.0036
1383,0.0031,0.0267,0.0400,0.0046
1384,0.0034,0.0348,0.0460,0.0060
1385,0.0040,0.0469,0.0524,0.0077
1386,0.0080,0.0424,0.0406,0.0269
1387,0.0069,0.0237,0.0378,0.0244
1388,0.0062,0.0160,0.0362,0.0221
1389,0.0037,0.0342,0.0813,0.0043
1390,0.0038,0.0330,0.0815,0.0043
1391,0.0029,0.0155,0.0473,0.0027
1392,0.0029,0.0155,0.0473,0.0027
1393,0.0029,0.0155,0.0473,0.0027
1394,0.0028,0.0168,0.0445,0.0025
1395,0.0028,0.0168,0.0445,0.0025
1396,0.0030,0.0137,0.0421,0.0023
1397,0.0031,0.0116,0.0405,0.0023
1398,0.0032,0.0113,0.0399,0.0025
1399,0.0032,0.0118,0.0418,0.0029
1400,0.0030,0.0154,0.0451,0.0033
1401,0.0033,0.0367,0.0733,0.0037
1402,0.0031,0.0208,0.0491,0.0040
1403,0.0032,0.0297,0.0543,0.0051
1404,0.0036,0.0384,0.0605,0.0065
1405,0.0042,0.0500,0.0670,0.0082
1406,0.0030,0.0137,0.0421,0.0023
1407,0.0083,0.0503,0.0533,0.0352
1408,0.0071,0.0298,0.0503,0.0319
1409,0.0064,0.0207,0.0485,0.0288
1410,0.0058,0.0185,0.0488,0.0264
1411,0.0052,0.0183,0.0490,0.0238
1412,0.0037,0.0342,0.0813,0.0043
1413,0.0047,0.0174,0.0490,0.0210
1414,0.0041,0.0181,0.0495,0.0180
1415,0.0036,0.0175,0.0493,0.0145
1416,0.0033,0.0153,0.0490,0.0108
1417,0.0030,0.0155,0.0482,0.0067
1418,0.0031,0.0116,0.0405,0.0023
1419,0.0029,0.0175,0.0467,0.0025
1420,0.0034,0.0175,0.0456,0.0066
1421,0.0039,0.0174,0.0439,0.0107
1422,0.0045,0.0176,0.0430,0.0144
1423,0.0035,0.0344,0.0793,0.0042
1424,0.0055,0.0138,0.0417,0.0173
1425,0.0065,0.0120,0.0399,0.0193
1426,0.0071,0.0133,0.0395,0.0204
1427,0.0075,0.0143,0.0393,0.0207
1428,0.0079,0.0185,0.0408,0.0209
1429,0.0105,0.0469,0.0450,0.0217
1430,0.0032,0.0113,0.0399,0.0025
1431,0.0029,0.0155,0.0473,0.0027
1432,0.0029,0.0155,0.0473,0.0027
1433,0.0029,0.0155,0.0473,0.0027
1434,0.0035,0.0368,0.0774,0.0039
1435,0.0029,0.0155,0.0473,0.0027
1436,0.0029,0.0155,0.0473,0.0027
1437,0.0029,0.0155,0.0473,0.0027
1438,0.0029,0.0155,0.0473,0.0027
1439,0.0029,0.0155,0.0473,0.0027
1440,0.0029,0.0155,0.0473,0.0027
1441,0.0029,0.0155,0.0473,0.0027
1442,0.0032,0.0118,0.0418,0.0029
1443,0.0029,0.0155,0.0473,0.0027
1444,0.0029,0.0155,0.0473,0.0027
1445,0.0033,0.0367,0.0733,0.0037
1446,0.0029,0.0155,0.0473,0.0027
1447,0.0029,0.0155,0.0473,0.0027
1448,0.0029,0.0155,0.0473,0.0027
1449,0.0029,0.0155,0.0473,0.0027
1450,0.0029,0.0155,0.0473,0.0027
1451,0.0029,0.0155,0.0473,0.0027
1452,0.0029,0.0155,0.0473,0.0027
1453,0.0029,0.0155,0.0473,0.0027
1454,0.0030,0.0154,0.0451,0.0033
1455,0.0029,0.0155,0.0473,0.0027
1456,0.0032,0.0375,0.0690,0.0038
1457,0.0029,0.0155,0.0473,0.0027
1458,0.0029,0.0155,0.0473,0.0027
1459,0.0029,0.0155,0.0473,0.0027
1460,0.0029,0.0155,0.0473,0.0027
1461,0.0029,0.0155,0.0473,0.0027
1462,0.0029,0.0155,0.0473,0.0027
1463,0.0029,0.0155,0.0473,0.0027
1464,0.0029,0.0155,0.0473,0.0027
1465,0.0029,0.0155,0.0473,0.0027
1466,0.0031,0.0208,0.0491,0.0040
1467,0.0075,0.0360,0.0702,0.0487
1468,0.0029,0.0155,0.0473,0.0027
1469,0.0029,0.0155,0.0473,0.0027
1470,0.0029,0.0155,0.0473,0.0027
1471,0.0029,0.0155,0.0473,0.0027
1472,0.0029,0.0155,0.0473,0.0027
1473,0.0086,0.0257,0.0597,0.0031
1474,0.0060,0.0207,0.0582,0.0025
1475,0.0043,0.0166,0.0567,0.0021
1476,0.0037,0.0129,0.0552,0.0018
1477,0.0030,0.0154,0.0451,0.0033
1478,0.0069,0.0379,0.0714,0.0421
1479,0.0032,0.0297,0.0543,0.0051
1480,0.0049,0.0154,0.0528,0.0020
1481,0.0055,0.0186,0.0514,0.0023
1482,0.0054,0.0185,0.0500,0.0026
1483,0.0048,0.0143,0.0493,0.0028
1484,0.0038,0.0104,0.0483,0.0028
1485,0.0028,0.0168,0.0445,0.0025
1486,0.0030,0.0137,0.0421,0.0023
1487,0.0031,0.0116,0.0405,0.0023
1488,0.0032,0.0113,0.0399,0.0025
1489,0.0064,0.0364,0.0717,0.0359
1490,0.0032,0.0118,0.0418,0.0029
1491,0.0036,0.0384,0.0605,0.0065
1492,0.0030,0.0154,0.0451,0.0033
1493,0.0031,0.0208,0.0491,0.0040
1494,0.0032,0.0297,0.0543,0.0051
1495,0.0036,0.0384,0.0605,0.0065
1496,0.0042,0.0500,0.0670,0.0082
1497,0.0083,0.0503,0.0533,0.0352
1498,0.0071,0.0298,0.0503,0.0319
1499,0.0064,0.0207,0.0485,0.0288
1500,0.0063,0.0332,0.0649,0.0031
1501,0.0063,0.0332,0.0649,0.0031
1502,0.0069,0.0549,0.0767,0.0047
1503,0.0187,0.0347,0.0471,0.0508
1504,0.0020,0.0118,0.0484,0.0028
1505,0.0019,0.0160,0.0466,0.0026
1506,0.0020,0.0118,0.0484,0.0028
1507,0.0027,0.0109,0.0495,0.0032
1508,0.0021,0.0215,0.0566,0.0031
1509,0.0020,0.0118,0.0484,0.0028
1510,0.0020,0.0118,0.0484,0.0028
1511,0.0019,0.0160,0.0466,0.0026
1512,0.0020,0.0118,0.0484,0.0028
1513,0.0021,0.0215,0.0566,0.0031
1514,0.0118,0.0303,0.0495,0.0448
1515,0.0019,0.0160,0.0466,0.0026
1516,0.0020,0.0118,0.0484,0.0028
1517,0.0020,0.0118,0.0484,0.0028
1518,0.0019,0.0160,0.0466,0.0026
1519,0.0031,0.0275,0.0639,0.0045
1520,0.0020,0.0118,0.0484,0.0028
1521,0.0019,0.0160,0.0466,0.0026
1522,0.0020,0.0118,0.0484,0.0028
1523,0.0020,0.0118,0.0484,0.0028
1524,0.0021,0.0215,0.0566,0.0031
1525,0.0091,0.0308,0.0542,0.0414
1526,0.0101,0.0265,0.0591,0.0028
1527,0.0075,0.0211,0.0571,0.0023
1528,0.0058,0.0196,0.0538,0.0023
1529,0.0044,0.0120,0.0539,0.0019
1530,0.0028,0.0233,0.0599,0.0037
1531,0.0036,0.0211,0.0544,0.0045
1532,0.0043,0.0146,0.0513,0.0023
1533,0.0044,0.0177,0.0496,0.0026
1534,0.0039,0.0282,0.0488,0.0027
1535,0.0038,0.0144,0.0559,0.0033
1536,0.0104,0.0364,0.0601,0.0393
1537,0.0026,0.0071,0.0482,0.0029
1538,0.0020,0.0155,0.0439,0.0023
1539,0.0021,0.0097,0.0440,0.0022
1540,0.0022,0.0079,0.0428,0.0021
1541,0.0024,0.0180,0.0532,0.0027
1542,0.0025,0.0095,0.0455,0.0028
1543,0.0040,0.0279,0.0646,0.0066
1544,0.0028,0.0189,0.0460,0.0028
1545,0.0030,0.0144,0.0535,0.0040
1546,0.0035,0.0342,0.0693,0.0057
1547,0.0125,0.0485,0.0663,0.0378
1548,0.0040,0.0252,0.0597,0.0058
1549,0.0047,0.0366,0.0709,0.0083
1550,0.0086,0.0474,0.0518,0.0329
1551,0.0073,0.0269,0.0481,0.0281
1552,0.0060,0.0266,0.0534,0.0307
1553,0.0132,0.0240,0.0373,0.0250
1554,0.0057,0.0221,0.0354,0.0292
1555,0.0079,0.0221,0.0355,0.0332
1556,0.0119,0.0203,0.0352,0.0347
1557,0.0150,0.0204,0.0357,0.0354
1558,0.0062,0.0300,0.0458,0.0024
1559,0.0033,0.0234,0.0609,0.0028
1560,0.0033,0.0234,0.0609,0.0028
1561,0.0031,0.0206,0.0664,0.0030
1562,0.0033,0.0287,0.0618,0.0032
1563,0.0034,0.0399,0.0630,0.0031
1564,0.0032,0.0221,0.0703,0.0037
1565,0.0034,0.0269,0.0725,0.0037
1566,0.0037,0.0291,0.0757,0.0038
1567,0.0038,0.0330,0.0814,0.0043
1568,0.0038,0.0417,0.0782,0.0039
1569,0.0062,0.0300,0.0458,0.0024
1570,0.0036,0.0345,0.0749,0.0040
1571,0.0035,0.0368,0.0774,0.0040
1572,0.0033,0.0373,0.0694,0.0040
1573,0.0033,0.0389,0.0654,0.0045
1574,0.0034,0.0389,0.0665,0.0032
1575,0.0076,0.0354,0.0667,0.0469
1576,0.0070,0.0348,0.0676,0.0406
1577,0.0064,0.0361,0.0716,0.0359
1578,0.0060,0.0270,0.0650,0.0290
1579,0.0055,0.0305,0.0625,0.0245
1580,0.0062,0.0300,0.0458,0.0024
1581,0.0049,0.0192,0.0636,0.0195
1582,0.0044,0.0244,0.0581,0.0161
1583,0.0040,0.0243,0.0582,0.0129
1584,0.0036,0.0198,0.0634,0.0092
1585,0.0035,0.0339,0.0611,0.0065
1586,0.0034,0.0269,0.0725,0.0037
1587,0.0032,0.0212,0.0671,0.0021
1588,0.0038,0.0265,0.0611,0.0058
1589,0.0042,0.0285,0.0623,0.0096
1590,0.0052,0.0411,0.0643,0.0150
1591,0.0064,0.0263,0.0463,0.0026
1592,0.0059,0.0294,0.0642,0.0179
1593,0.0067,0.0279,0.0673,0.0229
1594,0.0072,0.0338,0.0758,0.0285
1595,0.0076,0.0357,0.0727,0.0356
1596,0.0077,0.0457,0.0735,0.0431
1597,0.0098,0.0383,0.0743,0.0505
1598,0.0037,0.0291,0.0757,0.0038
1599,0.0033,0.0234,0.0609,0.0028
1600,0.0031,0.0206,0.0664,0.0030
1601,0.0035,0.0335,0.0620,0.0029
1602,0.0063,0.0238,0.0453,0.0025
1603,0.0033,0.0234,0.0609,0.0028
1604,0.0031,0.0206,0.0664,0.0030
1605,0.0033,0.0234,0.0609,0.0028
1606,0.0033,0.0234,0.0609,0.0028
1607,0.0035,0.0335,0.0620,0.0029
1608,0.0033,0.0234,0.0609,0.0028
1609,0.0033,0.0234,0.0609,0.0028
1610,0.0038,0.0330,0.0814,0.0043
1611,0.0033,0.0234,0.0609,0.0028
1612,0.0035,0.0335,0.0620,0.0029
1613,0.0073,0.0561,0.0748,0.0047
1614,0.0061,0.0295,0.0491,0.0028
1615,0.0031,0.0206,0.0664,0.0030
1616,0.0033,0.0234,0.0609,0.0028
1617,0.0033,0.0234,0.0609,0.0028
1618,0.0031,0.0206,0.0664,0.0030
1619,0.0035,0.0335,0.0620,0.0029
1620,0.0033,0.0234,0.0609,0.0028
1621,0.0031,0.0206,0.0664,0.0030
1622,0.0033,0.0234,0.0609,0.0028
1623,0.0037,0.0337,0.0767,0.0040
1624,0.0035,0.0335,0.0620,0.0029
1625,0.0059,0.0385,0.0548,0.0031
1626,0.0033,0.0234,0.0609,0.0028
1627,0.0033,0.0234,0.0609,0.0028
1628,0.0031,0.0206,0.0664,0.0030
1629,0.0033,0.0234,0.0609,0.0028
1630,0.0035,0.0335,0.0620,0.0029
1631,0.0031,0.0206,0.0664,0.0030
1632,0.0033,0.0234,0.0609,0.0028
1633,0.0033,0.0234,0.0609,0.0028
1634,0.0031,0.0206,0.0664,0.0030
1635,0.0036,0.0430,0.0768,0.0040
1636,0.0059,0.0469,0.0571,0.0033
1637,0.0033,0.0234,0.0609,0.0028
1638,0.0031,0.0206,0.0664,0.0030
1639,0.0033,0.0234,0.0609,0.0028
1640,0.0033,0.0234,0.0609,0.0028
1641,0.0035,0.0335,0.0620,0.0029
1642,0.0098,0.0214,0.0445,0.0035
1643,0.0068,0.0197,0.0463,0.0031
1644,0.0048,0.0207,0.0509,0.0031
1645,0.0036,0.0224,0.0500,0.0025
1646,0.0038,0.0417,0.0782,0.0039
1647,0.0061,0.0490,0.0571,0.0036
1648,0.0035,0.0368,0.0774,0.0040
1649,0.0046,0.0304,0.0534,0.0023
1650,0.0051,0.0316,0.0552,0.0024
1651,0.0050,0.0371,0.0624,0.0024
1652,0.0051,0.0306,0.0593,0.0027
1653,0.0041,0.0231,0.0600,0.0027
1654,0.0031,0.0228,0.0669,0.0034
1655,0.0034,0.0276,0.0653,0.0034
1656,0.0034,0.0269,0.0725,0.0037
1657,0.0037,0.0373,0.0767,0.0036
1658,0.0066,0.0428,0.0555,0.0038
1659,0.0038,0.0314,0.0770,0.0040
1660,0.0033,0.0373,0.0694,0.0040
1661,0.0037,0.0343,0.0814,0.0043
1662,0.0036,0.0345,0.0749,0.0040
1663,0.0035,0.0449,0.0750,0.0041
1664,0.0033,0.0367,0.0732,0.0037
1665,0.0033,0.0389,0.0654,0.0045
1666,0.0076,0.0354,0.0667,0.0469
1667,0.0069,0.0378,0.0714,0.0421
1668,0.0067,0.0364,0.0683,0.0347
1669,0.0069,0.0483,0.0540,0.0039
1670,0.0159,0.0406,0.0527,0.0516
1671,0.0086,0.0350,0.0519,0.0447
1672,0.0080,0.0331,0.0538,0.0405
1673,0.0124,0.0355,0.0579,0.0382
1674,0.0161,0.0440,0.0625,0.0366
1675,0.0032,0.0213,0.0417,0.0021
1676,0.0032,0.0213,0.0417,0.0021
1677,0.0031,0.0180,0.0473,0.0022
1678,0.0031,0.0270,0.0432,0.0023
1679,0.0032,0.0384,0.0470,0.0024
1680,0.0073,0.0490,0.0519,0.0041
1681,0.0031,0.0187,0.0513,0.0027
1682,0.0034,0.0238,0.0527,0.0027
1683,0.0037,0.0260,0.0550,0.0029
1684,0.0037,0.0280,0.0594,0.0032
1685,0.0038,0.0389,0.0587,0.0031
1686,0.0036,0.0302,0.0527,0.0031
1687,0.0034,0.0308,0.0541,0.0029
1688,0.0033,0.0336,0.0472,0.0035
1689,0.0033,0.0366,0.0437,0.0044
1690,0.0033,0.0368,0.0502,0.0025
1691,0.0077,0.0472,0.0483,0.0045
1692,0.0075,0.0269,0.0462,0.0326
1693,0.0069,0.0263,0.0474,0.0280
1694,0.0063,0.0294,0.0521,0.0248
1695,0.0059,0.0228,0.0460,0.0200
1696,0.0054,0.0293,0.0458,0.0181
1697,0.0048,0.0171,0.0451,0.0129
1698,0.0043,0.0222,0.0397,0.0116
1699,0.0039,0.0227,0.0391,0.0093
1700,0.0035,0.0174,0.0448,0.0062
1701,0.0035,0.0326,0.0447,0.0053
1702,0.0083,0.0434,0.0443,0.0053
1703,0.0034,0.0238,0.0527,0.0027
1704,0.0031,0.0187,0.0475,0.0019
1705,0.0037,0.0250,0.0420,0.0049
1706,0.0042,0.0276,0.0427,0.0078
1707,0.0050,0.0398,0.0479,0.0127
1708,0.0058,0.0264,0.0450,0.0138
1709,0.0067,0.0252,0.0477,0.0173
1710,0.0072,0.0302,0.0561,0.0207
1711,0.0076,0.0308,0.0520,0.0266
1712,0.0077,0.0435,0.0551,0.0331
1713,0.0061,0.0257,0.0480,0.0027
1714,0.0098,0.0365,0.0532,0.0380
1715,0.0037,0.0260,0.0550,0.0029
1716,0.0032,0.0213,0.0417,0.0021
1717,0.0031,0.0180,0.0473,0.0022
1718,0.0034,0.0322,0.0455,0.0024
1719,0.0032,0.0213,0.0417,0.0021
1720,0.0031,0.0180,0.0473,0.0022
1721,0.0032,0.0213,0.0417,0.0021
1722,0.0032,0.0213,0.0417,0.0021
1723,0.0034,0.0322,0.0455,0.0024
1724,0.0077,0.0549,0.0710,0.0049
1725,0.0121,0.0295,0.0524,0.0366
1726,0.0032,0.0213,0.0417,0.0021
1727,0.0032,0.0213,0.0417,0.0021
1728,0.0037,0.0280,0.0594,0.0032
1729,0.0032,0.0213,0.0417,0.0021
1730,0.0034,0.0322,0.0455,0.0024
1731,0.0031,0.0180,0.0473,0.0022
1732,0.0032,0.0213,0.0417,0.0021
1733,0.0032,0.0213,0.0417,0.0021
1734,0.0031,0.0180,0.0473,0.0022
1735,0.0034,0.0322,0.0455,0.0024
1736,0.0108,0.0366,0.0541,0.0316
1737,0.0032,0.0213,0.0417,0.0021
1738,0.0031,0.0180,0.0473,0.0022
1739,0.0032,0.0213,0.0417,0.0021
1740,0.0037,0.0288,0.0548,0.0031
1741,0.0034,0.0322,0.0455,0.0024
1742,0.0032,0.0213,0.0417,0.0021
1743,0.0032,0.0213,0.0417,0.0021
1744,0.0031,0.0180,0.0473,0.0022
1745,0.0032,0.0213,0.0417,0.0021
1746,0.0034,0.0322,0.0455,0.0024
1747,0.0100,0.0380,0.0540,0.0267
1748,0.0031,0.0180,0.0473,0.0022
1749,0.0032,0.0213,0.0417,0.0021
1750,0.0032,0.0213,0.0417,0.0021
1751,0.0031,0.0180,0.0473,0.0022
1752,0.0037,0.0407,0.0573,0.0033
1753,0.0032,0.0213,0.0417,0.0021
1754,0.0031,0.0180,0.0473,0.0022
1755,0.0032,0.0213,0.0417,0.0021
1756,0.0032,0.0213,0.0417,0.0021
1757,0.0034,0.0322,0.0455,0.0024
1758,0.0094,0.0350,0.0521,0.0220
1759,0.0094,0.0223,0.0304,0.0029
1760,0.0065,0.0187,0.0310,0.0025
1761,0.0046,0.0176,0.0343,0.0024
1762,0.0036,0.0190,0.0333,0.0019
1763,0.0038,0.0389,0.0587,0.0031
1764,0.0034,0.0308,0.0541,0.0029
1765,0.0047,0.0260,0.0358,0.0018
1766,0.0052,0.0272,0.0370,0.0019
1767,0.0051,0.0339,0.0444,0.0018
1768,0.0051,0.0275,0.0430,0.0024
1769,0.0090,0.0235,0.0461,0.0180
1770,0.0041,0.0193,0.0411,0.0021
1771,0.0030,0.0204,0.0482,0.0025
1772,0.0032,0.0246,0.0466,0.0025
1773,0.0034,0.0238,0.0527,0.0027
1774,0.0037,0.0354,0.0581,0.0028
1775,0.0038,0.0272,0.0553,0.0030
1776,0.0033,0.0336,0.0472,0.0035
1777,0.0037,0.0285,0.0589,0.0033
1778,0.0036,0.0302,0.0527,0.0031
1779,0.0036,0.0429,0.0556,0.0036
1780,0.0086,0.0232,0.0452,0.0140
1781,0.0033,0.0310,0.0501,0.0029
1782,0.0033,0.0366,0.0437,0.0044
1783,0.0075,0.0269,0.0462,0.0326
1784,0.0067,0.0291,0.0514,0.0294
1785,0.0065,0.0314,0.0503,0.0247
1786,0.0158,0.0382,0.0452,0.0415
1787,0.0084,0.0327,0.0421,0.0344
1788,0.0081,0.0304,0.0420,0.0301
1789,0.0126,0.0307,0.0444,0.0280
1790,0.0164,0.0378,0.0479,0.0265
1791,0.0082,0.0227,0.0447,0.0116
1792,0.0032,0.0193,0.0169,0.0019
1793,0.0032,0.0193,0.0169,0.0019
1794,0.0030,0.0141,0.0179,0.0016
1795,0.0030,0.0243,0.0167,0.0016
1796,0.0031,0.0369,0.0322,0.0020
1797,0.0030,0.0147,0.0180,0.0016
1798,0.0033,0.0186,0.0192,0.0016
1799,0.0036,0.0185,0.0203,0.0017
1800,0.0035,0.0187,0.0203,0.0019
1801,0.0036,0.0359,0.0370,0.0024
1802,0.0077,0.0235,0.0437,0.0090
1803,0.0034,0.0249,0.0220,0.0023
1804,0.0032,0.0221,0.0189,0.0023
1805,0.0032,0.0320,0.0264,0.0040
1806,0.0033,0.0383,0.0310,0.0055
1807,0.0032,0.0343,0.0323,0.0018
1808,0.0075,0.0279,0.0199,0.0122
1809,0.0067,0.0171,0.0182,0.0108
1810,0.0062,0.0172,0.0210,0.0079
1811,0.0057,0.0146,0.0167,0.0100
1812,0.0052,0.0285,0.0298,0.0147
1813,0.0070,0.0259,0.0440,0.0067
1814,0.0047,0.0147,0.0189,0.0063
1815,0.0042,0.0218,0.0167,0.0095
1816,0.0038,0.0215,0.0170,0.0082
1817,0.0034,0.0146,0.0182,0.0044
1818,0.0034,0.0323,0.0316,0.0054
1819,0.0033,0.0186,0.0192,0.0016
1820,0.0030,0.0154,0.0179,0.0019
1821,0.0037,0.0233,0.0170,0.0046
1822,0.0041,0.0249,0.0170,0.0072
1823,0.0050,0.0379,0.0317,0.0118
1824,0.0065,0.0244,0.0432,0.0047
1825,0.0058,0.0219,0.0169,0.0109
1826,0.0067,0.0187,0.0173,0.0117
1827,0.0073,0.0221,0.0212,0.0083
1828,0.0076,0.0216,0.0190,0.0126
1829,0.0077,0.0403,0.0340,0.0181
1830,0.0099,0.0353,0.0189,0.0149
1831,0.0036,0.0185,0.0203,0.0017
1832,0.0032,0.0193,0.0169,0.0019
1833,0.0030,0.0141,0.0179,0.0016
1834,0.0034,0.0315,0.0316,0.0024
1835,0.0083,0.0519,0.0671,0.0053
1836,0.0059,0.0385,0.0548,0.0031
1837,0.0032,0.0193,0.0169,0.0019
1838,0.0030,0.0141,0.0179,0.0016
1839,0.0032,0.0193,0.0169,0.0019
1840,0.0032,0.0193,0.0169,0.0019
1841,0.0034,0.0315,0.0316,0.0024
1842,0.0032,0.0193,0.0169,0.0019
1843,0.0032,0.0193,0.0169,0.0019
1844,0.0035,0.0187,0.0203,0.0019
1845,0.0032,0.0193,0.0169,0.0019
1846,0.0034,0.0315,0.0316,0.0024
1847,0.0060,0.0300,0.0458,0.0025
1848,0.0030,0.0141,0.0179,0.0016
1849,0.0032,0.0193,0.0169,0.0019
1850,0.0032,0.0193,0.0169,0.0019
1851,0.0030,0.0141,0.0179,0.0016
1852,0.0034,0.0315,0.0316,0.0024
1853,0.0032,0.0193,0.0169,0.0019
1854,0.0030,0.0141,0.0179,0.0016
1855,0.0032,0.0193,0.0169,0.0019
1856,0.0035,0.0223,0.0213,0.0020
1857,0.0034,0.0315,0.0316,0.0024
1858,0.0060,0.0299,0.0454,0.0047
1859,0.0032,0.0193,0.0169,0.0019
1860,0.0032,0.0193,0.0169,0.0019
1861,0.0030,0.0141,0.0179,0.0016
1862,0.0032,0.0193,0.0169,0.0019
1863,0.0034,0.0315,0.0316,0.0024
1864,0.0030,0.0141,0.0179,0.0016
1865,0.0032,0.0193,0.0169,0.0019
1866,0.0032,0.0193,0.0169,0.0019
1867,0.0030,0.0141,0.0179,0.0016
1868,0.0035,0.0395,0.0384,0.0028
1869,0.0063,0.0301,0.0456,0.0073
1870,0.0032,0.0193,0.0169,0.0019
1871,0.0030,0.0141,0.0179,0.0016
1872,0.0032,0.0193,0.0169,0.0019
1873,0.0032,0.0193,0.0169,0.0019
1874,0.0034,0.0315,0.0316,0.0024
1875,0.0087,0.0262,0.0286,0.0022
1876,0.0060,0.0212,0.0259,0.0018
1877,0.0043,0.0145,0.0210,0.0017
1878,0.0038,0.0139,0.0213,0.0016
1879,0.0036,0.0359,0.0370,0.0024
1880,0.0067,0.0290,0.0456,0.0117
1881,0.0032,0.0221,0.0189,0.0023
1882,0.0051,0.0178,0.0188,0.0019
1883,0.0056,0.0196,0.0179,0.0022
1884,0.0053,0.0255,0.0204,0.0019
1885,0.0053,0.0224,0.0299,0.0027
1886,0.0042,0.0132,0.0168,0.0022
1887,0.0028,0.0173,0.0172,0.0015
1888,0.0032,0.0213,0.0171,0.0015
1889,0.0033,0.0186,0.0192,0.0016
1890,0.0037,0.0310,0.0346,0.0019
1891,0.0072,0.0366,0.0474,0.0127
1892,0.0036,0.0195,0.0206,0.0019
1893,0.0032,0.0320,0.0264,0.0040
1894,0.0034,0.0186,0.0196,0.0020
1895,0.0034,0.0249,0.0220,0.0023
1896,0.0033,0.0434,0.0406,0.0036
1897,0.0032,0.0242,0.0200,0.0032
1898,0.0033,0.0383,0.0310,0.0055
1899,0.0075,0.0279,0.0199,0.0122
1900,0.0067,0.0163,0.0206,0.0097
1901,0.0062,0.0263,0.0300,0.0151
1902,0.0078,0.0439,0.0503,0.0163
1903,0.0160,0.0343,0.0362,0.0258
1904,0.0078,0.0304,0.0306,0.0215
1905,0.0083,0.0276,0.0267,0.0197
1906,0.0132,0.0252,0.0257,0.0196
1907,0.0170,0.0279,0.0262,0.0190
1908,0.0031,0.0208,0.0371,0.0024
1909,0.0031,0.0208,0.0371,0.0024
1910,0.0030,0.0147,0.0330,0.0021
1911,0.0029,0.0248,0.0356,0.0020
1912,0.0030,0.0370,0.0480,0.0024
1913,0.0083,0.0556,0.0534,0.0209
1914,0.0030,0.0125,0.0287,0.0015
1915,0.0032,0.0174,0.0321,0.0016
1916,0.0033,0.0150,0.0324,0.0017
1917,0.0033,0.0126,0.0285,0.0017
1918,0.0033,0.0360,0.0518,0.0026
1919,0.0031,0.0254,0.0424,0.0027
1920,0.0030,0.0207,0.0393,0.0029
1921,0.0031,0.0355,0.0528,0.0050
1922,0.0033,0.0430,0.0593,0.0068
1923,0.0032,0.0329,0.0461,0.0020
1924,0.0088,0.0589,0.0544,0.0263
1925,0.0078,0.0420,0.0407,0.0244
1926,0.0068,0.0233,0.0368,0.0222
1927,0.0063,0.0143,0.0335,0.0180
1928,0.0056,0.0167,0.0357,0.0198
1929,0.0051,0.0309,0.0467,0.0223
1930,0.0047,0.0152,0.0349,0.0143
1931,0.0041,0.0234,0.0380,0.0152
1932,0.0037,0.0232,0.0383,0.0126
1933,0.0033,0.0156,0.0350,0.0078
1934,0.0033,0.0328,0.0487,0.0071
1935,0.0093,0.0453,0.0517,0.0321
1936,0.0032,0.0174,0.0321,0.0016
1937,0.0030,0.0160,0.0324,0.0023
1938,0.0037,0.0236,0.0364,0.0062
1939,0.0041,0.0246,0.0352,0.0099
1940,0.0050,0.0367,0.0466,0.0153
1941,0.0059,0.0201,0.0333,0.0158
1942,0.0068,0.0157,0.0315,0.0173
1943,0.0073,0.0157,0.0275,0.0145
1944,0.0076,0.0168,0.0314,0.0174
1945,0.0077,0.0408,0.0468,0.0216
1946,0.0064,0.0285,0.0658,0.0034
1947,0.0112,0.0397,0.0512,0.0376
1948,0.0100,0.0396,0.0321,0.0139
1949,0.0033,0.0150,0.0324,0.0017
1950,0.0031,0.0208,0.0371,0.0024
1951,0.0030,0.0147,0.0330,0.0021
1952,0.0033,0.0329,0.0486,0.0029
1953,0.0031,0.0208,0.0371,0.0024
1954,0.0030,0.0147,0.0330,0.0021
1955,0.0031,0.0208,0.0371,0.0024
1956,0.0031,0.0208,0.0371,0.0024
1957,0.0033,0.0329,0.0486,0.0029
1958,0.0059,0.0469,0.0571,0.0033
1959,0.0031,0.0208,0.0371,0.0024
1960,0.0031,0.0208,0.0371,0.0024
1961,0.0033,0.0126,0.0285,0.0017
1962,0.0031,0.0208,0.0371,0.0024
1963,0.0033,0.0329,0.0486,0.0029
1964,0.0030,0.0147,0.0330,0.0021
1965,0.0031,0.0208,0.0371,0.0024
1966,0.0031,0.0208,0.0371,0.0024
1967,0.0030,0.0147,0.0330,0.0021
1968,0.0033,0.0329,0.0486,0.0029
1969,0.0062,0.0300,0.0458,0.0024
1970,0.0031,0.0208,0.0371,0.0024
1971,0.0030,0.0147,0.0330,0.0021
1972,0.0031,0.0208,0.0371,0.0024
1973,0.0032,0.0204,0.0377,0.0021
1974,0.0033,0.0329,0.0486,0.0029
1975,0.0031,0.0208,0.0371,0.0024
1976,0.0031,0.0208,0.0371,0.0024
1977,0.0030,0.0147,0.0330,0.0021
1978,0.0031,0.0208,0.0371,0.0024
1979,0.0033,0.0329,0.0486,0.0029
1980,0.0062,0.0300,0.0458,0.0024
1981,0.0030,0.0147,0.0330,0.0021
1982,0.0031,0.0208,0.0371,0.0024
1983,0.0031,0.0208,0.0371,0.0024
1984,0.0030,0.0147,0.0330,0.0021
1985,0.0032,0.0409,0.0559,0.0032
1986,0.0031,0.0208,0.0371,0.0024
1987,0.0030,0.0147,0.0330,0.0021
1988,0.0031,0.0208,0.0371,0.0024
1989,0.0031,0.0208,0.0371,0.0024
1990,0.0033,0.0329,0.0486,0.0029
1991,0.0062,0.0257,0.0440,0.0023
1992,0.0084,0.0330,0.0503,0.0021
1993,0.0058,0.0261,0.0477,0.0018
1994,0.0043,0.0173,0.0417,0.0018
1995,0.0040,0.0142,0.0432,0.0019
1996,0.0033,0.0360,0.0518,0.0026
1997,0.0030,0.0207,0.0393,0.0029
1998,0.0053,0.0115,0.0404,0.0025
1999,0.0058,0.0132,0.0390,0.0027
2000,0.0054,0.0196,0.0358,0.0025
2001,0.0054,0.0195,0.0474,0.0033
2002,0.0062,0.0300,0.0458,0.0024
2003,0.0041,0.0110,0.0371,0.0028
2004,0.0028,0.0174,0.0312,0.0017
2005,0.0031,0.0196,0.0330,0.0016
2006,0.0032,0.0174,0.0321,0.0016
2007,0.0034,0.0300,0.0462,0.0020
2008,0.0033,0.0162,0.0345,0.0018
2009,0.0031,0.0355,0.0528,0.0050
2010,0.0031,0.0134,0.0311,0.0019
2011,0.0031,0.0254,0.0424,0.0027
2012,0.0031,0.0452,0.0604,0.0043
2013,0.0062,0.0300,0.0458,0.0024
2014,0.0031,0.0256,0.0454,0.0042
2015,0.0033,0.0430,0.0593,0.0068
2016,0.0078,0.0420,0.0407,0.0244
2017,0.0070,0.0198,0.0351,0.0200
2018,0.0061,0.0287,0.0453,0.0247
2019,0.0168,0.0325,0.0379,0.0244
2020,0.0073,0.0302,0.0333,0.0252
2021,0.0083,0.0290,0.0316,0.0281
2022,0.0135,0.0253,0.0304,0.0296
2023,0.0174,0.0228,0.0299,0.0299
2024,0.0062,0.0300,0.0458,0.0024
2025,0.0031,0.0221,0.0490,0.0027
2026,0.0031,0.0221,0.0490,0.0027
2027,0.0029,0.0162,0.0446,0.0024
2028,0.0029,0.0246,0.0471,0.0022
2029,0.0030,0.0367,0.0580,0.0026
2030,0.0030,0.0131,0.0398,0.0016
2031,0.0031,0.0181,0.0443,0.0017
2032,0.0033,0.0150,0.0450,0.0018
2033,0.0032,0.0111,0.0416,0.0018
2034,0.0031,0.0381,0.0635,0.0027
2035,0.0062,0.0300,0.0458,0.0024
2036,0.0030,0.0264,0.0557,0.0029
2037,0.0030,0.0230,0.0539,0.0034
2038,0.0031,0.0381,0.0666,0.0054
2039,0.0033,0.0459,0.0737,0.0073
2040,0.0031,0.0337,0.0561,0.0021
2041,0.0081,0.0494,0.0534,0.0325
2042,0.0069,0.0288,0.0495,0.0295
2043,0.0065,0.0172,0.0455,0.0245
2044,0.0057,0.0194,0.0479,0.0252
2045,0.0051,0.0335,0.0577,0.0265
2046,0.0062,0.0257,0.0440,0.0023
2047,0.0047,0.0164,0.0459,0.0183
2048,0.0041,0.0245,0.0497,0.0182
2049,0.0037,0.0243,0.0501,0.0149
2050,0.0033,0.0160,0.0460,0.0096
2051,0.0032,0.0342,0.0594,0.0080
2052,0.0031,0.0181,0.0443,0.0017
2053,0.0030,0.0183,0.0442,0.0026
2054,0.0037,0.0245,0.0481,0.0071
2055,0.0042,0.0252,0.0469,0.0116
2056,0.0051,0.0374,0.0568,0.0174
2057,0.0120,0.0411,0.0733,0.0511
2058,0.0062,0.0300,0.0458,0.0024
2059,0.0059,0.0195,0.0443,0.0188
2060,0.0068,0.0150,0.0425,0.0210
2061,0.0073,0.0139,0.0387,0.0195
2062,0.0076,0.0158,0.0431,0.0226
2063,0.0077,0.0421,0.0570,0.0268
2064,0.0101,0.0433,0.0442,0.0205
2065,0.0033,0.0150,0.0450,0.0018
2066,0.0031,0.0221,0.0490,0.0027
2067,0.0029,0.0162,0.0446,0.0024
2068,0.0033,0.0340,0.0593,0.0032
2069,0.0062,0.0300,0.0458,0.0024
2070,0.0031,0.0221,0.0490,0.0027
2071,0.0029,0.0162,0.0446,0.0024
2072,0.0031,0.0221,0.0490,0.0027
2073,0.0031,0.0221,0.0490,0.0027
2074,0.0033,0.0340,0.0593,0.0032
2075,0.0031,0.0221,0.0490,0.0027
2076,0.0031,0.0221,0.0490,0.0027
2077,0.0032,0.0111,0.0416,0.0018
2078,0.0031,0.0221,0.0490,0.0027
2079,0.0033,0.0340,0.0593,0.0032
2080,0.0061,0.0490,0.0571,0.0036
2081,0.0029,0.0162,0.0446,0.0024
2082,0.0031,0.0221,0.0490,0.0027
2083,0.0031,0.0221,0.0490,0.0027
2084,0.0029,0.0162,0.0446,0.0024
2085,0.0033,0.0340,0.0593,0.0032
2086,0.0031,0.0221,0.0490,0.0027
2087,0.0029,0.0162,0.0446,0.0024
2088,0.0031,0.0221,0.0490,0.0027
2089,0.0031,0.0221,0.0512,0.0023
2090,0.0033,0.0340,0.0593,0.0032
2091,0.0062,0.0300,0.0458,0.0024
2092,0.0031,0.0221,0.0490,0.0027
2093,0.0031,0.0221,0.0490,0.0027
2094,0.0029,0.0162,0.0446,0.0024
2095,0.0031,0.0221,0.0490,0.0027
2096,0.0033,0.0340,0.0593,0.0032
2097,0.0029,0.0162,0.0446,0.0024
2098,0.0031,0.0221,0.0490,0.0027
2099,0.0031,0.0221,0.0490,0.0027
2100,0.0029,0.0162,0.0446,0.0024
2101,0.0030,0.0426,0.0678,0.0035
2102,0.0062,0.0257,0.0440,0.0023
2103,0.0031,0.0221,0.0490,0.0027
2104,0.0029,0.0162,0.0446,0.0024
2105,0.0031,0.0221,0.0490,0.0027
2106,0.0031,0.0221,0.0490,0.0027
2107,0.0033,0.0340,0.0593,0.0032
2108,0.0082,0.0351,0.0602,0.0021
2109,0.0057,0.0290,0.0581,0.0019
2110,0.0043,0.0200,0.0525,0.0019
2111,0.0040,0.0165,0.0545,0.0021
2112,0.0031,0.0381,0.0635,0.0027
2113,0.0062,0.0300,0.0458,0.0024
2114,0.0030,0.0230,0.0539,0.0034
2115,0.0054,0.0101,0.0516,0.0027
2116,0.0059,0.0112,0.0496,0.0030
2117,0.0055,0.0176,0.0466,0.0028
2118,0.0054,0.0192,0.0577,0.0036
2119,0.0041,0.0113,0.0486,0.0030
2120,0.0028,0.0173,0.0423,0.0020
2121,0.0031,0.0203,0.0445,0.0018
2122,0.0031,0.0181,0.0443,0.0017
2123,0.0033,0.0305,0.0569,0.0021
2124,0.0062,0.0300,0.0458,0.0024
2125,0.0032,0.0159,0.0473,0.0020
2126,0.0031,0.0381,0.0666,0.0054
2127,0.0030,0.0136,0.0448,0.0020
2128,0.0030,0.0264,0.0557,0.0029
2129,0.0030,0.0483,0.0730,0.0046
2130,0.0031,0.0279,0.0597,0.0047
2131,0.0033,0.0459,0.0737,0.0073
2132,0.0081,0.0494,0.0534,0.0325
2133,0.0072,0.0249,0.0473,0.0273
2134,0.0061,0.0328,0.0566,0.0307
2135,0.0062,0.0300,0.0458,0.0024
2136,0.0171,0.0323,0.0410,0.0275
2137,0.0073,0.0305,0.0371,0.0295
2138,0.0082,0.0303,0.0370,0.0337
2139,0.0137,0.0268,0.0368,0.0357
2140,0.0175,0.0222,0.0366,0.0361
2141,0.0035,0.0234,0.0623,0.0029
2142,0.0035,0.0234,0.0623,0.0029
2143,0.0033,0.0224,0.0674,0.0031
2144,0.0033,0.0283,0.0617,0.0034
2145,0.0035,0.0393,0.0624,0.0032
2146,0.0062,0.0300,0.0458,0.0024
2147,0.0033,0.0234,0.0702,0.0042
2148,0.0035,0.0276,0.0716,0.0044
2149,0.0038,0.0303,0.0741,0.0047
2150,0.0040,0.0343,0.0799,0.0055
2151,0.0040,0.0417,0.0759,0.0049
2152,0.0039,0.0348,0.0726,0.0052
2153,0.0038,0.0382,0.0748,0.0052
2154,0.0037,0.0373,0.0666,0.0045
2155,0.0034,0.0373,0.0627,0.0044
2156,0.0035,0.0388,0.0660,0.0036
2157,0.0062,0.0257,0.0440,0.0023
2158,0.0079,0.0372,0.0686,0.0500
2159,0.0073,0.0392,0.0696,0.0436
2160,0.0066,0.0423,0.0740,0.0391
2161,0.0062,0.0307,0.0670,0.0314
2162,0.0057,0.0299,0.0637,0.0259
2163,0.0050,0.0208,0.0658,0.0213
2164,0.0045,0.0234,0.0596,0.0171
2165,0.0041,0.0236,0.0598,0.0136
2166,0.0037,0.0213,0.0648,0.0097
2167,0.0036,0.0334,0.0614,0.0065
2168,0.0108,0.0459,0.0745,0.0443
2169,0.0062,0.0300,0.0458,0.0024
2170,0.0035,0.0276,0.0716,0.0044
2171,0.0033,0.0230,0.0678,0.0021
2172,0.0040,0.0261,0.0615,0.0059
2173,0.0044,0.0279,0.0620,0.0096
2174,0.0053,0.0400,0.0627,0.0149
2175,0.0061,0.0297,0.0628,0.0179
2176,0.0069,0.0293,0.0658,0.0231
2177,0.0075,0.0393,0.0743,0.0290
2178,0.0078,0.0393,0.0707,0.0359
2179,0.0077,0.0451,0.0715,0.0433
2180,0.0062,0.0300,0.0458,0.0024
2181,0.0093,0.0369,0.0725,0.0512
2182,0.0038,0.0303,0.0741,0.0047
2183,0.0035,0.0234,0.0623,0.0029
2184,0.0033,0.0224,0.0674,0.0031
2185,0.0036,0.0332,0.0622,0.0029
2186,0.0035,0.0234,0.0623,0.0029
2187,0.0033,0.0224,0.0674,0.0031
2188,0.0035,0.0234,0.0623,0.0029
2189,0.0035,0.0234,0.0623,0.0029
2190,0.0036,0.0332,0.0622,0.0029
2191,0.0062,0.0300,0.0458,0.0024
2192,0.0035,0.0234,0.0623,0.0029
2193,0.0035,0.0234,0.0623,0.0029
2194,0.0040,0.0343,0.0799,0.0055
2195,0.0035,0.0234,0.0623,0.0029
2196,0.0036,0.0332,0.0622,0.0029
2197,0.0033,0.0224,0.0674,0.0031
2198,0.0035,0.0234,0.0623,0.0029
2199,0.0035,0.0234,0.0623,0.0029
2200,0.0033,0.0224,0.0674,0.0031
2201,0.0036,0.0332,0.0622,0.0029
2202,0.0065,0.0492,0.0564,0.0038
2203,0.0035,0.0234,0.0623,0.0029
2204,0.0033,0.0224,0.0674,0.0031
2205,0.0035,0.0234,0.0623,0.0029
2206,0.0040,0.0342,0.0746,0.0052
2207,0.0036,0.0332,0.0622,0.0029
2208,0.0035,0.0234,0.0623,0.0029
2209,0.0035,0.0234,0.0623,0.0029
2210,0.0033,0.0224,0.0674,0.0031
2211,0.0035,0.0234,0.0623,0.0029
2212,0.0036,0.0332,0.0622,0.0029
2213,0.0062,0.0257,0.0440,0.0023
2214,0.0033,0.0224,0.0674,0.0031
2215,0.0035,0.0234,0.0623,0.0029
2216,0.0035,0.0234,0.0623,0.0029
2217,0.0033,0.0224,0.0674,0.0031
2218,0.0039,0.0423,0.0742,0.0049
2219,0.0035,0.0234,0.0623,0.0029
2220,0.0033,0.0224,0.0674,0.0031
2221,0.0035,0.0234,0.0623,0.0029
2222,0.0035,0.0234,0.0623,0.0029
2223,0.0036,0.0332,0.0622,0.0029
2224,0.0062,0.0300,0.0458,0.0024
2225,0.0098,0.0250,0.0448,0.0024
2226,0.0067,0.0217,0.0470,0.0022
2227,0.0047,0.0210,0.0528,0.0022
2228,0.0037,0.0228,0.0511,0.0021
2229,0.0040,0.0417,0.0759,0.0049
2230,0.0038,0.0382,0.0748,0.0052
2231,0.0048,0.0319,0.0556,0.0023
2232,0.0053,0.0337,0.0566,0.0024
2233,0.0052,0.0400,0.0647,0.0023
2234,0.0053,0.0326,0.0603,0.0027
2235,0.0062,0.0300,0.0458,0.0024
2236,0.0043,0.0255,0.0611,0.0026
2237,0.0032,0.0231,0.0676,0.0037
2238,0.0034,0.0277,0.0649,0.0038
2239,0.0035,0.0276,0.0716,0.0044
2240,0.0038,0.0378,0.0752,0.0044
2241,0.0040,0.0324,0.0752,0.0051
2242,0.0037,0.0373,0.0666,0.0045
2243,0.0039,0.0358,0.0793,0.0056
2244,0.0039,0.0348,0.0726,0.0052
2245,0.0039,0.0435,0.0724,0.0047
2246,0.0062,0.0300,0.0458,0.0024
2247,0.0037,0.0386,0.0709,0.0046
2248,0.0034,0.0373,0.0627,0.0044
2249,0.0079,0.0372,0.0686,0.0500
2250,0.0070,0.0447,0.0739,0.0456
2251,0.0070,0.0382,0.0698,0.0370
2252,0.0227,0.0383,0.0585,0.0586
2253,0.0118,0.0341,0.0571,0.0500
2254,0.0080,0.0310,0.0574,0.0435
2255,0.0121,0.0305,0.0607,0.0399
2256,0.0168,0.0376,0.0653,0.0377
2257,0.0062,0.0300,0.0458,0.0024
2258,0.0034,0.0206,0.0431,0.0022
2259,0.0034,0.0206,0.0431,0.0022
2260,0.0032,0.0193,0.0484,0.0022
2261,0.0032,0.0257,0.0434,0.0025
2262,0.0033,0.0369,0.0466,0.0024
2263,0.0032,0.0196,0.0516,0.0033
2264,0.0035,0.0242,0.0522,0.0034
2265,0.0038,0.0274,0.0540,0.0038
2266,0.0039,0.0298,0.0580,0.0044
2267,0.0041,0.0385,0.0569,0.0039
2268,0.0062,0.0257,0.0440,0.0023
2269,0.0040,0.0302,0.0508,0.0041
2270,0.0038,0.0325,0.0524,0.0041
2271,0.0037,0.0319,0.0450,0.0036
2272,0.0035,0.0324,0.0414,0.0038
2273,0.0034,0.0355,0.0499,0.0027
2274,0.0077,0.0265,0.0479,0.0357
2275,0.0071,0.0304,0.0494,0.0309
2276,0.0065,0.0364,0.0546,0.0281
2277,0.0061,0.0265,0.0481,0.0222
2278,0.0056,0.0277,0.0470,0.0190
2279,0.0101,0.0449,0.0739,0.0378
2280,0.0062,0.0300,0.0458,0.0024
2281,0.0049,0.0184,0.0477,0.0146
2282,0.0045,0.0206,0.0414,0.0122
2283,0.0040,0.0213,0.0410,0.0097
2284,0.0036,0.0185,0.0466,0.0067
2285,0.0035,0.0315,0.0451,0.0052
2286,0.0035,0.0242,0.0522,0.0034
2287,0.0032,0.0198,0.0485,0.0019
2288,0.0039,0.0238,0.0427,0.0048
2289,0.0043,0.0256,0.0429,0.0077
2290,0.0052,0.0376,0.0466,0.0124
2291,0.0062,0.0300,0.0458,0.0024
2292,0.0060,0.0256,0.0440,0.0136
2293,0.0069,0.0260,0.0464,0.0172
2294,0.0075,0.0362,0.0551,0.0211
2295,0.0079,0.0349,0.0508,0.0268
2296,0.0077,0.0415,0.0534,0.0331
2297,0.0093,0.0332,0.0517,0.0388
2298,0.0038,0.0274,0.0540,0.0038
2299,0.0034,0.0206,0.0431,0.0022
2300,0.0032,0.0193,0.0484,0.0022
2301,0.0036,0.0312,0.0458,0.0024
2302,0.0062,0.0300,0.0458,0.0024
2303,0.0034,0.0206,0.0431,0.0022
2304,0.0032,0.0193,0.0484,0.0022
2305,0.0034,0.0206,0.0431,0.0022
2306,0.0034,0.0206,0.0431,0.0022
2307,0.0036,0.0312,0.0458,0.0024
2308,0.0034,0.0206,0.0431,0.0022
2309,0.0034,0.0206,0.0431,0.0022
2310,0.0039,0.0298,0.0580,0.0044
2311,0.0034,0.0206,0.0431,0.0022
2312,0.0036,0.0312,0.0458,0.0024
2313,0.0062,0.0300,0.0458,0.0024
2314,0.0032,0.0193,0.0484,0.0022
2315,0.0034,0.0206,0.0431,0.0022
2316,0.0034,0.0206,0.0431,0.0022
2317,0.0032,0.0193,0.0484,0.0022
2318,0.0036,0.0312,0.0458,0.0024
2319,0.0034,0.0206,0.0431,0.0022
2320,0.0032,0.0193,0.0484,0.0022
2321,0.0034,0.0206,0.0431,0.0022
2322,0.0040,0.0292,0.0530,0.0042
2323,0.0036,0.0312,0.0458,0.0024
2324,0.0070,0.0417,0.0539,0.0041
2325,0.0034,0.0206,0.0431,0.0022
2326,0.0034,0.0206,0.0431,0.0022
2327,0.0032,0.0193,0.0484,0.0022
2328,0.0034,0.0206,0.0431,0.0022
2329,0.0036,0.0312,0.0458,0.0024
2330,0.0032,0.0193,0.0484,0.0022
2331,0.0034,0.0206,0.0431,0.0022
2332,0.0034,0.0206,0.0431,0.0022
2333,0.0032,0.0193,0.0484,0.0022
2334,0.0041,0.0396,0.0555,0.0039
2335,0.0062,0.0300,0.0458,0.0024
2336,0.0034,0.0206,0.0431,0.0022
2337,0.0032,0.0193,0.0484,0.0022
2338,0.0034,0.0206,0.0431,0.0022
2339,0.0034,0.0206,0.0431,0.0022
2340,0.0036,0.0312,0.0458,0.0024
2341,0.0094,0.0264,0.0301,0.0020
2342,0.0064,0.0215,0.0314,0.0018
2343,0.0045,0.0188,0.0363,0.0018
2344,0.0036,0.0202,0.0346,0.0018
2345,0.0041,0.0385,0.0569,0.0039
2346,0.0062,0.0300,0.0458,0.0024
2347,0.0038,0.0325,0.0524,0.0041
2348,0.0050,0.0279,0.0378,0.0021
2349,0.0055,0.0301,0.0389,0.0022
2350,0.0054,0.0372,0.0470,0.0019
2351,0.0053,0.0293,0.0437,0.0026
2352,0.0043,0.0216,0.0422,0.0021
2353,0.0031,0.0200,0.0492,0.0028
2354,0.0033,0.0238,0.0465,0.0029
2355,0.0035,0.0242,0.0522,0.0034
2356,0.0038,0.0357,0.0573,0.0035
2357,0.0062,0.0300,0.0458,0.0024
2358,0.0040,0.0279,0.0536,0.0040
2359,0.0037,0.0319,0.0450,0.0036
2360,0.0039,0.0301,0.0569,0.0046
2361,0.0040,0.0302,0.0508,0.0041
2362,0.0040,0.0410,0.0540,0.0038
2363,0.0037,0.0321,0.0482,0.0035
2364,0.0035,0.0324,0.0414,0.0038
2365,0.0077,0.0265,0.0479,0.0357
2366,0.0069,0.0363,0.0539,0.0329
2367,0.0068,0.0330,0.0519,0.0267
2368,0.0062,0.0300,0.0458,0.0024
2369,0.0228,0.0371,0.0504,0.0482
2370,0.0117,0.0329,0.0474,0.0398
2371,0.0077,0.0303,0.0458,0.0330
2372,0.0121,0.0278,0.0471,0.0292
2373,0.0170,0.0324,0.0507,0.0272
2374,0.0033,0.0158,0.0169,0.0019
2375,0.0033,0.0158,0.0169,0.0019
2376,0.0031,0.0134,0.0193,0.0016
2377,0.0031,0.0206,0.0173,0.0016
2378,0.0032,0.0335,0.0320,0.0019
2379,0.0062,0.0257,0.0440,0.0023
2380,0.0031,0.0141,0.0192,0.0020
2381,0.0034,0.0176,0.0200,0.0021
2382,0.0037,0.0190,0.0210,0.0023
2383,0.0037,0.0212,0.0204,0.0029
2384,0.0039,0.0338,0.0377,0.0026
2385,0.0037,0.0226,0.0230,0.0026
2386,0.0035,0.0209,0.0198,0.0025
2387,0.0036,0.0254,0.0279,0.0031
2388,0.0035,0.0280,0.0322,0.0043
2389,0.0033,0.0313,0.0326,0.0018
2390,0.0094,0.0395,0.0713,0.0315
2391,0.0156,0.0214,0.0303,0.0039
2392,0.0076,0.0188,0.0188,0.0116
2393,0.0068,0.0155,0.0178,0.0100
2394,0.0063,0.0246,0.0223,0.0089
2395,0.0058,0.0160,0.0168,0.0086
2396,0.0054,0.0250,0.0288,0.0129
2397,0.0048,0.0137,0.0199,0.0052
2398,0.0043,0.0176,0.0161,0.0082
2399,0.0038,0.0176,0.0164,0.0073
2400,0.0034,0.0135,0.0193,0.0038
2401,0.0034,0.0292,0.0311,0.0050
2402,0.0129,0.0243,0.0326,0.0034
2403,0.0034,0.0176,0.0200,0.0021
2404,0.0031,0.0136,0.0192,0.0018
2405,0.0039,0.0190,0.0174,0.0042
2406,0.0043,0.0207,0.0175,0.0066
2407,0.0052,0.0337,0.0317,0.0111
2408,0.0061,0.0188,0.0173,0.0101
2409,0.0070,0.0189,0.0178,0.0109
2410,0.0076,0.0298,0.0219,0.0079
2411,0.0079,0.0252,0.0193,0.0120
2412,0.0077,0.0353,0.0337,0.0172
2413,0.0107,0.0286,0.0346,0.0030
2414,0.0094,0.0274,0.0192,0.0154
2415,0.0037,0.0190,0.0210,0.0023
2416,0.0033,0.0158,0.0169,0.0019
2417,0.0031,0.0134,0.0193,0.0016
2418,0.0035,0.0285,0.0311,0.0023
2419,0.0033,0.0158,0.0169,0.0019
2420,0.0031,0.0134,0.0193,0.0016
2421,0.0033,0.0158,0.0169,0.0019
2422,0.0033,0.0158,0.0169,0.0019
2423,0.0035,0.0285,0.0311,0.0023
2424,0.0090,0.0348,0.0370,0.0026
2425,0.0033,0.0158,0.0169,0.0019
2426,0.0033,0.0158,0.0169,0.0019
2427,0.0037,0.0212,0.0204,0.0029
2428,0.0033,0.0158,0.0169,0.0019
2429,0.0035,0.0285,0.0311,0.0023
2430,0.0031,0.0134,0.0193,0.0016
2431,0.0033,0.0158,0.0169,0.0019
2432,0.0033,0.0158,0.0169,0.0019
2433,0.0031,0.0134,0.0193,0.0016
2434,0.0035,0.0285,0.0311,0.0023
2435,0.0066,0.0428,0.0555,0.0038
2436,0.0033,0.0158,0.0169,0.0019
2437,0.0031,0.0134,0.0193,0.0016
2438,0.0033,0.0158,0.0169,0.0019
2439,0.0037,0.0212,0.0220,0.0027
2440,0.0035,0.0285,0.0311,0.0023
2441,0.0033,0.0158,0.0169,0.0019
2442,0.0033,0.0158,0.0169,0.0019
2443,0.0031,0.0134,0.0193,0.0016
2444,0.0033,0.0158,0.0169,0.0019
2445,0.0035,0.0285,0.0311,0.0023
2446,0.0073,0.0490,0.0519,0.0041
2447,0.0031,0.0134,0.0193,0.0016
2448,0.0033,0.0158,0.0169,0.0019
2449,0.0033,0.0158,0.0169,0.0019
2450,0.0031,0.0134,0.0193,0.0016
2451,0.0038,0.0364,0.0392,0.0026
2452,0.0033,0.0158,0.0169,0.0019
2453,0.0031,0.0134,0.0193,0.0016
2454,0.0033,0.0158,0.0169,0.0019
2455,0.0033,0.0158,0.0169,0.0019
2456,0.0035,0.0285,0.0311,0.0023
2457,0.0070,0.0467,0.0408,0.0022
2458,0.0088,0.0302,0.0252,0.0019
2459,0.0060,0.0242,0.0227,0.0018
2460,0.0043,0.0165,0.0200,0.0017
2461,0.0039,0.0156,0.0190,0.0022
2462,0.0039,0.0338,0.0377,0.0026
2463,0.0035,0.0209,0.0198,0.0025
2464,0.0053,0.0208,0.0175,0.0026
2465,0.0057,0.0232,0.0173,0.0028
2466,0.0055,0.0303,0.0217,0.0023
2467,0.0055,0.0241,0.0289,0.0030
2468,0.0064,0.0494,0.0421,0.0022
2469,0.0043,0.0152,0.0170,0.0023
2470,0.0030,0.0146,0.0187,0.0016
2471,0.0032,0.0183,0.0179,0.0017
2472,0.0034,0.0176,0.0200,0.0021
2473,0.0038,0.0298,0.0351,0.0022
2474,0.0038,0.0194,0.0211,0.0026
2475,0.0036,0.0254,0.0279,0.0031
2476,0.0036,0.0204,0.0199,0.0030
2477,0.0037,0.0226,0.0230,0.0026
2478,0.0037,0.0389,0.0415,0.0029
2479,0.0061,0.0510,0.0437,0.0022
2480,0.0034,0.0212,0.0213,0.0026
2481,0.0035,0.0280,0.0322,0.0043
2482,0.0076,0.0188,0.0188,0.0116
2483,0.0068,0.0215,0.0215,0.0112
2484,0.0064,0.0247,0.0293,0.0133
2485,0.0238,0.0354,0.0380,0.0297
2486,0.0117,0.0321,0.0324,0.0231
2487,0.0069,0.0303,0.0281,0.0189
2488,0.0125,0.0263,0.0261,0.0173
2489,0.0175,0.0251,0.0271,0.0166
2490,0.0059,0.0410,0.0424,0.0022
2491,0.0032,0.0142,0.0345,0.0023
2492,0.0032,0.0142,0.0345,0.0023
2493,0.0030,0.0106,0.0314,0.0020
2494,0.0030,0.0187,0.0351,0.0018
2495,0.0031,0.0319,0.0475,0.0021
2496,0.0030,0.0101,0.0281,0.0015
2497,0.0032,0.0135,0.0325,0.0016
2498,0.0034,0.0131,0.0340,0.0018
2499,0.0034,0.0149,0.0303,0.0022
2500,0.0035,0.0323,0.0536,0.0022
2501,0.0091,0.0274,0.0647,0.0253
2502,0.0058,0.0388,0.0452,0.0023
2503,0.0033,0.0200,0.0443,0.0022
2504,0.0031,0.0153,0.0415,0.0024
2505,0.0033,0.0249,0.0549,0.0038
2506,0.0033,0.0281,0.0606,0.0054
2507,0.0032,0.0280,0.0457,0.0017
2508,0.0079,0.0294,0.0373,0.0196
2509,0.0069,0.0144,0.0340,0.0179
2510,0.0064,0.0175,0.0312,0.0145
2511,0.0057,0.0110,0.0325,0.0162
2512,0.0052,0.0248,0.0437,0.0192
2513,0.0064,0.0263,0.0463,0.0026
2514,0.0048,0.0115,0.0325,0.0119
2515,0.0042,0.0169,0.0354,0.0134
2516,0.0038,0.0170,0.0356,0.0112
2517,0.0034,0.0115,0.0332,0.0070
2518,0.0033,0.0279,0.0470,0.0066
2519,0.0032,0.0135,0.0325,0.0016
2520,0.0031,0.0111,0.0313,0.0022
2521,0.0039,0.0164,0.0351,0.0058
2522,0.0043,0.0172,0.0347,0.0093
2523,0.0053,0.0306,0.0469,0.0145
2524,0.0061,0.0295,0.0491,0.0028
2525,0.0061,0.0146,0.0339,0.0149
2526,0.0070,0.0143,0.0316,0.0161
2527,0.0076,0.0238,0.0289,0.0134
2528,0.0078,0.0177,0.0328,0.0162
2529,0.0077,0.0333,0.0477,0.0202
2530,0.0096,0.0287,0.0332,0.0132
2531,0.0034,0.0131,0.0340,0.0018
2532,0.0032,0.0142,0.0345,0.0023
2533,0.0030,0.0106,0.0314,0.0020
2534,0.0034,0.0277,0.0470,0.0028
2535,0.0059,0.0385,0.0548,0.0031
2536,0.0032,0.0142,0.0345,0.0023
2537,0.0030,0.0106,0.0314,0.0020
2538,0.0032,0.0142,0.0345,0.0023
2539,0.0032,0.0142,0.0345,0.0023
2540,0.0034,0.0277,0.0470,0.0028
2541,0.0032,0.0142,0.0345,0.0023
2542,0.0032,0.0142,0.0345,0.0023
2543,0.0034,0.0149,0.0303,0.0022
2544,0.0032,0.0142,0.0345,0.0023
2545,0.0034,0.0277,0.0470,0.0028
2546,0.0060,0.0395,0.0561,0.0032
2547,0.0030,0.0106,0.0314,0.0020
2548,0.0032,0.0142,0.0345,0.0023
2549,0.0032,0.0142,0.0345,0.0023
2550,0.0030,0.0106,0.0314,0.0020
2551,0.0034,0.0277,0.0470,0.0028
2552,0.0032,0.0142,0.0345,0.0023
2553,0.0030,0.0106,0.0314,0.0020
2554,0.0032,0.0142,0.0345,0.0023
2555,0.0033,0.0166,0.0396,0.0021
2556,0.0034,0.0277,0.0470,0.0028
2557,0.0061,0.0490,0.0571,0.0036
2558,0.0032,0.0142,0.0345,0.0023
2559,0.0032,0.0142,0.0345,0.0023
2560,0.0030,0.0106,0.0314,0.0020
2561,0.0032,0.0142,0.0345,0.0023
2562,0.0034,0.0277,0.0470,0.0028
2563,0.0030,0.0106,0.0314,0.0020
2564,0.0032,0.0142,0.0345,0.0023
2565,0.0032,0.0142,0.0345,0.0023
2566,0.0030,0.0106,0.0314,0.0020
2567,0.0034,0.0359,0.0578,0.0025
2568,0.0077,0.0472,0.0483,0.0045
2569,0.0032,0.0142,0.0345,0.0023
2570,0.0030,0.0106,0.0314,0.0020
2571,0.0032,0.0142,0.0345,0.0023
2572,0.0032,0.0142,0.0345,0.0023
2573,0.0034,0.0277,0.0470,0.0028
2574,0.0085,0.0361,0.0460,0.0021
2575,0.0058,0.0282,0.0435,0.0023
2576,0.0043,0.0189,0.0384,0.0022
2577,0.0040,0.0148,0.0389,0.0027
2578,0.0035,0.0323,0.0536,0.0022
2579,0.0065,0.0492,0.0564,0.0038
2580,0.0031,0.0153,0.0415,0.0024
2581,0.0054,0.0142,0.0363,0.0032
2582,0.0059,0.0175,0.0360,0.0034
2583,0.0055,0.0247,0.0333,0.0029
2584,0.0054,0.0200,0.0448,0.0036
2585,0.0042,0.0097,0.0350,0.0028
2586,0.0029,0.0121,0.0305,0.0016
2587,0.0031,0.0141,0.0326,0.0015
2588,0.0032,0.0135,0.0325,0.0016
2589,0.0035,0.0272,0.0475,0.0018
2590,0.0069,0.0483,0.0540,0.0039
2591,0.0034,0.0142,0.0365,0.0020
2592,0.0033,0.0249,0.0549,0.0038
2593,0.0032,0.0133,0.0331,0.0023
2594,0.0033,0.0200,0.0443,0.0022
2595,0.0035,0.0382,0.0622,0.0031
2596,0.0032,0.0175,0.0474,0.0031
2597,0.0033,0.0281,0.0606,0.0054
2598,0.0079,0.0294,0.0373,0.0196
2599,0.0070,0.0171,0.0327,0.0164
2600,0.0062,0.0228,0.0426,0.0208
2601,0.0074,0.0423,0.0518,0.0045
2602,0.0249,0.0353,0.0361,0.0232
2603,0.0122,0.0324,0.0292,0.0201
2604,0.0062,0.0308,0.0257,0.0210
2605,0.0123,0.0285,0.0262,0.0248
2606,0.0178,0.0229,0.0266,0.0262
2607,0.0032,0.0150,0.0465,0.0026
2608,0.0032,0.0150,0.0465,0.0026
2609,0.0030,0.0111,0.0432,0.0023
2610,0.0030,0.0169,0.0455,0.0019
2611,0.0031,0.0300,0.0565,0.0023
2612,0.0063,0.0332,0.0649,0.0031
2613,0.0087,0.0261,0.0640,0.0205
2614,0.0077,0.0472,0.0483,0.0045
2615,0.0031,0.0096,0.0398,0.0015
2616,0.0031,0.0132,0.0446,0.0015
2617,0.0033,0.0112,0.0455,0.0017
2618,0.0033,0.0134,0.0429,0.0020
2619,0.0033,0.0333,0.0655,0.0022
2620,0.0031,0.0201,0.0578,0.0023
2621,0.0030,0.0161,0.0559,0.0026
2622,0.0032,0.0262,0.0687,0.0041
2623,0.0032,0.0301,0.0752,0.0059
2624,0.0032,0.0283,0.0559,0.0018
2625,0.0083,0.0434,0.0443,0.0053
2626,0.0081,0.0362,0.0500,0.0276
2627,0.0071,0.0173,0.0460,0.0247
2628,0.0066,0.0153,0.0420,0.0204
2629,0.0058,0.0117,0.0446,0.0215
2630,0.0052,0.0261,0.0546,0.0234
2631,0.0049,0.0113,0.0429,0.0158
2632,0.0042,0.0165,0.0462,0.0161
2633,0.0037,0.0173,0.0470,0.0134
2634,0.0034,0.0109,0.0436,0.0086
2635,0.0032,0.0286,0.0573,0.0074
2636,0.0121,0.0295,0.0524,0.0366
2637,0.0031,0.0132,0.0446,0.0015
2638,0.0031,0.0123,0.0430,0.0025
2639,0.0039,0.0164,0.0464,0.0067
2640,0.0043,0.0168,0.0459,0.0109
2641,0.0053,0.0298,0.0563,0.0166
2642,0.0062,0.0127,0.0446,0.0179
2643,0.0071,0.0126,0.0433,0.0200
2644,0.0075,0.0214,0.0397,0.0184
2645,0.0078,0.0162,0.0433,0.0212
2646,0.0077,0.0329,0.0575,0.0253
2647,0.0108,0.0366,0.0541,0.0316
2648,0.0097,0.0319,0.0455,0.0197
2649,0.0033,0.0112,0.0455,0.0017
2650,0.0032,0.0150,0.0465,0.0026
2651,0.0030,0.0111,0.0432,0.0023
2652,0.0033,0.0281,0.0573,0.0030
2653,0.0032,0.0150,0.0465,0.0026
2654,0.0030,0.0111,0.0432,0.0023
2655,0.0032,0.0150,0.0465,0.0026
2656,0.0032,0.0150,0.0465,0.0026
2657,0.0033,0.0281,0.0573,0.0030
2658,0.0102,0.0332,0.0522,0.0262
2659,0.0032,0.0150,0.0465,0.0026
2660,0.0032,0.0150,0.0465,0.0026
2661,0.0033,0.0134,0.0429,0.0020
2662,0.0032,0.0150,0.0465,0.0026
2663,0.0033,0.0281,0.0573,0.0030
2664,0.0030,0.0111,0.0432,0.0023
2665,0.0032,0.0150,0.0465,0.0026
2666,0.0032,0.0150,0.0465,0.0026
2667,0.0030,0.0111,0.0432,0.0023
2668,0.0033,0.0281,0.0573,0.0030
2669,0.0186,0.0318,0.0378,0.0396
2670,0.0032,0.0150,0.0465,0.0026
2671,0.0030,0.0111,0.0432,0.0023
2672,0.0032,0.0150,0.0465,0.0026
2673,0.0032,0.0172,0.0532,0.0020
2674,0.0033,0.0281,0.0573,0.0030
2675,0.0032,0.0150,0.0465,0.0026
2676,0.0032,0.0150,0.0465,0.0026
2677,0.0030,0.0111,0.0432,0.0023
2678,0.0032,0.0150,0.0465,0.0026
2679,0.0033,0.0281,0.0573,0.0030
2680,0.0117,0.0269,0.0381,0.0334
2681,0.0030,0.0111,0.0432,0.0023
2682,0.0032,0.0150,0.0465,0.0026
2683,0.0032,0.0150,0.0465,0.0026
2684,0.0030,0.0111,0.0432,0.0023
2685,0.0033,0.0366,0.0698,0.0026
2686,0.0032,0.0150,0.0465,0.0026
2687,0.0030,0.0111,0.0432,0.0023
2688,0.0032,0.0150,0.0465,0.0026
2689,0.0032,0.0150,0.0465,0.0026
2690,0.0033,0.0281,0.0573,0.0030
2691,0.0091,0.0271,0.0413,0.0300
2692,0.0083,0.0382,0.0559,0.0022
2693,0.0057,0.0306,0.0536,0.0024
2694,0.0043,0.0210,0.0486,0.0024
2695,0.0040,0.0166,0.0498,0.0029
2696,0.0033,0.0333,0.0655,0.0022
2697,0.0030,0.0161,0.0559,0.0026
2698,0.0055,0.0123,0.0472,0.0035
2699,0.0059,0.0155,0.0461,0.0036
2700,0.0056,0.0229,0.0434,0.0032
2701,0.0054,0.0190,0.0546,0.0038
2702,0.0106,0.0308,0.0458,0.0278
2703,0.0042,0.0085,0.0462,0.0031
2704,0.0029,0.0104,0.0404,0.0017
2705,0.0031,0.0142,0.0446,0.0015
2706,0.0031,0.0132,0.0446,0.0015
2707,0.0033,0.0262,0.0575,0.0017
2708,0.0033,0.0123,0.0489,0.0019
2709,0.0032,0.0262,0.0687,0.0041
2710,0.0031,0.0117,0.0470,0.0022
2711,0.0031,0.0201,0.0578,0.0023
2712,0.0033,0.0406,0.0749,0.0034
2713,0.0128,0.0421,0.0514,0.0265
2714,0.0031,0.0180,0.0614,0.0035
2715,0.0032,0.0301,0.0752,0.0059
2716,0.0081,0.0362,0.0500,0.0276
2717,0.0073,0.0182,0.0441,0.0231
2718,0.0063,0.0239,0.0531,0.0263
2719,0.0255,0.0359,0.0378,0.0242
2720,0.0127,0.0335,0.0314,0.0230
2721,0.0061,0.0316,0.0285,0.0251
2722,0.0122,0.0299,0.0307,0.0300
2723,0.0179,0.0234,0.0322,0.0322
2724,0.0083,0.0255,0.0631,0.0167
2725,0.0060,0.0237,0.0190,0.0020
2726,0.0060,0.0237,0.0190,0.0020
2727,0.0060,0.0237,0.0190,0.0020
2728,0.0062,0.0210,0.0183,0.0019
2729,0.0061,0.0180,0.0246,0.0020
2730,0.0059,0.0251,0.0188,0.0019
2731,0.0058,0.0327,0.0206,0.0021
2732,0.0059,0.0394,0.0214,0.0023
2733,0.0060,0.0408,0.0215,0.0027
2734,0.0065,0.0323,0.0291,0.0033
2735,0.0077,0.0270,0.0631,0.0132
2736,0.0068,0.0368,0.0213,0.0034
2737,0.0073,0.0355,0.0223,0.0040
2738,0.0078,0.0333,0.0241,0.0050
2739,0.0084,0.0310,0.0272,0.0063
2740,0.0059,0.0208,0.0253,0.0020
2741,0.0124,0.0183,0.0194,0.0123
2742,0.0110,0.0207,0.0202,0.0105
2743,0.0101,0.0248,0.0205,0.0091
2744,0.0095,0.0234,0.0196,0.0081
2745,0.0090,0.0174,0.0221,0.0114
2746,0.0071,0.0286,0.0626,0.0095
2747,0.0086,0.0177,0.0180,0.0077
2748,0.0081,0.0174,0.0180,0.0074
2749,0.0075,0.0182,0.0183,0.0065
2750,0.0069,0.0199,0.0184,0.0051
2751,0.0064,0.0181,0.0243,0.0045
2752,0.0058,0.0327,0.0206,0.0021
2753,0.0058,0.0236,0.0187,0.0024
2754,0.0058,0.0243,0.0188,0.0043
2755,0.0060,0.0248,0.0187,0.0063
2756,0.0065,0.0228,0.0244,0.0104
2757,0.0067,0.0278,0.0613,0.0063
2758,0.0069,0.0318,0.0191,0.0090
2759,0.0076,0.0395,0.0199,0.0094
2760,0.0082,0.0486,0.0208,0.0095
2761,0.0088,0.0501,0.0212,0.0103
2762,0.0093,0.0343,0.0255,0.0148
2763,0.0113,0.0288,0.0203,0.0145
2764,0.0059,0.0394,0.0214,0.0023
2765,0.0060,0.0237,0.0190,0.0020
2766,0.0060,0.0237,0.0190,0.0020
2767,0.0060,0.0192,0.0244,0.0022
2768,0.0060,0.0411,0.0747,0.0040
2769,0.0060,0.0237,0.0190,0.0020
2770,0.0060,0.0237,0.0190,0.0020
2771,0.0060,0.0237,0.0190,0.0020
2772,0.0060,0.0237,0.0190,0.0020
2773,0.0060,0.0192,0.0244,0.0022
2774,0.0060,0.0237,0.0190,0.0020
2775,0.0060,0.0237,0.0190,0.0020
2776,0.0060,0.0408,0.0215,0.0027
2777,0.0060,0.0237,0.0190,0.0020
2778,0.0060,0.0192,0.0244,0.0022
2779,0.0061,0.0333,0.0651,0.0026
2780,0.0060,0.0237,0.0190,0.0020
2781,0.0060,0.0237,0.0190,0.0020
2782,0.0060,0.0237,0.0190,0.0020
2783,0.0060,0.0237,0.0190,0.0020
2784,0.0060,0.0192,0.0244,0.0022
2785,0.0060,0.0237,0.0190,0.0020
2786,0.0060,0.0237,0.0190,0.0020
2787,0.0060,0.0237,0.0190,0.0020
2788,0.0064,0.0393,0.0214,0.0030
2789,0.0060,0.0192,0.0244,0.0022
2790,0.0062,0.0330,0.0643,0.0057
2791,0.0060,0.0237,0.0190,0.0020
2792,0.0060,0.0237,0.0190,0.0020
2793,0.0060,0.0237,0.0190,0.0020
2794,0.0060,0.0237,0.0190,0.0020
2795,0.0060,0.0192,0.0244,0.0022
2796,0.0060,0.0237,0.0190,0.0020
2797,0.0060,0.0237,0.0190,0.0020
2798,0.0060,0.0237,0.0190,0.0020
2799,0.0060,0.0237,0.0190,0.0020
2800,0.0069,0.0301,0.0302,0.0038
2801,0.0064,0.0332,0.0652,0.0092
2802,0.0060,0.0237,0.0190,0.0020
2803,0.0060,0.0237,0.0190,0.0020
2804,0.0060,0.0237,0.0190,0.0020
2805,0.0060,0.0237,0.0190,0.0020
2806,0.0060,0.0192,0.0244,0.0022
2807,0.0151,0.0200,0.0228,0.0033
2808,0.0125,0.0197,0.0214,0.0028
2809,0.0105,0.0219,0.0207,0.0025
2810,0.0089,0.0274,0.0202,0.0022
2811,0.0065,0.0323,0.0291,0.0033
2812,0.0069,0.0319,0.0634,0.0143
2813,0.0073,0.0355,0.0223,0.0040
2814,0.0070,0.0385,0.0203,0.0021
2815,0.0064,0.0420,0.0203,0.0022
2816,0.0061,0.0430,0.0204,0.0023
2817,0.0058,0.0340,0.0230,0.0025
2818,0.0057,0.0325,0.0197,0.0022
2819,0.0062,0.0210,0.0183,0.0019
2820,0.0059,0.0251,0.0188,0.0019
2821,0.0058,0.0327,0.0206,0.0021
2822,0.0060,0.0313,0.0276,0.0024
2823,0.0066,0.0290,0.0649,0.0034
2824,0.0074,0.0394,0.0667,0.0173
2825,0.0060,0.0408,0.0215,0.0027
2826,0.0078,0.0333,0.0241,0.0050
2827,0.0064,0.0393,0.0214,0.0030
2828,0.0068,0.0368,0.0213,0.0034
2829,0.0073,0.0288,0.0315,0.0046
2830,0.0078,0.0333,0.0241,0.0050
2831,0.0084,0.0310,0.0272,0.0063
2832,0.0124,0.0183,0.0194,0.0123
2833,0.0110,0.0207,0.0202,0.0105
2834,0.0102,0.0203,0.0233,0.0117
2835,0.0079,0.0466,0.0697,0.0224
2836,0.0191,0.0261,0.0237,0.0190
2837,0.0112,0.0231,0.0213,0.0158
2838,0.0091,0.0218,0.0208,0.0145
2839,0.0111,0.0224,0.0228,0.0141
2840,0.0133,0.0307,0.0266,0.0136
2841,0.0060,0.0186,0.0355,0.0025
2842,0.0060,0.0186,0.0355,0.0025
2843,0.0060,0.0186,0.0355,0.0025
2844,0.0061,0.0175,0.0344,0.0021
2845,0.0060,0.0145,0.0417,0.0023
2846,0.0084,0.0583,0.0729,0.0286
2847,0.0059,0.0219,0.0324,0.0020
2848,0.0059,0.0267,0.0317,0.0020
2849,0.0059,0.0327,0.0320,0.0023
2850,0.0060,0.0340,0.0338,0.0027
2851,0.0065,0.0243,0.0460,0.0035
2852,0.0069,0.0286,0.0409,0.0037
2853,0.0073,0.0275,0.0451,0.0046
2854,0.0078,0.0269,0.0505,0.0059
2855,0.0085,0.0260,0.0564,0.0075
2856,0.0059,0.0164,0.0402,0.0021
2857,0.0089,0.0635,0.0749,0.0357
2858,0.0129,0.0290,0.0345,0.0201
2859,0.0114,0.0177,0.0319,0.0183
2860,0.0104,0.0177,0.0310,0.0171
2861,0.0097,0.0170,0.0322,0.0167
2862,0.0091,0.0147,0.0385,0.0189
2863,0.0087,0.0148,0.0344,0.0148
2864,0.0082,0.0147,0.0353,0.0132
2865,0.0075,0.0149,0.0359,0.0110
2866,0.0069,0.0159,0.0362,0.0083
2867,0.0063,0.0135,0.0424,0.0063
2868,0.0094,0.0517,0.0716,0.0426
2869,0.0059,0.0267,0.0317,0.0020
2870,0.0058,0.0191,0.0355,0.0027
2871,0.0057,0.0203,0.0354,0.0059
2872,0.0059,0.0214,0.0347,0.0092
2873,0.0064,0.0182,0.0406,0.0141
2874,0.0069,0.0286,0.0335,0.0143
2875,0.0076,0.0360,0.0316,0.0154
2876,0.0082,0.0422,0.0317,0.0156
2877,0.0088,0.0427,0.0316,0.0151
2878,0.0093,0.0263,0.0403,0.0183
2879,0.0112,0.0457,0.0722,0.0501
2880,0.0115,0.0245,0.0363,0.0145
2881,0.0059,0.0327,0.0320,0.0023
2882,0.0060,0.0186,0.0355,0.0025
2883,0.0060,0.0186,0.0355,0.0025
2884,0.0059,0.0142,0.0424,0.0027
2885,0.0060,0.0186,0.0355,0.0025
2886,0.0060,0.0186,0.0355,0.0025
2887,0.0060,0.0186,0.0355,0.0025
2888,0.0060,0.0186,0.0355,0.0025
2889,0.0059,0.0142,0.0424,0.0027
2890,0.0059,0.0499,0.0779,0.0042
2891,0.0060,0.0186,0.0355,0.0025
2892,0.0060,0.0186,0.0355,0.0025
2893,0.0060,0.0340,0.0338,0.0027
2894,0.0060,0.0186,0.0355,0.0025
2895,0.0059,0.0142,0.0424,0.0027
2896,0.0060,0.0186,0.0355,0.0025
2897,0.0060,0.0186,0.0355,0.0025
2898,0.0060,0.0186,0.0355,0.0025
2899,0.0060,0.0186,0.0355,0.0025
2900,0.0059,0.0142,0.0424,0.0027
2901,0.0063,0.0332,0.0649,0.0031
2902,0.0060,0.0186,0.0355,0.0025
2903,0.0060,0.0186,0.0355,0.0025
2904,0.0060,0.0186,0.0355,0.0025
2905,0.0064,0.0313,0.0368,0.0031
2906,0.0059,0.0142,0.0424,0.0027
2907,0.0060,0.0186,0.0355,0.0025
2908,0.0060,0.0186,0.0355,0.0025
2909,0.0060,0.0186,0.0355,0.0025
2910,0.0060,0.0186,0.0355,0.0025
2911,0.0059,0.0142,0.0424,0.0027
2912,0.0063,0.0332,0.0649,0.0031
2913,0.0060,0.0186,0.0355,0.0025
2914,0.0060,0.0186,0.0355,0.0025
2915,0.0060,0.0186,0.0355,0.0025
2916,0.0060,0.0186,0.0355,0.0025
2917,0.0069,0.0220,0.0496,0.0042
2918,0.0060,0.0186,0.0355,0.0025
2919,0.0060,0.0186,0.0355,0.0025
2920,0.0060,0.0186,0.0355,0.0025
2921,0.0060,0.0186,0.0355,0.0025
2922,0.0059,0.0142,0.0424,0.0027
2923,0.0063,0.0290,0.0621,0.0029
2924,0.0149,0.0235,0.0449,0.0032
2925,0.0123,0.0196,0.0430,0.0028
2926,0.0104,0.0188,0.0414,0.0025
2927,0.0088,0.0211,0.0399,0.0024
2928,0.0065,0.0243,0.0460,0.0035
2929,0.0073,0.0275,0.0451,0.0046
2930,0.0070,0.0311,0.0380,0.0026
2931,0.0065,0.0354,0.0374,0.0028
2932,0.0060,0.0366,0.0366,0.0028
2933,0.0058,0.0265,0.0410,0.0030
2934,0.0066,0.0266,0.0628,0.0032
2935,0.0063,0.0332,0.0649,0.0031
2936,0.0056,0.0258,0.0363,0.0027
2937,0.0061,0.0175,0.0344,0.0021
2938,0.0059,0.0219,0.0324,0.0020
2939,0.0059,0.0267,0.0317,0.0020
2940,0.0059,0.0241,0.0402,0.0025
2941,0.0060,0.0340,0.0338,0.0027
2942,0.0078,0.0269,0.0505,0.0059
2943,0.0064,0.0313,0.0368,0.0031
2944,0.0069,0.0286,0.0409,0.0037
2945,0.0074,0.0217,0.0540,0.0052
2946,0.0063,0.0332,0.0649,0.0031
2947,0.0078,0.0269,0.0505,0.0059
2948,0.0085,0.0260,0.0564,0.0075
2949,0.0129,0.0290,0.0345,0.0201
2950,0.0114,0.0177,0.0319,0.0183
2951,0.0104,0.0147,0.0361,0.0201
2952,0.0199,0.0230,0.0244,0.0139
2953,0.0110,0.0217,0.0223,0.0177
2954,0.0090,0.0220,0.0233,0.0221
2955,0.0113,0.0203,0.0242,0.0240
2956,0.0136,0.0230,0.0259,0.0244
2957,0.0063,0.0332,0.0649,0.0031
2958,0.0060,0.0171,0.0474,0.0027
2959,0.0060,0.0171,0.0474,0.0027
2960,0.0060,0.0171,0.0474,0.0027
2961,0.0061,0.0166,0.0457,0.0023
2962,0.0060,0.0132,0.0523,0.0026
2963,0.0059,0.0205,0.0440,0.0021
2964,0.0060,0.0241,0.0436,0.0021
2965,0.0059,0.0300,0.0445,0.0024
2966,0.0061,0.0317,0.0466,0.0028
2967,0.0065,0.0213,0.0585,0.0036
2968,0.0063,0.0332,0.0649,0.0031
2969,0.0069,0.0269,0.0546,0.0039
2970,0.0074,0.0254,0.0595,0.0049
2971,0.0079,0.0253,0.0649,0.0063
2972,0.0085,0.0252,0.0705,0.0080
2973,0.0059,0.0150,0.0512,0.0023
2974,0.0132,0.0363,0.0471,0.0281
2975,0.0116,0.0206,0.0442,0.0255
2976,0.0106,0.0169,0.0430,0.0235
2977,0.0099,0.0159,0.0437,0.0221
2978,0.0092,0.0151,0.0498,0.0232
2979,0.0063,0.0290,0.0621,0.0029
2980,0.0087,0.0142,0.0457,0.0186
2981,0.0082,0.0139,0.0468,0.0164
2982,0.0076,0.0139,0.0473,0.0134
2983,0.0069,0.0146,0.0474,0.0100
2984,0.0063,0.0126,0.0537,0.0072
2985,0.0060,0.0241,0.0436,0.0021
2986,0.0058,0.0176,0.0476,0.0029
2987,0.0057,0.0187,0.0469,0.0069
2988,0.0059,0.0202,0.0461,0.0109
2989,0.0063,0.0170,0.0518,0.0163
2990,0.0063,0.0332,0.0649,0.0031
2991,0.0069,0.0276,0.0443,0.0175
2992,0.0076,0.0345,0.0423,0.0194
2993,0.0082,0.0397,0.0429,0.0205
2994,0.0088,0.0399,0.0430,0.0207
2995,0.0094,0.0231,0.0515,0.0240
2996,0.0116,0.0251,0.0485,0.0214
2997,0.0059,0.0300,0.0445,0.0024
2998,0.0060,0.0171,0.0474,0.0027
2999,0.0060,0.0171,0.0474,0.0027
3000,0.0059,0.0132,0.0538,0.0030
3001,0.0063,0.0332,0.0649,0.0031
3002,0.0060,0.0171,0.0474,0.0027
3003,0.0060,0.0171,0.0474,0.0027
3004,0.0060,0.0171,0.0474,0.0027
3005,0.0060,0.0171,0.0474,0.0027
3006,0.0059,0.0132,0.0538,0.0030
3007,0.0060,0.0171,0.0474,0.0027
3008,0.0060,0.0171,0.0474,0.0027
3009,0.0061,0.0317,0.0466,0.0028
3010,0.0060,0.0171,0.0474,0.0027
3011,0.0059,0.0132,0.0538,0.0030
3012,0.0061,0.0541,0.0791,0.0044
3013,0.0060,0.0171,0.0474,0.0027
3014,0.0060,0.0171,0.0474,0.0027
3015,0.0060,0.0171,0.0474,0.0027
3016,0.0060,0.0171,0.0474,0.0027
3017,0.0059,0.0132,0.0538,0.0030
3018,0.0060,0.0171,0.0474,0.0027
3019,0.0060,0.0171,0.0474,0.0027
3020,0.0060,0.0171,0.0474,0.0027
3021,0.0065,0.0282,0.0504,0.0032
3022,0.0059,0.0132,0.0538,0.0030
3023,0.0063,0.0332,0.0649,0.0031
3024,0.0060,0.0171,0.0474,0.0027
3025,0.0060,0.0171,0.0474,0.0027
3026,0.0060,0.0171,0.0474,0.0027
3027,0.0060,0.0171,0.0474,0.0027
3028,0.0059,0.0132,0.0538,0.0030
3029,0.0060,0.0171,0.0474,0.0027
3030,0.0060,0.0171,0.0474,0.0027
3031,0.0060,0.0171,0.0474,0.0027
3032,0.0060,0.0171,0.0474,0.0027
3033,0.0069,0.0203,0.0624,0.0044
3034,0.0063,0.0290,0.0621,0.0029
3035,0.0060,0.0171,0.0474,0.0027
3036,0.0060,0.0171,0.0474,0.0027
3037,0.0060,0.0171,0.0474,0.0027
3038,0.0060,0.0171,0.0474,0.0027
3039,0.0059,0.0132,0.0538,0.0030
3040,0.0148,0.0252,0.0553,0.0032
3041,0.0123,0.0210,0.0536,0.0028
3042,0.0104,0.0189,0.0522,0.0026
3043,0.0088,0.0198,0.0509,0.0026
3044,0.0065,0.0213,0.0585,0.0036
3045,0.0063,0.0317,0.0681,0.0037
3046,0.0063,0.0332,0.0649,0.0031
3047,0.0074,0.0254,0.0595,0.0049
3048,0.0070,0.0285,0.0489,0.0028
3049,0.0065,0.0327,0.0477,0.0030
3050,0.0060,0.0343,0.0476,0.0031
3051,0.0057,0.0241,0.0520,0.0033
3052,0.0056,0.0241,0.0471,0.0030
3053,0.0061,0.0166,0.0457,0.0023
3054,0.0059,0.0205,0.0440,0.0021
3055,0.0060,0.0241,0.0436,0.0021
3056,0.0060,0.0214,0.0518,0.0026
3057,0.0063,0.0332,0.0649,0.0031
3058,0.0061,0.0317,0.0466,0.0028
3059,0.0079,0.0253,0.0649,0.0063
3060,0.0065,0.0282,0.0504,0.0032
3061,0.0069,0.0269,0.0546,0.0039
3062,0.0074,0.0207,0.0675,0.0055
3063,0.0079,0.0253,0.0649,0.0063
3064,0.0085,0.0252,0.0705,0.0080
3065,0.0132,0.0363,0.0471,0.0281
3066,0.0116,0.0206,0.0442,0.0255
3067,0.0105,0.0160,0.0479,0.0262
3068,0.0063,0.0332,0.0649,0.0031
3069,0.0203,0.0221,0.0282,0.0177
3070,0.0112,0.0215,0.0267,0.0225
3071,0.0088,0.0230,0.0290,0.0279
3072,0.0114,0.0211,0.0307,0.0304
3073,0.0137,0.0213,0.0320,0.0309
3074,0.0025,0.0216,0.0622,0.0029
3075,0.0025,0.0216,0.0622,0.0029
3076,0.0024,0.0268,0.0686,0.0031
3077,0.0028,0.0212,0.0627,0.0031
3078,0.0029,0.0288,0.0627,0.0030
3079,0.0063,0.0332,0.0649,0.0031
3080,0.0027,0.0254,0.0729,0.0035
3081,0.0025,0.0271,0.0737,0.0034
3082,0.0027,0.0329,0.0771,0.0035
3083,0.0028,0.0446,0.0843,0.0039
3084,0.0033,0.0382,0.0779,0.0039
3085,0.0033,0.0368,0.0764,0.0039
3086,0.0035,0.0443,0.0801,0.0038
3087,0.0038,0.0367,0.0707,0.0044
3088,0.0044,0.0359,0.0666,0.0051
3089,0.0028,0.0282,0.0662,0.0031
3090,0.0063,0.0290,0.0621,0.0029
3091,0.0077,0.0360,0.0682,0.0468
3092,0.0066,0.0371,0.0693,0.0404
3093,0.0057,0.0421,0.0746,0.0359
3094,0.0053,0.0300,0.0665,0.0288
3095,0.0049,0.0263,0.0623,0.0240
3096,0.0044,0.0235,0.0664,0.0193
3097,0.0040,0.0195,0.0591,0.0158
3098,0.0035,0.0198,0.0593,0.0126
3099,0.0030,0.0245,0.0658,0.0091
3100,0.0028,0.0261,0.0604,0.0063
3101,0.0063,0.0332,0.0649,0.0031
3102,0.0025,0.0271,0.0737,0.0034
3103,0.0025,0.0265,0.0694,0.0022
3104,0.0033,0.0217,0.0624,0.0058
3105,0.0039,0.0223,0.0635,0.0094
3106,0.0049,0.0307,0.0640,0.0148
3107,0.0057,0.0255,0.0655,0.0177
3108,0.0065,0.0287,0.0687,0.0227
3109,0.0070,0.0455,0.0788,0.0286
3110,0.0076,0.0418,0.0743,0.0356
3111,0.0080,0.0406,0.0735,0.0430
3112,0.0063,0.0332,0.0649,0.0031
3113,0.0103,0.0375,0.0768,0.0507
3114,0.0027,0.0329,0.0771,0.0035
3115,0.0025,0.0216,0.0622,0.0029
3116,0.0024,0.0268,0.0686,0.0031
3117,0.0027,0.0260,0.0616,0.0028
3118,0.0025,0.0216,0.0622,0.0029
3119,0.0024,0.0268,0.0686,0.0031
3120,0.0025,0.0216,0.0622,0.0029
3121,0.0025,0.0216,0.0622,0.0029
3122,0.0027,0.0260,0.0616,0.0028
3123,0.0063,0.0332,0.0649,0.0031
3124,0.0025,0.0216,0.0622,0.0029
3125,0.0025,0.0216,0.0622,0.0029
3126,0.0028,0.0446,0.0843,0.0039
3127,0.0025,0.0216,0.0622,0.0029
3128,0.0027,0.0260,0.0616,0.0028
3129,0.0024,0.0268,0.0686,0.0031
3130,0.0025,0.0216,0.0622,0.0029
3131,0.0025,0.0216,0.0622,0.0029
3132,0.0024,0.0268,0.0686,0.0031
3133,0.0027,0.0260,0.0616,0.0028
3134,0.0065,0.0554,0.0787,0.0045
3135,0.0025,0.0216,0.0622,0.0029
3136,0.0024,0.0268,0.0686,0.0031
3137,0.0025,0.0216,0.0622,0.0029
3138,0.0031,0.0372,0.0781,0.0038
3139,0.0027,0.0260,0.0616,0.0028
3140,0.0025,0.0216,0.0622,0.0029
3141,0.0025,0.0216,0.0622,0.0029
3142,0.0024,0.0268,0.0686,0.0031
3143,0.0025,0.0216,0.0622,0.0029
3144,0.0027,0.0260,0.0616,0.0028
3145,0.0063,0.0290,0.0621,0.0029
3146,0.0024,0.0268,0.0686,0.0031
3147,0.0025,0.0216,0.0622,0.0029
3148,0.0025,0.0216,0.0622,0.0029
3149,0.0024,0.0268,0.0686,0.0031
3150,0.0034,0.0384,0.0766,0.0041
3151,0.0025,0.0216,0.0622,0.0029
3152,0.0024,0.0268,0.0686,0.0031
3153,0.0025,0.0216,0.0622,0.0029
3154,0.0025,0.0216,0.0622,0.0029
3155,0.0027,0.0260,0.0616,0.0028
3156,0.0060,0.0411,0.0747,0.0040
3157,0.0063,0.0332,0.0649,0.0031
3158,0.0115,0.0182,0.0448,0.0045
3159,0.0086,0.0202,0.0467,0.0040
3160,0.0065,0.0293,0.0529,0.0039
3161,0.0045,0.0284,0.0505,0.0030
3162,0.0033,0.0382,0.0779,0.0039
3163,0.0035,0.0443,0.0801,0.0038
3164,0.0036,0.0391,0.0547,0.0025
3165,0.0037,0.0402,0.0561,0.0024
3166,0.0035,0.0480,0.0645,0.0026
3167,0.0036,0.0341,0.0589,0.0025
3168,0.0063,0.0332,0.0649,0.0031
3169,0.0028,0.0283,0.0609,0.0026
3170,0.0028,0.0236,0.0694,0.0034
3171,0.0028,0.0214,0.0664,0.0032
3172,0.0025,0.0271,0.0737,0.0034
3173,0.0028,0.0342,0.0768,0.0034
3174,0.0029,0.0364,0.0785,0.0037
3175,0.0038,0.0367,0.0707,0.0044
3176,0.0030,0.0450,0.0840,0.0039
3177,0.0033,0.0368,0.0764,0.0039
3178,0.0036,0.0392,0.0746,0.0044
3179,0.0063,0.0332,0.0649,0.0031
3180,0.0037,0.0428,0.0763,0.0039
3181,0.0044,0.0359,0.0666,0.0051
3182,0.0077,0.0360,0.0682,0.0468
3183,0.0064,0.0431,0.0744,0.0421
3184,0.0062,0.0363,0.0687,0.0344
3185,0.0128,0.0396,0.0479,0.0487
3186,0.0070,0.0338,0.0490,0.0432
3187,0.0071,0.0339,0.0526,0.0401
3188,0.0105,0.0387,0.0575,0.0382
3189,0.0136,0.0486,0.0624,0.0365
3190,0.0063,0.0332,0.0649,0.0031
3191,0.0024,0.0181,0.0426,0.0021
3192,0.0024,0.0181,0.0426,0.0021
3193,0.0022,0.0237,0.0496,0.0023
3194,0.0025,0.0184,0.0437,0.0023
3195,0.0026,0.0269,0.0456,0.0024
3196,0.0024,0.0229,0.0540,0.0026
3197,0.0024,0.0236,0.0535,0.0026
3198,0.0026,0.0293,0.0561,0.0027
3199,0.0027,0.0399,0.0625,0.0030
3200,0.0032,0.0327,0.0575,0.0033
3201,0.0063,0.0290,0.0621,0.0029
3202,0.0033,0.0302,0.0538,0.0033
3203,0.0034,0.0374,0.0572,0.0032
3204,0.0038,0.0299,0.0478,0.0043
3205,0.0044,0.0303,0.0438,0.0053
3206,0.0025,0.0256,0.0488,0.0024
3207,0.0076,0.0256,0.0473,0.0324
3208,0.0066,0.0276,0.0489,0.0278
3209,0.0056,0.0347,0.0551,0.0247
3210,0.0052,0.0247,0.0471,0.0196
3211,0.0048,0.0239,0.0446,0.0175
3212,0.0063,0.0332,0.0649,0.0031
3213,0.0043,0.0208,0.0482,0.0126
3214,0.0038,0.0169,0.0404,0.0111
3215,0.0033,0.0170,0.0398,0.0089
3216,0.0028,0.0217,0.0475,0.0061
3217,0.0026,0.0240,0.0429,0.0050
3218,0.0024,0.0236,0.0535,0.0026
3219,0.0024,0.0232,0.0501,0.0021
3220,0.0031,0.0188,0.0431,0.0049
3221,0.0037,0.0197,0.0436,0.0077
3222,0.0047,0.0285,0.0465,0.0124
3223,0.0063,0.0332,0.0649,0.0031
3224,0.0055,0.0220,0.0460,0.0135
3225,0.0064,0.0253,0.0488,0.0170
3226,0.0070,0.0423,0.0592,0.0207
3227,0.0076,0.0363,0.0533,0.0264
3228,0.0080,0.0361,0.0541,0.0328
3229,0.0103,0.0332,0.0559,0.0383
3230,0.0026,0.0293,0.0561,0.0027
3231,0.0024,0.0181,0.0426,0.0021
3232,0.0022,0.0237,0.0496,0.0023
3233,0.0025,0.0236,0.0439,0.0023
3234,0.0063,0.0332,0.0649,0.0031
3235,0.0024,0.0181,0.0426,0.0021
3236,0.0022,0.0237,0.0496,0.0023
3237,0.0024,0.0181,0.0426,0.0021
3238,0.0024,0.0181,0.0426,0.0021
3239,0.0025,0.0236,0.0439,0.0023
3240,0.0024,0.0181,0.0426,0.0021
3241,0.0024,0.0181,0.0426,0.0021
3242,0.0027,0.0399,0.0625,0.0030
3243,0.0024,0.0181,0.0426,0.0021
3244,0.0025,0.0236,0.0439,0.0023
3245,0.0063,0.0332,0.0649,0.0031
3246,0.0022,0.0237,0.0496,0.0023
3247,0.0024,0.0181,0.0426,0.0021
3248,0.0024,0.0181,0.0426,0.0021
3249,0.0022,0.0237,0.0496,0.0023
3250,0.0025,0.0236,0.0439,0.0023
3251,0.0024,0.0181,0.0426,0.0021
3252,0.0022,0.0237,0.0496,0.0023
3253,0.0024,0.0181,0.0426,0.0021
3254,0.0031,0.0310,0.0559,0.0031
3255,0.0025,0.0236,0.0439,0.0023
3256,0.0069,0.0488,0.0752,0.0047
3257,0.0024,0.0181,0.0426,0.0021
3258,0.0024,0.0181,0.0426,0.0021
3259,0.0022,0.0237,0.0496,0.0023
3260,0.0024,0.0181,0.0426,0.0021
3261,0.0025,0.0236,0.0439,0.0023
3262,0.0022,0.0237,0.0496,0.0023
3263,0.0024,0.0181,0.0426,0.0021
3264,0.0024,0.0181,0.0426,0.0021
3265,0.0022,0.0237,0.0496,0.0023
3266,0.0034,0.0333,0.0562,0.0036
3267,0.0059,0.0499,0.0779,0.0042
3268,0.0063,0.0332,0.0649,0.0031
3269,0.0024,0.0181,0.0426,0.0021
3270,0.0022,0.0237,0.0496,0.0023
3271,0.0024,0.0181,0.0426,0.0021
3272,0.0024,0.0181,0.0426,0.0021
3273,0.0025,0.0236,0.0439,0.0023
3274,0.0112,0.0166,0.0296,0.0039
3275,0.0083,0.0170,0.0305,0.0033
3276,0.0062,0.0256,0.0365,0.0033
3277,0.0044,0.0246,0.0334,0.0024
3278,0.0032,0.0327,0.0575,0.0033
3279,0.0063,0.0332,0.0649,0.0031
3280,0.0034,0.0374,0.0572,0.0032
3281,0.0037,0.0344,0.0367,0.0018
3282,0.0038,0.0358,0.0378,0.0018
3283,0.0036,0.0449,0.0469,0.0019
3284,0.0036,0.0299,0.0415,0.0021
3285,0.0027,0.0238,0.0415,0.0020
3286,0.0025,0.0213,0.0509,0.0025
3287,0.0025,0.0179,0.0473,0.0024
3288,0.0024,0.0236,0.0535,0.0026
3289,0.0028,0.0310,0.0573,0.0027
3290,0.0063,0.0332,0.0649,0.0031
3291,0.0029,0.0311,0.0565,0.0029
3292,0.0038,0.0299,0.0478,0.0043
3293,0.0030,0.0390,0.0618,0.0031
3294,0.0033,0.0302,0.0538,0.0033
3295,0.0036,0.0345,0.0541,0.0042
3296,0.0037,0.0356,0.0533,0.0035
3297,0.0044,0.0303,0.0438,0.0053
3298,0.0076,0.0256,0.0473,0.0324
3299,0.0063,0.0341,0.0546,0.0294
3300,0.0060,0.0298,0.0499,0.0243
3301,0.0063,0.0332,0.0649,0.0031
3302,0.0126,0.0359,0.0396,0.0378
3303,0.0069,0.0299,0.0385,0.0323
3304,0.0072,0.0293,0.0402,0.0292
3305,0.0107,0.0326,0.0435,0.0275
3306,0.0139,0.0419,0.0476,0.0261
3307,0.0021,0.0119,0.0157,0.0019
3308,0.0021,0.0119,0.0157,0.0019
3309,0.0020,0.0181,0.0222,0.0018
3310,0.0021,0.0141,0.0153,0.0018
3311,0.0022,0.0242,0.0277,0.0021
3312,0.0063,0.0290,0.0621,0.0029
3313,0.0021,0.0185,0.0224,0.0017
3314,0.0023,0.0158,0.0182,0.0018
3315,0.0025,0.0199,0.0192,0.0020
3316,0.0025,0.0306,0.0247,0.0021
3317,0.0030,0.0250,0.0323,0.0031
3318,0.0031,0.0184,0.0196,0.0031
3319,0.0033,0.0247,0.0224,0.0032
3320,0.0038,0.0225,0.0231,0.0051
3321,0.0044,0.0287,0.0271,0.0065
3322,0.0023,0.0223,0.0280,0.0020
3323,0.0159,0.0234,0.0462,0.0044
3324,0.0078,0.0241,0.0182,0.0117
3325,0.0066,0.0145,0.0173,0.0104
3326,0.0057,0.0226,0.0251,0.0084
3327,0.0051,0.0133,0.0163,0.0097
3328,0.0046,0.0212,0.0256,0.0142
3329,0.0042,0.0169,0.0232,0.0064
3330,0.0036,0.0143,0.0156,0.0092
3331,0.0031,0.0133,0.0157,0.0079
3332,0.0025,0.0170,0.0224,0.0043
3333,0.0023,0.0214,0.0275,0.0052
3334,0.0131,0.0274,0.0491,0.0040
3335,0.0023,0.0158,0.0182,0.0018
3336,0.0021,0.0178,0.0220,0.0021
3337,0.0029,0.0138,0.0157,0.0045
3338,0.0035,0.0152,0.0155,0.0070
3339,0.0045,0.0255,0.0274,0.0115
3340,0.0054,0.0154,0.0157,0.0105
3341,0.0063,0.0184,0.0166,0.0112
3342,0.0070,0.0348,0.0257,0.0079
3343,0.0076,0.0259,0.0184,0.0120
3344,0.0079,0.0286,0.0293,0.0172
3345,0.0109,0.0322,0.0513,0.0035
3346,0.0104,0.0271,0.0222,0.0149
3347,0.0025,0.0199,0.0192,0.0020
3348,0.0021,0.0119,0.0157,0.0019
3349,0.0020,0.0181,0.0222,0.0018
3350,0.0023,0.0205,0.0274,0.0023
3351,0.0021,0.0119,0.0157,0.0019
3352,0.0020,0.0181,0.0222,0.0018
3353,0.0021,0.0119,0.0157,0.0019
3354,0.0021,0.0119,0.0157,0.0019
3355,0.0023,0.0205,0.0274,0.0023
3356,0.0091,0.0385,0.0540,0.0032
3357,0.0021,0.0119,0.0157,0.0019
3358,0.0021,0.0119,0.0157,0.0019
3359,0.0025,0.0306,0.0247,0.0021
3360,0.0021,0.0119,0.0157,0.0019
3361,0.0023,0.0205,0.0274,0.0023
3362,0.0020,0.0181,0.0222,0.0018
3363,0.0021,0.0119,0.0157,0.0019
3364,0.0021,0.0119,0.0157,0.0019
3365,0.0020,0.0181,0.0222,0.0018
3366,0.0023,0.0205,0.0274,0.0023
3367,0.0066,0.0491,0.0766,0.0045
3368,0.0021,0.0119,0.0157,0.0019
3369,0.0020,0.0181,0.0222,0.0018
3370,0.0021,0.0119,0.0157,0.0019
3371,0.0029,0.0194,0.0195,0.0026
3372,0.0023,0.0205,0.0274,0.0023
3373,0.0021,0.0119,0.0157,0.0019
3374,0.0021,0.0119,0.0157,0.0019
3375,0.0020,0.0181,0.0222,0.0018
3376,0.0021,0.0119,0.0157,0.0019
3377,0.0023,0.0205,0.0274,0.0023
3378,0.0061,0.0541,0.0791,0.0044
3379,0.0073,0.0561,0.0748,0.0047
3380,0.0020,0.0181,0.0222,0.0018
3381,0.0021,0.0119,0.0157,0.0019
3382,0.0021,0.0119,0.0157,0.0019
3383,0.0020,0.0181,0.0222,0.0018
3384,0.0032,0.0269,0.0335,0.0037
3385,0.0021,0.0119,0.0157,0.0019
3386,0.0020,0.0181,0.0222,0.0018
3387,0.0021,0.0119,0.0157,0.0019
3388,0.0021,0.0119,0.0157,0.0019
3389,0.0023,0.0205,0.0274,0.0023
3390,0.0070,0.0508,0.0585,0.0027
3391,0.0105,0.0178,0.0262,0.0031
3392,0.0078,0.0149,0.0238,0.0025
3393,0.0059,0.0196,0.0234,0.0024
3394,0.0043,0.0165,0.0200,0.0016
3395,0.0030,0.0250,0.0323,0.0031
3396,0.0033,0.0247,0.0224,0.0032
3397,0.0040,0.0254,0.0180,0.0015
3398,0.0041,0.0276,0.0173,0.0018
3399,0.0037,0.0366,0.0245,0.0018
3400,0.0038,0.0228,0.0260,0.0024
3401,0.0064,0.0536,0.0602,0.0027
3402,0.0027,0.0161,0.0159,0.0020
3403,0.0021,0.0172,0.0218,0.0017
3404,0.0022,0.0129,0.0160,0.0017
3405,0.0023,0.0158,0.0182,0.0018
3406,0.0027,0.0234,0.0305,0.0022
3407,0.0027,0.0203,0.0194,0.0023
3408,0.0038,0.0225,0.0231,0.0051
3409,0.0028,0.0283,0.0238,0.0023
3410,0.0031,0.0184,0.0196,0.0031
3411,0.0035,0.0300,0.0353,0.0046
3412,0.0061,0.0540,0.0616,0.0026
3413,0.0037,0.0248,0.0229,0.0042
3414,0.0044,0.0287,0.0271,0.0065
3415,0.0078,0.0241,0.0182,0.0117
3416,0.0065,0.0206,0.0244,0.0103
3417,0.0059,0.0214,0.0262,0.0145
3418,0.0125,0.0292,0.0302,0.0209
3419,0.0065,0.0245,0.0260,0.0185
3420,0.0076,0.0223,0.0235,0.0179
3421,0.0114,0.0233,0.0233,0.0179
3422,0.0145,0.0302,0.0248,0.0176
3423,0.0060,0.0447,0.0603,0.0026
3424,0.0020,0.0106,0.0360,0.0025
3425,0.0020,0.0106,0.0360,0.0025
3426,0.0019,0.0159,0.0354,0.0023
3427,0.0020,0.0136,0.0346,0.0022
3428,0.0021,0.0244,0.0448,0.0026
3429,0.0021,0.0161,0.0306,0.0018
3430,0.0022,0.0093,0.0305,0.0020
3431,0.0023,0.0114,0.0307,0.0022
3432,0.0025,0.0239,0.0307,0.0023
3433,0.0028,0.0222,0.0478,0.0035
3434,0.0059,0.0426,0.0641,0.0029
3435,0.0030,0.0143,0.0399,0.0037
3436,0.0035,0.0204,0.0404,0.0040
3437,0.0039,0.0247,0.0500,0.0061
3438,0.0046,0.0335,0.0562,0.0078
3439,0.0021,0.0203,0.0424,0.0023
3440,0.0083,0.0396,0.0389,0.0246
3441,0.0069,0.0209,0.0354,0.0225
3442,0.0060,0.0188,0.0354,0.0188
3443,0.0053,0.0127,0.0346,0.0201
3444,0.0046,0.0231,0.0435,0.0222
3445,0.0066,0.0290,0.0649,0.0034
3446,0.0043,0.0161,0.0367,0.0146
3447,0.0036,0.0148,0.0372,0.0153
3448,0.0030,0.0143,0.0375,0.0126
3449,0.0025,0.0156,0.0371,0.0079
3450,0.0022,0.0215,0.0461,0.0070
3451,0.0022,0.0093,0.0305,0.0020
3452,0.0021,0.0160,0.0347,0.0024
3453,0.0028,0.0129,0.0353,0.0061
3454,0.0034,0.0138,0.0341,0.0098
3455,0.0044,0.0239,0.0434,0.0151
3456,0.0063,0.0317,0.0681,0.0037
3457,0.0054,0.0119,0.0319,0.0155
3458,0.0063,0.0133,0.0298,0.0168
3459,0.0070,0.0281,0.0298,0.0142
3460,0.0076,0.0171,0.0299,0.0169
3461,0.0079,0.0267,0.0428,0.0208
3462,0.0106,0.0298,0.0332,0.0140
3463,0.0023,0.0114,0.0307,0.0022
3464,0.0020,0.0106,0.0360,0.0025
3465,0.0019,0.0159,0.0354,0.0023
3466,0.0021,0.0209,0.0457,0.0029
3467,0.0060,0.0411,0.0747,0.0040
3468,0.0020,0.0106,0.0360,0.0025
3469,0.0019,0.0159,0.0354,0.0023
3470,0.0020,0.0106,0.0360,0.0025
3471,0.0020,0.0106,0.0360,0.0025
3472,0.0021,0.0209,0.0457,0.0029
3473,0.0020,0.0106,0.0360,0.0025
3474,0.0020,0.0106,0.0360,0.0025
3475,0.0025,0.0239,0.0307,0.0023
3476,0.0020,0.0106,0.0360,0.0025
3477,0.0021,0.0209,0.0457,0.0029
3478,0.0061,0.0430,0.0758,0.0040
3479,0.0019,0.0159,0.0354,0.0023
3480,0.0020,0.0106,0.0360,0.0025
3481,0.0020,0.0106,0.0360,0.0025
3482,0.0019,0.0159,0.0354,0.0023
3483,0.0021,0.0209,0.0457,0.0029
3484,0.0020,0.0106,0.0360,0.0025
3485,0.0019,0.0159,0.0354,0.0023
3486,0.0020,0.0106,0.0360,0.0025
3487,0.0027,0.0115,0.0357,0.0030
3488,0.0021,0.0209,0.0457,0.0029
3489,0.0066,0.0491,0.0766,0.0045
3490,0.0061,0.0541,0.0791,0.0044
3491,0.0020,0.0106,0.0360,0.0025
3492,0.0020,0.0106,0.0360,0.0025
3493,0.0019,0.0159,0.0354,0.0023
3494,0.0020,0.0106,0.0360,0.0025
3495,0.0021,0.0209,0.0457,0.0029
3496,0.0019,0.0159,0.0354,0.0023
3497,0.0020,0.0106,0.0360,0.0025
3498,0.0020,0.0106,0.0360,0.0025
3499,0.0019,0.0159,0.0354,0.0023
3500,0.0031,0.0266,0.0517,0.0043
3501,0.0077,0.0549,0.0710,0.0049
3502,0.0020,0.0106,0.0360,0.0025
3503,0.0019,0.0159,0.0354,0.0023
3504,0.0020,0.0106,0.0360,0.0025
3505,0.0020,0.0106,0.0360,0.0025
3506,0.0021,0.0209,0.0457,0.0029
3507,0.0102,0.0241,0.0486,0.0028
3508,0.0075,0.0183,0.0465,0.0023
3509,0.0058,0.0184,0.0432,0.0022
3510,0.0044,0.0114,0.0424,0.0018
3511,0.0028,0.0222,0.0478,0.0035
3512,0.0065,0.0554,0.0787,0.0045
3513,0.0035,0.0204,0.0404,0.0040
3514,0.0042,0.0173,0.0398,0.0021
3515,0.0043,0.0204,0.0388,0.0024
3516,0.0038,0.0303,0.0385,0.0023
3517,0.0038,0.0162,0.0448,0.0030
3518,0.0026,0.0088,0.0366,0.0027
3519,0.0021,0.0158,0.0335,0.0020
3520,0.0021,0.0088,0.0315,0.0020
3521,0.0022,0.0093,0.0305,0.0020
3522,0.0025,0.0189,0.0424,0.0025
3523,0.0069,0.0549,0.0767,0.0047
3524,0.0025,0.0120,0.0326,0.0026
3525,0.0039,0.0247,0.0500,0.0061
3526,0.0027,0.0210,0.0329,0.0026
3527,0.0030,0.0143,0.0399,0.0037
3528,0.0034,0.0312,0.0561,0.0054
3529,0.0039,0.0234,0.0456,0.0053
3530,0.0046,0.0335,0.0562,0.0078
3531,0.0083,0.0396,0.0389,0.0246
3532,0.0070,0.0228,0.0366,0.0209
3533,0.0059,0.0228,0.0421,0.0248
3534,0.0074,0.0494,0.0730,0.0049
3535,0.0128,0.0253,0.0335,0.0209
3536,0.0060,0.0223,0.0307,0.0242
3537,0.0078,0.0213,0.0293,0.0271
3538,0.0117,0.0201,0.0284,0.0284
3539,0.0149,0.0222,0.0286,0.0290
3540,0.0020,0.0118,0.0484,0.0028
3541,0.0020,0.0118,0.0484,0.0028
3542,0.0019,0.0160,0.0466,0.0026
3543,0.0020,0.0132,0.0462,0.0025
3544,0.0020,0.0239,0.0553,0.0028
3545,0.0077,0.0549,0.0710,0.0049
3546,0.0021,0.0156,0.0418,0.0020
3547,0.0022,0.0079,0.0428,0.0021
3548,0.0023,0.0086,0.0431,0.0024
3549,0.0025,0.0223,0.0427,0.0025
3550,0.0028,0.0233,0.0599,0.0037
3551,0.0030,0.0144,0.0535,0.0040
3552,0.0036,0.0211,0.0544,0.0045
3553,0.0040,0.0279,0.0646,0.0066
3554,0.0047,0.0366,0.0709,0.0083
3555,0.0021,0.0210,0.0533,0.0025
3556,0.0083,0.0519,0.0671,0.0053
3557,0.0086,0.0474,0.0518,0.0329
3558,0.0071,0.0267,0.0482,0.0299
3559,0.0063,0.0203,0.0464,0.0252
3560,0.0054,0.0153,0.0468,0.0255
3561,0.0047,0.0258,0.0551,0.0266
3562,0.0044,0.0169,0.0475,0.0187
3563,0.0036,0.0162,0.0491,0.0183
3564,0.0030,0.0156,0.0496,0.0150
3565,0.0025,0.0156,0.0477,0.0097
3566,0.0021,0.0226,0.0572,0.0079
3567,0.0120,0.0411,0.0733,0.0511
3568,0.0022,0.0079,0.0428,0.0021
3569,0.0021,0.0168,0.0461,0.0027
3570,0.0028,0.0135,0.0471,0.0071
3571,0.0034,0.0139,0.0458,0.0115
3572,0.0044,0.0246,0.0541,0.0173
3573,0.0054,0.0108,0.0433,0.0186
3574,0.0064,0.0114,0.0415,0.0207
3575,0.0070,0.0261,0.0400,0.0192
3576,0.0076,0.0149,0.0412,0.0221
3577,0.0080,0.0269,0.0532,0.0260
3578,0.0108,0.0459,0.0745,0.0443
3579,0.0107,0.0330,0.0449,0.0206
3580,0.0023,0.0086,0.0431,0.0024
3581,0.0020,0.0118,0.0484,0.0028
3582,0.0019,0.0160,0.0466,0.0026
3583,0.0021,0.0215,0.0566,0.0031
3584,0.0020,0.0118,0.0484,0.0028
3585,0.0019,0.0160,0.0466,0.0026
3586,0.0020,0.0118,0.0484,0.0028
3587,0.0020,0.0118,0.0484,0.0028
3588,0.0021,0.0215,0.0566,0.0031
3589,0.0102,0.0405,0.0716,0.0369
3590,0.0020,0.0118,0.0484,0.0028
3591,0.0020,0.0118,0.0484,0.0028
3592,0.0025,0.0223,0.0427,0.0025
3593,0.0020,0.0118,0.0484,0.0028
3594,0.0021,0.0215,0.0566,0.0031
3595,0.0019,0.0160,0.0466,0.0026
3596,0.0020,0.0118,0.0484,0.0028
3597,0.0020,0.0118,0.0484,0.0028
3598,0.0019,0.0160,0.0466,0.0026
3599,0.0021,0.0215,0.0566,0.0031
Total Error Summary
Vdc  RMSE=  0.0052
Idc  RMSE=  0.0247
Id   RMSE=  0.0471
Iq   RMSE=  0.0114
