Read Model from: ./ucf8/
Export Model to: ./ucf8/ucf8_fhf.json
idx_in [0, 1, 2, 3, 4, 5, 6]
idx_out [7, 8, 9, 10]
make_mimo_block stable2nd
H1s[0][0]  Real Poles: [-93.59219968 -93.59219968] Freqs [Hz]: [5.3442928886062795]
H1s[0][1]  Real Poles: [-94.80630904 -94.80630904] Freqs [Hz]: [3.0868791967893863]
H1s[0][2]  Real Poles: [-90.24345279 -90.24345279] Freqs [Hz]: [6.548826025962919]
H1s[0][3]  Real Poles: [-94.00737286 -94.00737286] Freqs [Hz]: [7.833824254525028]
H1s[1][0]  Real Poles: [-89.70168307 -89.70168307] Freqs [Hz]: [7.602882473484763]
H1s[1][1]  Real Poles: [-92.45173335 -92.45173335] Freqs [Hz]: [9.127076535137432]
H1s[1][2]  Real Poles: [-81.35154843 -81.35154843] Freqs [Hz]: [7.044179426188712]
H1s[1][3]  Real Poles: [-84.78536308 -84.78536308] Freqs [Hz]: [4.200819426507593]
H1s[2][0]  Real Poles: [-106.59246966 -106.59246966] Freqs [Hz]: [6.445341283081381]
H1s[2][1]  Real Poles: [-85.83495617 -85.83495617] Freqs [Hz]: [3.5085420886756635]
H1s[2][2]  Real Poles: [-96.35531791 -96.35531791] Freqs [Hz]: [9.114550635390414]
H1s[2][3]  Real Poles: [-91.12038016 -91.12038016] Freqs [Hz]: [8.356653049269337]
H1s[3][0]  Real Poles: [-77.89402902 -77.89402902] Freqs [Hz]: [5.03888034971599]
H1s[3][1]  Real Poles: [-84.63378698 -84.63378698] Freqs [Hz]: [4.395644560895671]
H1s[3][2]  Real Poles: [-90.61049968 -90.61049968] Freqs [Hz]: [5.613479300359432]
H1s[3][3]  Real Poles: [-85.37328988 -85.37328988] Freqs [Hz]: [5.919125634455411]
model_folder = ./ucf8/
model_root = ucf8
data_path = d:/data/ucf3/ucf7.hdf5
idx_in [0, 1, 2, 3, 4, 5, 6]
idx_out [7, 8, 9, 10]
read 3600 dataframes
dt=0.010000 data_len=401 n_io=11 n_case=3600
['G', 'Ud', 'Uq', 'Vd', 'Vq', 'GVrms', 'Ctrl'] ['Vdc', 'Idc', 'Id', 'Iq'] (3600, 401, 11)
make_mimo_block stable2nd
Idx,Vdc,Idc,Id,Iq
#,RMSE,RMSE,RMSE,RMSE
Total,0.0052,0.0236,0.0246,0.0113
0,0.0033,0.0147,0.0138,0.0045
1,0.0033,0.0147,0.0138,0.0045
2,0.0039,0.0193,0.0136,0.0056
3,0.0030,0.0133,0.0132,0.0044
4,0.0030,0.0156,0.0135,0.0047
5,0.0030,0.0156,0.0135,0.0047
6,0.0030,0.0156,0.0135,0.0047
7,0.0037,0.0154,0.0148,0.0046
8,0.0037,0.0154,0.0148,0.0046
9,0.0036,0.0156,0.0148,0.0043
10,0.0030,0.0213,0.0187,0.0045
11,0.0030,0.0214,0.0179,0.0048
12,0.0034,0.0158,0.0111,0.0052
13,0.0037,0.0189,0.0128,0.0056
14,0.0030,0.0133,0.0132,0.0044
15,0.0038,0.0190,0.0138,0.0060
16,0.0040,0.0220,0.0171,0.0062
17,0.0047,0.0224,0.0187,0.0065
18,0.0060,0.0246,0.0203,0.0074
19,0.0036,0.0156,0.0148,0.0043
20,0.0081,0.0466,0.0428,0.0352
21,0.0066,0.0417,0.0407,0.0298
22,0.0066,0.0372,0.0399,0.0239
23,0.0076,0.0323,0.0367,0.0184
24,0.0089,0.0299,0.0328,0.0139
25,0.0030,0.0133,0.0132,0.0044
26,0.0087,0.0295,0.0311,0.0114
27,0.0070,0.0274,0.0315,0.0099
28,0.0046,0.0238,0.0304,0.0093
29,0.0044,0.0214,0.0290,0.0079
30,0.0053,0.0218,0.0229,0.0048
31,0.0030,0.0213,0.0187,0.0045
32,0.0060,0.0390,0.0411,0.0052
33,0.0026,0.0547,0.0658,0.0045
34,0.0032,0.0303,0.0432,0.0049
35,0.0033,0.0248,0.0354,0.0059
36,0.0037,0.0116,0.0117,0.0043
37,0.0030,0.0265,0.0369,0.0088
38,0.0030,0.0357,0.0469,0.0146
39,0.0041,0.0509,0.0597,0.0222
40,0.0055,0.0601,0.0653,0.0285
41,0.0068,0.0590,0.0585,0.0320
42,0.0078,0.0472,0.0417,0.0332
43,0.0030,0.0214,0.0179,0.0048
44,0.0030,0.0156,0.0135,0.0047
45,0.0030,0.0156,0.0135,0.0047
46,0.0030,0.0156,0.0135,0.0047
47,0.0037,0.0116,0.0117,0.0043
48,0.0030,0.0156,0.0135,0.0047
49,0.0030,0.0156,0.0135,0.0047
50,0.0030,0.0156,0.0135,0.0047
51,0.0030,0.0156,0.0135,0.0047
52,0.0030,0.0156,0.0135,0.0047
53,0.0030,0.0156,0.0135,0.0047
54,0.0030,0.0156,0.0135,0.0047
55,0.0034,0.0158,0.0111,0.0052
56,0.0030,0.0156,0.0135,0.0047
57,0.0030,0.0156,0.0135,0.0047
58,0.0035,0.0149,0.0146,0.0042
59,0.0030,0.0156,0.0135,0.0047
60,0.0030,0.0156,0.0135,0.0047
61,0.0030,0.0156,0.0135,0.0047
62,0.0030,0.0156,0.0135,0.0047
63,0.0030,0.0156,0.0135,0.0047
64,0.0030,0.0156,0.0135,0.0047
65,0.0030,0.0156,0.0135,0.0047
66,0.0030,0.0156,0.0135,0.0047
67,0.0037,0.0189,0.0128,0.0056
68,0.0030,0.0156,0.0135,0.0047
69,0.0030,0.0208,0.0191,0.0043
70,0.0030,0.0156,0.0135,0.0047
71,0.0030,0.0156,0.0135,0.0047
72,0.0030,0.0156,0.0135,0.0047
73,0.0030,0.0156,0.0135,0.0047
74,0.0030,0.0156,0.0135,0.0047
75,0.0030,0.0156,0.0135,0.0047
76,0.0030,0.0156,0.0135,0.0047
77,0.0030,0.0156,0.0135,0.0047
78,0.0030,0.0156,0.0135,0.0047
79,0.0038,0.0190,0.0138,0.0060
80,0.0030,0.0213,0.0186,0.0045
81,0.0030,0.0156,0.0135,0.0047
82,0.0030,0.0156,0.0135,0.0047
83,0.0030,0.0156,0.0135,0.0047
84,0.0030,0.0156,0.0135,0.0047
85,0.0030,0.0156,0.0135,0.0047
86,0.0168,0.0189,0.0208,0.0129
87,0.0130,0.0145,0.0182,0.0097
88,0.0098,0.0133,0.0191,0.0075
89,0.0069,0.0126,0.0193,0.0062
90,0.0037,0.0189,0.0128,0.0056
91,0.0033,0.0183,0.0158,0.0047
92,0.0040,0.0220,0.0171,0.0062
93,0.0037,0.0120,0.0162,0.0053
94,0.0034,0.0131,0.0128,0.0050
95,0.0031,0.0152,0.0128,0.0047
96,0.0027,0.0154,0.0127,0.0045
97,0.0024,0.0166,0.0138,0.0045
98,0.0037,0.0154,0.0148,0.0046
99,0.0036,0.0156,0.0148,0.0043
100,0.0030,0.0213,0.0187,0.0045
101,0.0030,0.0214,0.0179,0.0048
102,0.0035,0.0187,0.0148,0.0049
103,0.0034,0.0158,0.0111,0.0052
104,0.0047,0.0224,0.0187,0.0065
105,0.0037,0.0189,0.0128,0.0056
106,0.0038,0.0190,0.0138,0.0060
107,0.0040,0.0220,0.0171,0.0062
108,0.0047,0.0224,0.0187,0.0065
109,0.0060,0.0246,0.0203,0.0074
110,0.0081,0.0466,0.0428,0.0352
111,0.0066,0.0417,0.0407,0.0298
112,0.0066,0.0372,0.0399,0.0239
113,0.0044,0.0223,0.0171,0.0059
114,0.0037,0.0186,0.0149,0.0053
115,0.0027,0.0141,0.0129,0.0046
116,0.0027,0.0141,0.0129,0.0046
117,0.0027,0.0141,0.0129,0.0046
118,0.0032,0.0129,0.0122,0.0045
119,0.0032,0.0129,0.0122,0.0045
120,0.0031,0.0153,0.0151,0.0043
121,0.0027,0.0206,0.0190,0.0044
122,0.0030,0.0204,0.0177,0.0046
123,0.0035,0.0161,0.0135,0.0048
124,0.0037,0.0171,0.0134,0.0051
125,0.0041,0.0208,0.0175,0.0056
126,0.0038,0.0179,0.0143,0.0056
127,0.0039,0.0205,0.0173,0.0058
128,0.0044,0.0206,0.0181,0.0060
129,0.0056,0.0245,0.0210,0.0069
130,0.0031,0.0153,0.0151,0.0043
131,0.0072,0.0411,0.0388,0.0275
132,0.0057,0.0345,0.0333,0.0226
133,0.0057,0.0312,0.0324,0.0183
134,0.0066,0.0280,0.0300,0.0145
135,0.0080,0.0281,0.0277,0.0118
136,0.0049,0.0205,0.0180,0.0062
137,0.0079,0.0289,0.0280,0.0103
138,0.0062,0.0260,0.0279,0.0085
139,0.0042,0.0217,0.0258,0.0073
140,0.0049,0.0178,0.0227,0.0065
141,0.0060,0.0207,0.0204,0.0047
142,0.0027,0.0206,0.0190,0.0044
143,0.0061,0.0351,0.0381,0.0052
144,0.0027,0.0497,0.0578,0.0045
145,0.0030,0.0249,0.0343,0.0049
146,0.0033,0.0208,0.0278,0.0056
147,0.0064,0.0237,0.0202,0.0078
148,0.0030,0.0213,0.0284,0.0074
149,0.0031,0.0288,0.0377,0.0120
150,0.0041,0.0436,0.0512,0.0185
151,0.0051,0.0521,0.0564,0.0234
152,0.0062,0.0496,0.0493,0.0254
153,0.0071,0.0379,0.0333,0.0254
154,0.0030,0.0204,0.0177,0.0046
155,0.0027,0.0141,0.0129,0.0046
156,0.0027,0.0141,0.0129,0.0046
157,0.0027,0.0141,0.0129,0.0046
158,0.0035,0.0149,0.0146,0.0042
159,0.0027,0.0141,0.0129,0.0046
160,0.0027,0.0141,0.0129,0.0046
161,0.0027,0.0141,0.0129,0.0046
162,0.0027,0.0141,0.0129,0.0046
163,0.0027,0.0141,0.0129,0.0046
164,0.0027,0.0141,0.0129,0.0046
165,0.0027,0.0141,0.0129,0.0046
166,0.0035,0.0161,0.0135,0.0048
167,0.0027,0.0141,0.0129,0.0046
168,0.0027,0.0141,0.0129,0.0046
169,0.0083,0.0453,0.0435,0.0282
170,0.0027,0.0141,0.0129,0.0046
171,0.0027,0.0141,0.0129,0.0046
172,0.0027,0.0141,0.0129,0.0046
173,0.0027,0.0141,0.0129,0.0046
174,0.0027,0.0141,0.0129,0.0046
175,0.0027,0.0141,0.0129,0.0046
176,0.0027,0.0141,0.0129,0.0046
177,0.0027,0.0141,0.0129,0.0046
178,0.0037,0.0171,0.0134,0.0051
179,0.0027,0.0141,0.0129,0.0046
180,0.0066,0.0361,0.0345,0.0226
181,0.0027,0.0141,0.0129,0.0046
182,0.0027,0.0141,0.0129,0.0046
183,0.0027,0.0141,0.0129,0.0046
184,0.0027,0.0141,0.0129,0.0046
185,0.0027,0.0141,0.0129,0.0046
186,0.0027,0.0141,0.0129,0.0046
187,0.0027,0.0141,0.0129,0.0046
188,0.0027,0.0141,0.0129,0.0046
189,0.0027,0.0141,0.0129,0.0046
190,0.0038,0.0179,0.0143,0.0056
191,0.0064,0.0323,0.0321,0.0183
192,0.0027,0.0141,0.0129,0.0046
193,0.0027,0.0141,0.0129,0.0046
194,0.0027,0.0141,0.0129,0.0046
195,0.0027,0.0141,0.0129,0.0046
196,0.0027,0.0141,0.0129,0.0046
197,0.0165,0.0193,0.0218,0.0124
198,0.0127,0.0138,0.0157,0.0091
199,0.0095,0.0124,0.0150,0.0070
200,0.0067,0.0117,0.0149,0.0058
201,0.0037,0.0171,0.0134,0.0051
202,0.0072,0.0299,0.0305,0.0153
203,0.0039,0.0205,0.0173,0.0058
204,0.0038,0.0114,0.0130,0.0051
205,0.0035,0.0127,0.0114,0.0049
206,0.0033,0.0133,0.0118,0.0045
207,0.0027,0.0148,0.0126,0.0044
208,0.0022,0.0163,0.0145,0.0044
209,0.0032,0.0129,0.0122,0.0045
210,0.0031,0.0153,0.0151,0.0043
211,0.0027,0.0206,0.0190,0.0044
212,0.0030,0.0204,0.0177,0.0046
213,0.0084,0.0308,0.0296,0.0134
214,0.0035,0.0161,0.0135,0.0048
215,0.0044,0.0206,0.0181,0.0060
216,0.0037,0.0171,0.0134,0.0051
217,0.0038,0.0179,0.0143,0.0056
218,0.0039,0.0205,0.0173,0.0058
219,0.0044,0.0206,0.0181,0.0060
220,0.0056,0.0245,0.0210,0.0069
221,0.0072,0.0411,0.0388,0.0275
222,0.0057,0.0345,0.0333,0.0226
223,0.0057,0.0312,0.0324,0.0183
224,0.0053,0.0222,0.0185,0.0065
225,0.0082,0.0316,0.0306,0.0120
226,0.0023,0.0122,0.0119,0.0044
227,0.0023,0.0122,0.0119,0.0044
228,0.0023,0.0122,0.0119,0.0044
229,0.0026,0.0119,0.0117,0.0044
230,0.0026,0.0119,0.0117,0.0044
231,0.0025,0.0149,0.0149,0.0043
232,0.0026,0.0182,0.0169,0.0042
233,0.0032,0.0183,0.0181,0.0043
234,0.0038,0.0110,0.0113,0.0044
235,0.0041,0.0133,0.0126,0.0046
236,0.0063,0.0282,0.0306,0.0091
237,0.0040,0.0140,0.0135,0.0049
238,0.0038,0.0146,0.0140,0.0053
239,0.0041,0.0194,0.0186,0.0055
240,0.0051,0.0261,0.0221,0.0064
241,0.0025,0.0149,0.0149,0.0043
242,0.0057,0.0416,0.0411,0.0216
243,0.0044,0.0293,0.0275,0.0161
244,0.0043,0.0258,0.0236,0.0136
245,0.0053,0.0266,0.0236,0.0129
246,0.0065,0.0298,0.0268,0.0129
247,0.0042,0.0227,0.0274,0.0069
248,0.0065,0.0331,0.0313,0.0123
249,0.0052,0.0296,0.0313,0.0092
250,0.0044,0.0230,0.0266,0.0060
251,0.0064,0.0145,0.0174,0.0054
252,0.0073,0.0219,0.0218,0.0049
253,0.0026,0.0182,0.0169,0.0042
254,0.0063,0.0287,0.0338,0.0053
255,0.0031,0.0409,0.0427,0.0045
256,0.0036,0.0160,0.0189,0.0052
257,0.0038,0.0174,0.0179,0.0058
258,0.0049,0.0177,0.0225,0.0064
259,0.0035,0.0158,0.0166,0.0060
260,0.0035,0.0179,0.0225,0.0079
261,0.0039,0.0287,0.0342,0.0113
262,0.0043,0.0360,0.0395,0.0134
263,0.0049,0.0322,0.0326,0.0127
264,0.0053,0.0254,0.0243,0.0137
265,0.0032,0.0183,0.0181,0.0043
266,0.0023,0.0122,0.0119,0.0044
267,0.0023,0.0122,0.0119,0.0044
268,0.0023,0.0122,0.0119,0.0044
269,0.0058,0.0209,0.0217,0.0047
270,0.0023,0.0122,0.0119,0.0044
271,0.0023,0.0122,0.0119,0.0044
272,0.0023,0.0122,0.0119,0.0044
273,0.0023,0.0122,0.0119,0.0044
274,0.0023,0.0122,0.0119,0.0044
275,0.0023,0.0122,0.0119,0.0044
276,0.0023,0.0122,0.0119,0.0044
277,0.0038,0.0110,0.0113,0.0044
278,0.0023,0.0122,0.0119,0.0044
279,0.0023,0.0122,0.0119,0.0044
280,0.0030,0.0208,0.0191,0.0043
281,0.0023,0.0122,0.0119,0.0044
282,0.0023,0.0122,0.0119,0.0044
283,0.0023,0.0122,0.0119,0.0044
284,0.0023,0.0122,0.0119,0.0044
285,0.0023,0.0122,0.0119,0.0044
286,0.0023,0.0122,0.0119,0.0044
287,0.0023,0.0122,0.0119,0.0044
288,0.0023,0.0122,0.0119,0.0044
289,0.0041,0.0133,0.0126,0.0046
290,0.0023,0.0122,0.0119,0.0044
291,0.0058,0.0353,0.0397,0.0053
292,0.0023,0.0122,0.0119,0.0044
293,0.0023,0.0122,0.0119,0.0044
294,0.0023,0.0122,0.0119,0.0044
295,0.0023,0.0122,0.0119,0.0044
296,0.0023,0.0122,0.0119,0.0044
297,0.0023,0.0122,0.0119,0.0044
298,0.0023,0.0122,0.0119,0.0044
299,0.0023,0.0122,0.0119,0.0044
300,0.0023,0.0122,0.0119,0.0044
301,0.0040,0.0140,0.0135,0.0049
302,0.0026,0.0479,0.0546,0.0045
303,0.0023,0.0122,0.0119,0.0044
304,0.0023,0.0122,0.0119,0.0044
305,0.0023,0.0122,0.0119,0.0044
306,0.0023,0.0122,0.0119,0.0044
307,0.0023,0.0122,0.0119,0.0044
308,0.0161,0.0203,0.0295,0.0111
309,0.0124,0.0147,0.0200,0.0079
310,0.0092,0.0119,0.0150,0.0058
311,0.0066,0.0105,0.0117,0.0049
312,0.0041,0.0133,0.0126,0.0046
313,0.0030,0.0233,0.0317,0.0050
314,0.0038,0.0146,0.0140,0.0053
315,0.0042,0.0110,0.0109,0.0050
316,0.0040,0.0119,0.0115,0.0049
317,0.0038,0.0137,0.0130,0.0045
318,0.0031,0.0133,0.0128,0.0042
319,0.0022,0.0137,0.0134,0.0042
320,0.0026,0.0119,0.0117,0.0044
321,0.0025,0.0149,0.0149,0.0043
322,0.0026,0.0182,0.0169,0.0042
323,0.0032,0.0183,0.0181,0.0043
324,0.0030,0.0204,0.0264,0.0057
325,0.0038,0.0110,0.0113,0.0044
326,0.0041,0.0194,0.0186,0.0055
327,0.0041,0.0133,0.0126,0.0046
328,0.0040,0.0140,0.0135,0.0049
329,0.0038,0.0146,0.0140,0.0053
330,0.0041,0.0194,0.0186,0.0055
331,0.0051,0.0261,0.0221,0.0064
332,0.0057,0.0416,0.0411,0.0216
333,0.0044,0.0293,0.0275,0.0161
334,0.0043,0.0258,0.0236,0.0136
335,0.0067,0.0242,0.0197,0.0080
336,0.0029,0.0204,0.0260,0.0071
337,0.0021,0.0132,0.0130,0.0043
338,0.0021,0.0132,0.0130,0.0043
339,0.0021,0.0132,0.0130,0.0043
340,0.0024,0.0125,0.0123,0.0044
341,0.0024,0.0125,0.0123,0.0044
342,0.0024,0.0158,0.0154,0.0043
343,0.0026,0.0196,0.0173,0.0043
344,0.0032,0.0170,0.0156,0.0044
345,0.0040,0.0083,0.0092,0.0044
346,0.0043,0.0091,0.0100,0.0045
347,0.0027,0.0271,0.0344,0.0113
348,0.0041,0.0113,0.0117,0.0048
349,0.0039,0.0144,0.0146,0.0051
350,0.0040,0.0205,0.0194,0.0054
351,0.0048,0.0266,0.0212,0.0062
352,0.0024,0.0158,0.0154,0.0043
353,0.0050,0.0529,0.0517,0.0285
354,0.0039,0.0374,0.0358,0.0219
355,0.0038,0.0326,0.0303,0.0188
356,0.0048,0.0352,0.0326,0.0183
357,0.0058,0.0379,0.0365,0.0173
358,0.0032,0.0418,0.0474,0.0175
359,0.0057,0.0392,0.0410,0.0158
360,0.0049,0.0359,0.0413,0.0118
361,0.0050,0.0293,0.0363,0.0074
362,0.0072,0.0196,0.0254,0.0065
363,0.0083,0.0260,0.0279,0.0052
364,0.0026,0.0196,0.0173,0.0043
365,0.0063,0.0285,0.0349,0.0052
366,0.0034,0.0334,0.0322,0.0045
367,0.0045,0.0162,0.0189,0.0059
368,0.0046,0.0229,0.0245,0.0068
369,0.0040,0.0505,0.0528,0.0223
370,0.0040,0.0205,0.0211,0.0070
371,0.0037,0.0159,0.0179,0.0071
372,0.0036,0.0200,0.0240,0.0080
373,0.0036,0.0254,0.0288,0.0083
374,0.0037,0.0233,0.0245,0.0083
375,0.0039,0.0287,0.0291,0.0158
376,0.0032,0.0170,0.0156,0.0044
377,0.0021,0.0132,0.0130,0.0043
378,0.0021,0.0132,0.0130,0.0043
379,0.0021,0.0132,0.0130,0.0043
380,0.0048,0.0486,0.0463,0.0244
381,0.0021,0.0132,0.0130,0.0043
382,0.0021,0.0132,0.0130,0.0043
383,0.0021,0.0132,0.0130,0.0043
384,0.0021,0.0132,0.0130,0.0043
385,0.0021,0.0132,0.0130,0.0043
386,0.0021,0.0132,0.0130,0.0043
387,0.0021,0.0132,0.0130,0.0043
388,0.0040,0.0083,0.0092,0.0044
389,0.0021,0.0132,0.0130,0.0043
390,0.0021,0.0132,0.0130,0.0043
391,0.0056,0.0377,0.0327,0.0251
392,0.0021,0.0132,0.0130,0.0043
393,0.0021,0.0132,0.0130,0.0043
394,0.0021,0.0132,0.0130,0.0043
395,0.0021,0.0132,0.0130,0.0043
396,0.0021,0.0132,0.0130,0.0043
397,0.0021,0.0132,0.0130,0.0043
398,0.0021,0.0132,0.0130,0.0043
399,0.0021,0.0132,0.0130,0.0043
400,0.0043,0.0091,0.0100,0.0045
401,0.0021,0.0132,0.0130,0.0043
402,0.0030,0.0213,0.0186,0.0045
403,0.0021,0.0132,0.0130,0.0043
404,0.0021,0.0132,0.0130,0.0043
405,0.0021,0.0132,0.0130,0.0043
406,0.0021,0.0132,0.0130,0.0043
407,0.0021,0.0132,0.0130,0.0043
408,0.0021,0.0132,0.0130,0.0043
409,0.0021,0.0132,0.0130,0.0043
410,0.0021,0.0132,0.0130,0.0043
411,0.0021,0.0132,0.0130,0.0043
412,0.0041,0.0113,0.0117,0.0048
413,0.0030,0.0133,0.0132,0.0044
414,0.0021,0.0132,0.0130,0.0043
415,0.0021,0.0132,0.0130,0.0043
416,0.0021,0.0132,0.0130,0.0043
417,0.0021,0.0132,0.0130,0.0043
418,0.0021,0.0132,0.0130,0.0043
419,0.0160,0.0232,0.0393,0.0100
420,0.0122,0.0155,0.0278,0.0067
421,0.0091,0.0133,0.0223,0.0050
422,0.0066,0.0107,0.0163,0.0046
423,0.0043,0.0091,0.0100,0.0045
424,0.0030,0.0133,0.0132,0.0044
425,0.0039,0.0144,0.0146,0.0051
426,0.0045,0.0117,0.0145,0.0053
427,0.0044,0.0136,0.0156,0.0051
428,0.0041,0.0157,0.0176,0.0046
429,0.0033,0.0159,0.0170,0.0042
430,0.0022,0.0152,0.0159,0.0042
431,0.0024,0.0125,0.0123,0.0044
432,0.0024,0.0158,0.0154,0.0043
433,0.0026,0.0196,0.0173,0.0043
434,0.0032,0.0170,0.0156,0.0044
435,0.0030,0.0133,0.0132,0.0044
436,0.0040,0.0083,0.0092,0.0044
437,0.0040,0.0205,0.0194,0.0054
438,0.0043,0.0091,0.0100,0.0045
439,0.0041,0.0113,0.0117,0.0048
440,0.0039,0.0144,0.0146,0.0051
441,0.0040,0.0205,0.0194,0.0054
442,0.0048,0.0266,0.0212,0.0062
443,0.0050,0.0529,0.0517,0.0285
444,0.0039,0.0374,0.0358,0.0219
445,0.0038,0.0326,0.0303,0.0188
446,0.0041,0.0146,0.0138,0.0043
447,0.0030,0.0133,0.0132,0.0044
448,0.0021,0.0138,0.0139,0.0043
449,0.0021,0.0138,0.0139,0.0043
450,0.0021,0.0138,0.0139,0.0043
451,0.0023,0.0127,0.0124,0.0044
452,0.0023,0.0127,0.0124,0.0044
453,0.0023,0.0179,0.0169,0.0044
454,0.0026,0.0224,0.0193,0.0044
455,0.0033,0.0181,0.0153,0.0044
456,0.0041,0.0082,0.0093,0.0045
457,0.0043,0.0097,0.0097,0.0046
458,0.0030,0.0133,0.0132,0.0044
459,0.0043,0.0113,0.0118,0.0048
460,0.0040,0.0146,0.0146,0.0052
461,0.0040,0.0203,0.0182,0.0054
462,0.0048,0.0275,0.0215,0.0063
463,0.0023,0.0179,0.0169,0.0044
464,0.0048,0.0593,0.0578,0.0331
465,0.0038,0.0426,0.0414,0.0255
466,0.0037,0.0379,0.0356,0.0216
467,0.0046,0.0399,0.0385,0.0210
468,0.0057,0.0429,0.0426,0.0197
469,0.0030,0.0133,0.0132,0.0044
470,0.0056,0.0427,0.0458,0.0173
471,0.0050,0.0397,0.0465,0.0129
472,0.0053,0.0327,0.0415,0.0084
473,0.0078,0.0221,0.0294,0.0072
474,0.0086,0.0299,0.0334,0.0055
475,0.0026,0.0224,0.0193,0.0044
476,0.0062,0.0308,0.0386,0.0051
477,0.0036,0.0310,0.0294,0.0046
478,0.0049,0.0187,0.0233,0.0062
479,0.0049,0.0265,0.0295,0.0074
480,0.0030,0.0133,0.0132,0.0044
481,0.0042,0.0238,0.0251,0.0078
482,0.0037,0.0187,0.0204,0.0080
483,0.0034,0.0195,0.0230,0.0085
484,0.0034,0.0233,0.0267,0.0085
485,0.0033,0.0223,0.0238,0.0102
486,0.0034,0.0333,0.0334,0.0197
487,0.0033,0.0181,0.0153,0.0044
488,0.0021,0.0138,0.0139,0.0043
489,0.0021,0.0138,0.0139,0.0043
490,0.0021,0.0138,0.0139,0.0043
491,0.0030,0.0133,0.0132,0.0044
492,0.0021,0.0138,0.0139,0.0043
493,0.0021,0.0138,0.0139,0.0043
494,0.0021,0.0138,0.0139,0.0043
495,0.0021,0.0138,0.0139,0.0043
496,0.0021,0.0138,0.0139,0.0043
497,0.0021,0.0138,0.0139,0.0043
498,0.0021,0.0138,0.0139,0.0043
499,0.0041,0.0082,0.0093,0.0045
500,0.0021,0.0138,0.0139,0.0043
501,0.0021,0.0138,0.0139,0.0043
502,0.0030,0.0133,0.0132,0.0044
503,0.0021,0.0138,0.0139,0.0043
504,0.0021,0.0138,0.0139,0.0043
505,0.0021,0.0138,0.0139,0.0043
506,0.0021,0.0138,0.0139,0.0043
507,0.0021,0.0138,0.0139,0.0043
508,0.0021,0.0138,0.0139,0.0043
509,0.0021,0.0138,0.0139,0.0043
510,0.0021,0.0138,0.0139,0.0043
511,0.0043,0.0097,0.0097,0.0046
512,0.0021,0.0138,0.0139,0.0043
513,0.0030,0.0133,0.0132,0.0044
514,0.0021,0.0138,0.0139,0.0043
515,0.0021,0.0138,0.0139,0.0043
516,0.0021,0.0138,0.0139,0.0043
517,0.0021,0.0138,0.0139,0.0043
518,0.0021,0.0138,0.0139,0.0043
519,0.0021,0.0138,0.0139,0.0043
520,0.0021,0.0138,0.0139,0.0043
521,0.0021,0.0138,0.0139,0.0043
522,0.0021,0.0138,0.0139,0.0043
523,0.0043,0.0113,0.0118,0.0048
524,0.0033,0.0183,0.0158,0.0047
525,0.0021,0.0138,0.0139,0.0043
526,0.0021,0.0138,0.0139,0.0043
527,0.0021,0.0138,0.0139,0.0043
528,0.0021,0.0138,0.0139,0.0043
529,0.0021,0.0138,0.0139,0.0043
530,0.0159,0.0243,0.0438,0.0095
531,0.0122,0.0175,0.0332,0.0064
532,0.0091,0.0143,0.0263,0.0047
533,0.0066,0.0118,0.0205,0.0046
534,0.0043,0.0097,0.0097,0.0046
535,0.0030,0.0133,0.0132,0.0044
536,0.0040,0.0146,0.0146,0.0052
537,0.0046,0.0125,0.0171,0.0054
538,0.0046,0.0132,0.0159,0.0053
539,0.0042,0.0144,0.0169,0.0048
540,0.0033,0.0143,0.0155,0.0043
541,0.0023,0.0153,0.0163,0.0042
542,0.0023,0.0127,0.0124,0.0044
543,0.0023,0.0179,0.0169,0.0044
544,0.0026,0.0224,0.0193,0.0044
545,0.0033,0.0181,0.0153,0.0044
546,0.0030,0.0133,0.0132,0.0044
547,0.0041,0.0082,0.0093,0.0045
548,0.0040,0.0203,0.0182,0.0054
549,0.0043,0.0097,0.0097,0.0046
550,0.0043,0.0113,0.0118,0.0048
551,0.0040,0.0146,0.0146,0.0052
552,0.0040,0.0203,0.0182,0.0054
553,0.0048,0.0275,0.0215,0.0063
554,0.0048,0.0593,0.0578,0.0331
555,0.0038,0.0426,0.0414,0.0255
556,0.0037,0.0379,0.0356,0.0216
557,0.0091,0.0484,0.0453,0.0345
558,0.0030,0.0133,0.0132,0.0044
559,0.0030,0.0133,0.0132,0.0044
560,0.0030,0.0133,0.0132,0.0044
561,0.0030,0.0133,0.0132,0.0044
562,0.0030,0.0133,0.0132,0.0044
563,0.0030,0.0133,0.0132,0.0044
564,0.0030,0.0133,0.0132,0.0044
565,0.0030,0.0133,0.0132,0.0044
566,0.0035,0.0187,0.0148,0.0049
567,0.0030,0.0133,0.0132,0.0044
568,0.0074,0.0413,0.0400,0.0285
569,0.0030,0.0133,0.0132,0.0044
570,0.0030,0.0133,0.0132,0.0044
571,0.0030,0.0133,0.0132,0.0044
572,0.0030,0.0133,0.0132,0.0044
573,0.0030,0.0133,0.0132,0.0044
574,0.0030,0.0133,0.0132,0.0044
575,0.0030,0.0133,0.0132,0.0044
576,0.0030,0.0133,0.0132,0.0044
577,0.0030,0.0133,0.0132,0.0044
578,0.0037,0.0186,0.0149,0.0053
579,0.0073,0.0373,0.0390,0.0230
580,0.0030,0.0133,0.0132,0.0044
581,0.0030,0.0133,0.0132,0.0044
582,0.0030,0.0133,0.0132,0.0044
583,0.0030,0.0133,0.0132,0.0044
584,0.0030,0.0133,0.0132,0.0044
585,0.0151,0.0165,0.0197,0.0115
586,0.0116,0.0125,0.0152,0.0085
587,0.0087,0.0119,0.0151,0.0065
588,0.0063,0.0114,0.0148,0.0055
589,0.0035,0.0187,0.0148,0.0049
590,0.0082,0.0332,0.0362,0.0180
591,0.0041,0.0208,0.0175,0.0056
592,0.0039,0.0111,0.0127,0.0051
593,0.0037,0.0122,0.0114,0.0050
594,0.0033,0.0129,0.0123,0.0046
595,0.0027,0.0144,0.0131,0.0043
596,0.0022,0.0158,0.0152,0.0043
597,0.0037,0.0116,0.0117,0.0043
598,0.0035,0.0149,0.0146,0.0042
599,0.0030,0.0208,0.0191,0.0043
600,0.0030,0.0213,0.0186,0.0045
601,0.0093,0.0318,0.0334,0.0144
602,0.0033,0.0183,0.0158,0.0047
603,0.0049,0.0205,0.0180,0.0062
604,0.0035,0.0187,0.0148,0.0049
605,0.0037,0.0186,0.0149,0.0053
606,0.0041,0.0208,0.0175,0.0056
607,0.0049,0.0205,0.0180,0.0062
608,0.0064,0.0237,0.0202,0.0078
609,0.0083,0.0453,0.0435,0.0282
610,0.0066,0.0361,0.0345,0.0226
611,0.0064,0.0323,0.0321,0.0183
612,0.0033,0.0147,0.0138,0.0045
613,0.0090,0.0314,0.0325,0.0121
614,0.0026,0.0117,0.0123,0.0043
615,0.0026,0.0117,0.0123,0.0043
616,0.0026,0.0117,0.0123,0.0043
617,0.0031,0.0105,0.0110,0.0043
618,0.0031,0.0105,0.0110,0.0043
619,0.0029,0.0136,0.0140,0.0042
620,0.0028,0.0169,0.0162,0.0042
621,0.0030,0.0188,0.0193,0.0043
622,0.0034,0.0129,0.0134,0.0044
623,0.0036,0.0148,0.0141,0.0046
624,0.0072,0.0286,0.0326,0.0098
625,0.0037,0.0150,0.0145,0.0049
626,0.0038,0.0149,0.0141,0.0053
627,0.0044,0.0191,0.0185,0.0060
628,0.0058,0.0252,0.0213,0.0076
629,0.0029,0.0136,0.0140,0.0042
630,0.0067,0.0501,0.0495,0.0266
631,0.0051,0.0358,0.0338,0.0203
632,0.0049,0.0312,0.0284,0.0176
633,0.0059,0.0320,0.0289,0.0168
634,0.0068,0.0344,0.0319,0.0164
635,0.0046,0.0244,0.0310,0.0086
636,0.0067,0.0369,0.0363,0.0152
637,0.0052,0.0330,0.0360,0.0112
638,0.0043,0.0251,0.0306,0.0069
639,0.0063,0.0157,0.0204,0.0057
640,0.0072,0.0224,0.0246,0.0049
641,0.0028,0.0169,0.0162,0.0042
642,0.0060,0.0297,0.0361,0.0054
643,0.0028,0.0390,0.0394,0.0044
644,0.0032,0.0156,0.0184,0.0054
645,0.0032,0.0191,0.0203,0.0061
646,0.0044,0.0211,0.0283,0.0077
647,0.0029,0.0170,0.0176,0.0062
648,0.0028,0.0172,0.0203,0.0075
649,0.0031,0.0269,0.0304,0.0102
650,0.0034,0.0344,0.0358,0.0122
651,0.0037,0.0314,0.0300,0.0120
652,0.0040,0.0261,0.0264,0.0147
653,0.0030,0.0188,0.0193,0.0043
654,0.0026,0.0117,0.0123,0.0043
655,0.0026,0.0117,0.0123,0.0043
656,0.0026,0.0117,0.0123,0.0043
657,0.0052,0.0219,0.0236,0.0048
658,0.0026,0.0117,0.0123,0.0043
659,0.0026,0.0117,0.0123,0.0043
660,0.0026,0.0117,0.0123,0.0043
661,0.0026,0.0117,0.0123,0.0043
662,0.0026,0.0117,0.0123,0.0043
663,0.0026,0.0117,0.0123,0.0043
664,0.0026,0.0117,0.0123,0.0043
665,0.0034,0.0129,0.0134,0.0044
666,0.0026,0.0117,0.0123,0.0043
667,0.0026,0.0117,0.0123,0.0043
668,0.0034,0.0216,0.0189,0.0045
669,0.0026,0.0117,0.0123,0.0043
670,0.0026,0.0117,0.0123,0.0043
671,0.0026,0.0117,0.0123,0.0043
672,0.0026,0.0117,0.0123,0.0043
673,0.0026,0.0117,0.0123,0.0043
674,0.0026,0.0117,0.0123,0.0043
675,0.0026,0.0117,0.0123,0.0043
676,0.0026,0.0117,0.0123,0.0043
677,0.0036,0.0148,0.0141,0.0046
678,0.0026,0.0117,0.0123,0.0043
679,0.0057,0.0390,0.0425,0.0053
680,0.0026,0.0117,0.0123,0.0043
681,0.0026,0.0117,0.0123,0.0043
682,0.0026,0.0117,0.0123,0.0043
683,0.0026,0.0117,0.0123,0.0043
684,0.0026,0.0117,0.0123,0.0043
685,0.0026,0.0117,0.0123,0.0043
686,0.0026,0.0117,0.0123,0.0043
687,0.0026,0.0117,0.0123,0.0043
688,0.0026,0.0117,0.0123,0.0043
689,0.0037,0.0150,0.0145,0.0049
690,0.0026,0.0529,0.0627,0.0045
691,0.0026,0.0117,0.0123,0.0043
692,0.0026,0.0117,0.0123,0.0043
693,0.0026,0.0117,0.0123,0.0043
694,0.0026,0.0117,0.0123,0.0043
695,0.0026,0.0117,0.0123,0.0043
696,0.0148,0.0176,0.0266,0.0104
697,0.0113,0.0130,0.0181,0.0073
698,0.0085,0.0112,0.0141,0.0055
699,0.0063,0.0102,0.0112,0.0048
700,0.0036,0.0148,0.0141,0.0046
701,0.0033,0.0288,0.0408,0.0050
702,0.0038,0.0149,0.0141,0.0053
703,0.0044,0.0107,0.0113,0.0051
704,0.0042,0.0116,0.0122,0.0050
705,0.0038,0.0136,0.0142,0.0046
706,0.0030,0.0131,0.0137,0.0043
707,0.0021,0.0134,0.0144,0.0042
708,0.0031,0.0105,0.0110,0.0043
709,0.0029,0.0136,0.0140,0.0042
710,0.0028,0.0169,0.0162,0.0042
711,0.0030,0.0188,0.0193,0.0043
712,0.0034,0.0238,0.0331,0.0059
713,0.0034,0.0129,0.0134,0.0044
714,0.0044,0.0191,0.0185,0.0060
715,0.0036,0.0148,0.0141,0.0046
716,0.0037,0.0150,0.0145,0.0049
717,0.0038,0.0149,0.0141,0.0053
718,0.0044,0.0191,0.0185,0.0060
719,0.0058,0.0252,0.0213,0.0076
720,0.0067,0.0501,0.0495,0.0266
721,0.0051,0.0358,0.0338,0.0203
722,0.0049,0.0312,0.0284,0.0176
723,0.0042,0.0142,0.0144,0.0044
724,0.0031,0.0253,0.0343,0.0085
725,0.0024,0.0126,0.0136,0.0042
726,0.0024,0.0126,0.0136,0.0042
727,0.0024,0.0126,0.0136,0.0042
728,0.0028,0.0109,0.0116,0.0043
729,0.0028,0.0109,0.0116,0.0043
730,0.0026,0.0134,0.0137,0.0043
731,0.0027,0.0165,0.0150,0.0043
732,0.0030,0.0155,0.0154,0.0044
733,0.0035,0.0088,0.0108,0.0045
734,0.0037,0.0098,0.0109,0.0046
735,0.0027,0.0338,0.0434,0.0139
736,0.0037,0.0114,0.0119,0.0049
737,0.0038,0.0141,0.0144,0.0053
738,0.0042,0.0198,0.0187,0.0060
739,0.0054,0.0254,0.0200,0.0077
740,0.0026,0.0134,0.0137,0.0043
741,0.0059,0.0631,0.0615,0.0353
742,0.0043,0.0458,0.0440,0.0277
743,0.0042,0.0401,0.0379,0.0242
744,0.0052,0.0421,0.0400,0.0233
745,0.0061,0.0441,0.0437,0.0218
746,0.0032,0.0489,0.0559,0.0212
747,0.0059,0.0440,0.0472,0.0194
748,0.0049,0.0398,0.0469,0.0144
749,0.0049,0.0323,0.0415,0.0089
750,0.0072,0.0216,0.0300,0.0071
751,0.0082,0.0269,0.0317,0.0052
752,0.0027,0.0165,0.0150,0.0043
753,0.0060,0.0291,0.0370,0.0053
754,0.0031,0.0315,0.0292,0.0045
755,0.0040,0.0174,0.0217,0.0060
756,0.0039,0.0254,0.0289,0.0074
757,0.0043,0.0588,0.0619,0.0275
758,0.0032,0.0230,0.0250,0.0077
759,0.0029,0.0169,0.0191,0.0076
760,0.0029,0.0189,0.0219,0.0079
761,0.0029,0.0242,0.0262,0.0082
762,0.0030,0.0228,0.0233,0.0095
763,0.0030,0.0298,0.0326,0.0182
764,0.0030,0.0155,0.0154,0.0044
765,0.0024,0.0126,0.0136,0.0042
766,0.0024,0.0126,0.0136,0.0042
767,0.0024,0.0126,0.0136,0.0042
768,0.0054,0.0577,0.0553,0.0310
769,0.0024,0.0126,0.0136,0.0042
770,0.0024,0.0126,0.0136,0.0042
771,0.0024,0.0126,0.0136,0.0042
772,0.0024,0.0126,0.0136,0.0042
773,0.0024,0.0126,0.0136,0.0042
774,0.0024,0.0126,0.0136,0.0042
775,0.0024,0.0126,0.0136,0.0042
776,0.0035,0.0088,0.0108,0.0045
777,0.0024,0.0126,0.0136,0.0042
778,0.0024,0.0126,0.0136,0.0042
779,0.0063,0.0467,0.0403,0.0327
780,0.0024,0.0126,0.0136,0.0042
781,0.0024,0.0126,0.0136,0.0042
782,0.0024,0.0126,0.0136,0.0042
783,0.0024,0.0126,0.0136,0.0042
784,0.0024,0.0126,0.0136,0.0042
785,0.0024,0.0126,0.0136,0.0042
786,0.0024,0.0126,0.0136,0.0042
787,0.0024,0.0126,0.0136,0.0042
788,0.0037,0.0098,0.0109,0.0046
789,0.0024,0.0126,0.0136,0.0042
790,0.0032,0.0226,0.0188,0.0047
791,0.0024,0.0126,0.0136,0.0042
792,0.0024,0.0126,0.0136,0.0042
793,0.0024,0.0126,0.0136,0.0042
794,0.0024,0.0126,0.0136,0.0042
795,0.0024,0.0126,0.0136,0.0042
796,0.0024,0.0126,0.0136,0.0042
797,0.0024,0.0126,0.0136,0.0042
798,0.0024,0.0126,0.0136,0.0042
799,0.0024,0.0126,0.0136,0.0042
800,0.0037,0.0114,0.0119,0.0049
801,0.0033,0.0147,0.0138,0.0045
802,0.0024,0.0126,0.0136,0.0042
803,0.0024,0.0126,0.0136,0.0042
804,0.0024,0.0126,0.0136,0.0042
805,0.0024,0.0126,0.0136,0.0042
806,0.0024,0.0126,0.0136,0.0042
807,0.0147,0.0209,0.0374,0.0094
808,0.0112,0.0139,0.0265,0.0063
809,0.0085,0.0122,0.0216,0.0047
810,0.0064,0.0100,0.0161,0.0046
811,0.0037,0.0098,0.0109,0.0046
812,0.0033,0.0147,0.0138,0.0045
813,0.0038,0.0141,0.0144,0.0053
814,0.0048,0.0115,0.0156,0.0055
815,0.0047,0.0137,0.0171,0.0053
816,0.0041,0.0158,0.0193,0.0048
817,0.0032,0.0155,0.0182,0.0044
818,0.0021,0.0148,0.0169,0.0042
819,0.0028,0.0109,0.0116,0.0043
820,0.0026,0.0134,0.0137,0.0043
821,0.0027,0.0165,0.0150,0.0043
822,0.0030,0.0155,0.0154,0.0044
823,0.0033,0.0147,0.0138,0.0045
824,0.0035,0.0088,0.0108,0.0045
825,0.0042,0.0198,0.0187,0.0060
826,0.0037,0.0098,0.0109,0.0046
827,0.0037,0.0114,0.0119,0.0049
828,0.0038,0.0141,0.0144,0.0053
829,0.0042,0.0198,0.0187,0.0060
830,0.0054,0.0254,0.0200,0.0077
831,0.0059,0.0631,0.0615,0.0353
832,0.0043,0.0458,0.0440,0.0277
833,0.0042,0.0401,0.0379,0.0242
834,0.0042,0.0142,0.0144,0.0044
835,0.0033,0.0147,0.0138,0.0045
836,0.0024,0.0128,0.0142,0.0042
837,0.0024,0.0128,0.0142,0.0042
838,0.0024,0.0128,0.0142,0.0042
839,0.0027,0.0112,0.0117,0.0043
840,0.0027,0.0112,0.0117,0.0043
841,0.0026,0.0150,0.0149,0.0043
842,0.0027,0.0185,0.0162,0.0043
843,0.0030,0.0155,0.0139,0.0045
844,0.0035,0.0083,0.0107,0.0046
845,0.0037,0.0090,0.0097,0.0047
846,0.0033,0.0147,0.0138,0.0045
847,0.0038,0.0114,0.0121,0.0050
848,0.0038,0.0142,0.0143,0.0054
849,0.0042,0.0196,0.0175,0.0061
850,0.0053,0.0267,0.0206,0.0077
851,0.0026,0.0150,0.0149,0.0043
852,0.0055,0.0697,0.0676,0.0400
853,0.0041,0.0522,0.0507,0.0320
854,0.0040,0.0465,0.0444,0.0277
855,0.0050,0.0473,0.0463,0.0262
856,0.0059,0.0487,0.0495,0.0240
857,0.0033,0.0147,0.0138,0.0045
858,0.0057,0.0480,0.0526,0.0211
859,0.0049,0.0443,0.0530,0.0160
860,0.0052,0.0360,0.0472,0.0102
861,0.0078,0.0247,0.0347,0.0078
862,0.0084,0.0307,0.0371,0.0055
863,0.0027,0.0185,0.0162,0.0043
864,0.0059,0.0316,0.0410,0.0052
865,0.0033,0.0294,0.0271,0.0045
866,0.0043,0.0204,0.0268,0.0065
867,0.0042,0.0296,0.0347,0.0081
868,0.0033,0.0147,0.0138,0.0045
869,0.0034,0.0266,0.0298,0.0086
870,0.0029,0.0200,0.0226,0.0087
871,0.0028,0.0191,0.0223,0.0090
872,0.0028,0.0223,0.0248,0.0093
873,0.0028,0.0221,0.0236,0.0119
874,0.0028,0.0346,0.0374,0.0223
875,0.0030,0.0155,0.0139,0.0045
876,0.0024,0.0128,0.0142,0.0042
877,0.0024,0.0128,0.0142,0.0042
878,0.0024,0.0128,0.0142,0.0042
879,0.0033,0.0147,0.0138,0.0045
880,0.0024,0.0128,0.0142,0.0042
881,0.0024,0.0128,0.0142,0.0042
882,0.0024,0.0128,0.0142,0.0042
883,0.0024,0.0128,0.0142,0.0042
884,0.0024,0.0128,0.0142,0.0042
885,0.0024,0.0128,0.0142,0.0042
886,0.0024,0.0128,0.0142,0.0042
887,0.0035,0.0083,0.0107,0.0046
888,0.0024,0.0128,0.0142,0.0042
889,0.0024,0.0128,0.0142,0.0042
890,0.0033,0.0147,0.0138,0.0045
891,0.0024,0.0128,0.0142,0.0042
892,0.0024,0.0128,0.0142,0.0042
893,0.0024,0.0128,0.0142,0.0042
894,0.0024,0.0128,0.0142,0.0042
895,0.0024,0.0128,0.0142,0.0042
896,0.0024,0.0128,0.0142,0.0042
897,0.0024,0.0128,0.0142,0.0042
898,0.0024,0.0128,0.0142,0.0042
899,0.0037,0.0090,0.0097,0.0047
900,0.0024,0.0128,0.0142,0.0042
901,0.0033,0.0147,0.0138,0.0045
902,0.0024,0.0128,0.0142,0.0042
903,0.0024,0.0128,0.0142,0.0042
904,0.0024,0.0128,0.0142,0.0042
905,0.0024,0.0128,0.0142,0.0042
906,0.0024,0.0128,0.0142,0.0042
907,0.0024,0.0128,0.0142,0.0042
908,0.0024,0.0128,0.0142,0.0042
909,0.0024,0.0128,0.0142,0.0042
910,0.0024,0.0128,0.0142,0.0042
911,0.0038,0.0114,0.0121,0.0050
912,0.0034,0.0181,0.0131,0.0050
913,0.0024,0.0128,0.0142,0.0042
914,0.0024,0.0128,0.0142,0.0042
915,0.0024,0.0128,0.0142,0.0042
916,0.0024,0.0128,0.0142,0.0042
917,0.0024,0.0128,0.0142,0.0042
918,0.0146,0.0216,0.0416,0.0089
919,0.0112,0.0159,0.0323,0.0060
920,0.0084,0.0134,0.0260,0.0045
921,0.0064,0.0113,0.0211,0.0046
922,0.0037,0.0090,0.0097,0.0047
923,0.0033,0.0147,0.0138,0.0045
924,0.0038,0.0142,0.0143,0.0054
925,0.0049,0.0124,0.0185,0.0057
926,0.0048,0.0132,0.0176,0.0056
927,0.0043,0.0144,0.0185,0.0050
928,0.0032,0.0144,0.0172,0.0045
929,0.0021,0.0149,0.0174,0.0042
930,0.0027,0.0112,0.0117,0.0043
931,0.0026,0.0150,0.0149,0.0043
932,0.0027,0.0185,0.0162,0.0043
933,0.0030,0.0155,0.0139,0.0045
934,0.0033,0.0147,0.0138,0.0045
935,0.0035,0.0083,0.0107,0.0046
936,0.0042,0.0196,0.0175,0.0061
937,0.0037,0.0090,0.0097,0.0047
938,0.0038,0.0114,0.0121,0.0050
939,0.0038,0.0142,0.0143,0.0054
940,0.0042,0.0196,0.0175,0.0061
941,0.0053,0.0267,0.0206,0.0077
942,0.0055,0.0697,0.0676,0.0400
943,0.0041,0.0522,0.0507,0.0320
944,0.0040,0.0465,0.0444,0.0277
945,0.0041,0.0146,0.0138,0.0043
946,0.0033,0.0147,0.0138,0.0045
947,0.0037,0.0136,0.0138,0.0043
948,0.0037,0.0136,0.0138,0.0043
949,0.0037,0.0136,0.0138,0.0043
950,0.0047,0.0129,0.0140,0.0043
951,0.0047,0.0129,0.0140,0.0043
952,0.0047,0.0147,0.0132,0.0042
953,0.0040,0.0232,0.0201,0.0045
954,0.0036,0.0244,0.0204,0.0047
955,0.0036,0.0207,0.0157,0.0050
956,0.0039,0.0223,0.0156,0.0051
957,0.0033,0.0147,0.0138,0.0045
958,0.0043,0.0200,0.0140,0.0054
959,0.0050,0.0231,0.0175,0.0058
960,0.0061,0.0223,0.0185,0.0068
961,0.0076,0.0242,0.0197,0.0089
962,0.0047,0.0147,0.0132,0.0042
963,0.0103,0.0518,0.0492,0.0349
964,0.0084,0.0426,0.0410,0.0284
965,0.0081,0.0384,0.0391,0.0231
966,0.0089,0.0348,0.0369,0.0188
967,0.0098,0.0338,0.0350,0.0156
968,0.0033,0.0147,0.0138,0.0045
969,0.0093,0.0330,0.0345,0.0134
970,0.0073,0.0298,0.0344,0.0103
971,0.0047,0.0250,0.0322,0.0084
972,0.0043,0.0216,0.0285,0.0076
973,0.0050,0.0220,0.0244,0.0048
974,0.0040,0.0232,0.0201,0.0045
975,0.0054,0.0390,0.0439,0.0053
976,0.0027,0.0518,0.0604,0.0046
977,0.0037,0.0278,0.0389,0.0051
978,0.0038,0.0237,0.0323,0.0061
979,0.0033,0.0147,0.0138,0.0045
980,0.0037,0.0248,0.0326,0.0084
981,0.0031,0.0324,0.0407,0.0136
982,0.0029,0.0476,0.0529,0.0207
983,0.0035,0.0574,0.0586,0.0268
984,0.0043,0.0569,0.0526,0.0305
985,0.0049,0.0466,0.0396,0.0326
986,0.0036,0.0244,0.0204,0.0047
987,0.0037,0.0136,0.0138,0.0043
988,0.0037,0.0136,0.0138,0.0043
989,0.0037,0.0136,0.0138,0.0043
990,0.0033,0.0147,0.0138,0.0045
991,0.0037,0.0136,0.0138,0.0043
992,0.0037,0.0136,0.0138,0.0043
993,0.0037,0.0136,0.0138,0.0043
994,0.0037,0.0136,0.0138,0.0043
995,0.0037,0.0136,0.0138,0.0043
996,0.0037,0.0136,0.0138,0.0043
997,0.0037,0.0136,0.0138,0.0043
998,0.0036,0.0207,0.0157,0.0050
999,0.0037,0.0136,0.0138,0.0043
1000,0.0037,0.0136,0.0138,0.0043
1001,0.0033,0.0147,0.0138,0.0045
1002,0.0037,0.0136,0.0138,0.0043
1003,0.0037,0.0136,0.0138,0.0043
1004,0.0037,0.0136,0.0138,0.0043
1005,0.0037,0.0136,0.0138,0.0043
1006,0.0037,0.0136,0.0138,0.0043
1007,0.0037,0.0136,0.0138,0.0043
1008,0.0037,0.0136,0.0138,0.0043
1009,0.0037,0.0136,0.0138,0.0043
1010,0.0039,0.0223,0.0156,0.0051
1011,0.0037,0.0136,0.0138,0.0043
1012,0.0033,0.0147,0.0138,0.0045
1013,0.0037,0.0136,0.0138,0.0043
1014,0.0037,0.0136,0.0138,0.0043
1015,0.0037,0.0136,0.0138,0.0043
1016,0.0037,0.0136,0.0138,0.0043
1017,0.0037,0.0136,0.0138,0.0043
1018,0.0037,0.0136,0.0138,0.0043
1019,0.0037,0.0136,0.0138,0.0043
1020,0.0037,0.0136,0.0138,0.0043
1021,0.0037,0.0136,0.0138,0.0043
1022,0.0043,0.0200,0.0140,0.0054
1023,0.0033,0.0147,0.0138,0.0045
1024,0.0037,0.0136,0.0138,0.0043
1025,0.0037,0.0136,0.0138,0.0043
1026,0.0037,0.0136,0.0138,0.0043
1027,0.0037,0.0136,0.0138,0.0043
1028,0.0037,0.0136,0.0138,0.0043
1029,0.0143,0.0143,0.0209,0.0110
1030,0.0110,0.0130,0.0206,0.0082
1031,0.0083,0.0135,0.0219,0.0064
1032,0.0060,0.0129,0.0211,0.0056
1033,0.0039,0.0223,0.0156,0.0051
1034,0.0036,0.0200,0.0139,0.0053
1035,0.0050,0.0231,0.0175,0.0058
1036,0.0038,0.0118,0.0167,0.0053
1037,0.0035,0.0123,0.0131,0.0051
1038,0.0031,0.0139,0.0133,0.0047
1039,0.0026,0.0143,0.0135,0.0044
1040,0.0025,0.0154,0.0150,0.0043
1041,0.0047,0.0129,0.0140,0.0043
1042,0.0047,0.0147,0.0132,0.0042
1043,0.0040,0.0232,0.0201,0.0045
1044,0.0036,0.0244,0.0204,0.0047
1045,0.0033,0.0147,0.0138,0.0045
1046,0.0036,0.0207,0.0157,0.0050
1047,0.0061,0.0223,0.0185,0.0068
1048,0.0039,0.0223,0.0156,0.0051
1049,0.0043,0.0200,0.0140,0.0054
1050,0.0050,0.0231,0.0175,0.0058
1051,0.0061,0.0223,0.0185,0.0068
1052,0.0076,0.0242,0.0197,0.0089
1053,0.0103,0.0518,0.0492,0.0349
1054,0.0084,0.0426,0.0410,0.0284
1055,0.0081,0.0384,0.0391,0.0231
1056,0.0034,0.0216,0.0189,0.0045
1057,0.0033,0.0147,0.0138,0.0045
1058,0.0034,0.0124,0.0133,0.0042
1059,0.0034,0.0124,0.0133,0.0042
1060,0.0034,0.0124,0.0133,0.0042
1061,0.0042,0.0109,0.0114,0.0042
1062,0.0042,0.0109,0.0114,0.0042
1063,0.0041,0.0152,0.0145,0.0042
1064,0.0036,0.0225,0.0206,0.0044
1065,0.0034,0.0231,0.0202,0.0045
1066,0.0034,0.0210,0.0184,0.0046
1067,0.0036,0.0204,0.0162,0.0048
1068,0.0033,0.0147,0.0138,0.0045
1069,0.0040,0.0198,0.0158,0.0051
1070,0.0046,0.0214,0.0178,0.0056
1071,0.0057,0.0206,0.0180,0.0067
1072,0.0073,0.0233,0.0199,0.0088
1073,0.0041,0.0152,0.0145,0.0042
1074,0.0095,0.0502,0.0488,0.0300
1075,0.0076,0.0389,0.0372,0.0238
1076,0.0073,0.0347,0.0337,0.0197
1077,0.0079,0.0323,0.0323,0.0171
1078,0.0089,0.0333,0.0322,0.0155
1079,0.0033,0.0147,0.0138,0.0045
1080,0.0085,0.0338,0.0335,0.0139
1081,0.0065,0.0296,0.0330,0.0102
1082,0.0042,0.0237,0.0294,0.0071
1083,0.0047,0.0181,0.0233,0.0064
1084,0.0055,0.0210,0.0231,0.0047
1085,0.0036,0.0225,0.0206,0.0044
1086,0.0055,0.0354,0.0412,0.0053
1087,0.0026,0.0467,0.0521,0.0045
1088,0.0031,0.0224,0.0303,0.0050
1089,0.0032,0.0207,0.0261,0.0058
1090,0.0033,0.0147,0.0138,0.0045
1091,0.0032,0.0203,0.0249,0.0071
1092,0.0029,0.0259,0.0318,0.0109
1093,0.0029,0.0404,0.0443,0.0169
1094,0.0033,0.0495,0.0497,0.0215
1095,0.0038,0.0479,0.0438,0.0239
1096,0.0043,0.0379,0.0329,0.0252
1097,0.0034,0.0231,0.0202,0.0045
1098,0.0034,0.0124,0.0133,0.0042
1099,0.0034,0.0124,0.0133,0.0042
1100,0.0034,0.0124,0.0133,0.0042
1101,0.0033,0.0147,0.0138,0.0045
1102,0.0034,0.0124,0.0133,0.0042
1103,0.0034,0.0124,0.0133,0.0042
1104,0.0034,0.0124,0.0133,0.0042
1105,0.0034,0.0124,0.0133,0.0042
1106,0.0034,0.0124,0.0133,0.0042
1107,0.0034,0.0124,0.0133,0.0042
1108,0.0034,0.0124,0.0133,0.0042
1109,0.0034,0.0210,0.0184,0.0046
1110,0.0034,0.0124,0.0133,0.0042
1111,0.0034,0.0124,0.0133,0.0042
1112,0.0033,0.0147,0.0138,0.0045
1113,0.0034,0.0124,0.0133,0.0042
1114,0.0034,0.0124,0.0133,0.0042
1115,0.0034,0.0124,0.0133,0.0042
1116,0.0034,0.0124,0.0133,0.0042
1117,0.0034,0.0124,0.0133,0.0042
1118,0.0034,0.0124,0.0133,0.0042
1119,0.0034,0.0124,0.0133,0.0042
1120,0.0034,0.0124,0.0133,0.0042
1121,0.0036,0.0204,0.0162,0.0048
1122,0.0034,0.0124,0.0133,0.0042
1123,0.0033,0.0147,0.0138,0.0045
1124,0.0034,0.0124,0.0133,0.0042
1125,0.0034,0.0124,0.0133,0.0042
1126,0.0034,0.0124,0.0133,0.0042
1127,0.0034,0.0124,0.0133,0.0042
1128,0.0034,0.0124,0.0133,0.0042
1129,0.0034,0.0124,0.0133,0.0042
1130,0.0034,0.0124,0.0133,0.0042
1131,0.0034,0.0124,0.0133,0.0042
1132,0.0034,0.0124,0.0133,0.0042
1133,0.0040,0.0198,0.0158,0.0051
1134,0.0033,0.0147,0.0138,0.0045
1135,0.0034,0.0124,0.0133,0.0042
1136,0.0034,0.0124,0.0133,0.0042
1137,0.0034,0.0124,0.0133,0.0042
1138,0.0034,0.0124,0.0133,0.0042
1139,0.0034,0.0124,0.0133,0.0042
1140,0.0141,0.0142,0.0183,0.0106
1141,0.0108,0.0123,0.0159,0.0077
1142,0.0081,0.0121,0.0162,0.0060
1143,0.0060,0.0117,0.0156,0.0053
1144,0.0036,0.0204,0.0162,0.0048
1145,0.0033,0.0147,0.0138,0.0045
1146,0.0046,0.0214,0.0178,0.0056
1147,0.0040,0.0110,0.0132,0.0052
1148,0.0037,0.0117,0.0117,0.0050
1149,0.0033,0.0125,0.0129,0.0046
1150,0.0026,0.0136,0.0136,0.0044
1151,0.0023,0.0151,0.0158,0.0042
1152,0.0042,0.0109,0.0114,0.0042
1153,0.0041,0.0152,0.0145,0.0042
1154,0.0036,0.0225,0.0206,0.0044
1155,0.0034,0.0231,0.0202,0.0045
1156,0.0039,0.0193,0.0136,0.0056
1157,0.0034,0.0210,0.0184,0.0046
1158,0.0057,0.0206,0.0180,0.0067
1159,0.0036,0.0204,0.0162,0.0048
1160,0.0040,0.0198,0.0158,0.0051
1161,0.0046,0.0214,0.0178,0.0056
1162,0.0057,0.0206,0.0180,0.0067
1163,0.0073,0.0233,0.0199,0.0088
1164,0.0095,0.0502,0.0488,0.0300
1165,0.0076,0.0389,0.0372,0.0238
1166,0.0073,0.0347,0.0337,0.0197
1167,0.0032,0.0226,0.0188,0.0047
1168,0.0033,0.0147,0.0138,0.0045
1169,0.0029,0.0108,0.0124,0.0042
1170,0.0029,0.0108,0.0124,0.0042
1171,0.0029,0.0108,0.0124,0.0042
1172,0.0036,0.0097,0.0109,0.0042
1173,0.0036,0.0097,0.0109,0.0042
1174,0.0034,0.0131,0.0135,0.0042
1175,0.0032,0.0174,0.0168,0.0042
1176,0.0031,0.0200,0.0208,0.0043
1177,0.0032,0.0152,0.0158,0.0044
1178,0.0034,0.0162,0.0153,0.0046
1179,0.0033,0.0147,0.0138,0.0045
1180,0.0037,0.0157,0.0151,0.0050
1181,0.0041,0.0148,0.0140,0.0055
1182,0.0051,0.0189,0.0183,0.0067
1183,0.0066,0.0244,0.0208,0.0089
1184,0.0034,0.0131,0.0135,0.0042
1185,0.0079,0.0578,0.0572,0.0316
1186,0.0060,0.0422,0.0402,0.0248
1187,0.0057,0.0365,0.0338,0.0217
1188,0.0065,0.0366,0.0339,0.0205
1189,0.0073,0.0383,0.0367,0.0197
1190,0.0033,0.0147,0.0138,0.0045
1191,0.0070,0.0398,0.0406,0.0179
1192,0.0053,0.0352,0.0399,0.0132
1193,0.0041,0.0266,0.0339,0.0079
1194,0.0061,0.0167,0.0231,0.0060
1195,0.0068,0.0226,0.0269,0.0048
1196,0.0032,0.0174,0.0168,0.0042
1197,0.0056,0.0303,0.0381,0.0054
1198,0.0026,0.0378,0.0370,0.0044
1199,0.0028,0.0157,0.0190,0.0054
1200,0.0028,0.0211,0.0235,0.0064
1201,0.0033,0.0147,0.0138,0.0045
1202,0.0027,0.0183,0.0197,0.0064
1203,0.0027,0.0168,0.0192,0.0073
1204,0.0028,0.0256,0.0276,0.0097
1205,0.0030,0.0336,0.0331,0.0116
1206,0.0032,0.0307,0.0279,0.0118
1207,0.0033,0.0267,0.0288,0.0159
1208,0.0031,0.0200,0.0208,0.0043
1209,0.0029,0.0108,0.0124,0.0042
1210,0.0029,0.0108,0.0124,0.0042
1211,0.0029,0.0108,0.0124,0.0042
1212,0.0033,0.0147,0.0138,0.0045
1213,0.0029,0.0108,0.0124,0.0042
1214,0.0029,0.0108,0.0124,0.0042
1215,0.0029,0.0108,0.0124,0.0042
1216,0.0029,0.0108,0.0124,0.0042
1217,0.0029,0.0108,0.0124,0.0042
1218,0.0029,0.0108,0.0124,0.0042
1219,0.0029,0.0108,0.0124,0.0042
1220,0.0032,0.0152,0.0158,0.0044
1221,0.0029,0.0108,0.0124,0.0042
1222,0.0029,0.0108,0.0124,0.0042
1223,0.0154,0.0161,0.0201,0.0120
1224,0.0029,0.0108,0.0124,0.0042
1225,0.0029,0.0108,0.0124,0.0042
1226,0.0029,0.0108,0.0124,0.0042
1227,0.0029,0.0108,0.0124,0.0042
1228,0.0029,0.0108,0.0124,0.0042
1229,0.0029,0.0108,0.0124,0.0042
1230,0.0029,0.0108,0.0124,0.0042
1231,0.0029,0.0108,0.0124,0.0042
1232,0.0034,0.0162,0.0153,0.0046
1233,0.0029,0.0108,0.0124,0.0042
1234,0.0119,0.0132,0.0185,0.0090
1235,0.0029,0.0108,0.0124,0.0042
1236,0.0029,0.0108,0.0124,0.0042
1237,0.0029,0.0108,0.0124,0.0042
1238,0.0029,0.0108,0.0124,0.0042
1239,0.0029,0.0108,0.0124,0.0042
1240,0.0029,0.0108,0.0124,0.0042
1241,0.0029,0.0108,0.0124,0.0042
1242,0.0029,0.0108,0.0124,0.0042
1243,0.0029,0.0108,0.0124,0.0042
1244,0.0037,0.0157,0.0151,0.0050
1245,0.0089,0.0128,0.0199,0.0070
1246,0.0029,0.0108,0.0124,0.0042
1247,0.0029,0.0108,0.0124,0.0042
1248,0.0029,0.0108,0.0124,0.0042
1249,0.0029,0.0108,0.0124,0.0042
1250,0.0029,0.0108,0.0124,0.0042
1251,0.0138,0.0149,0.0231,0.0095
1252,0.0106,0.0116,0.0156,0.0067
1253,0.0080,0.0106,0.0128,0.0051
1254,0.0061,0.0103,0.0110,0.0047
1255,0.0034,0.0162,0.0153,0.0046
1256,0.0064,0.0124,0.0196,0.0059
1257,0.0041,0.0148,0.0140,0.0055
1258,0.0046,0.0104,0.0117,0.0053
1259,0.0043,0.0113,0.0129,0.0052
1260,0.0038,0.0133,0.0152,0.0048
1261,0.0028,0.0127,0.0146,0.0044
1262,0.0021,0.0131,0.0153,0.0042
1263,0.0036,0.0097,0.0109,0.0042
1264,0.0034,0.0131,0.0135,0.0042
1265,0.0032,0.0174,0.0168,0.0042
1266,0.0031,0.0200,0.0208,0.0043
1267,0.0036,0.0200,0.0139,0.0053
1268,0.0032,0.0152,0.0158,0.0044
1269,0.0051,0.0189,0.0183,0.0067
1270,0.0034,0.0162,0.0153,0.0046
1271,0.0037,0.0157,0.0151,0.0050
1272,0.0041,0.0148,0.0140,0.0055
1273,0.0051,0.0189,0.0183,0.0067
1274,0.0066,0.0244,0.0208,0.0089
1275,0.0079,0.0578,0.0572,0.0316
1276,0.0060,0.0422,0.0402,0.0248
1277,0.0057,0.0365,0.0338,0.0217
1278,0.0034,0.0181,0.0131,0.0050
1279,0.0044,0.0223,0.0171,0.0059
1280,0.0027,0.0117,0.0139,0.0042
1281,0.0027,0.0117,0.0139,0.0042
1282,0.0027,0.0117,0.0139,0.0042
1283,0.0033,0.0098,0.0114,0.0042
1284,0.0033,0.0098,0.0114,0.0042
1285,0.0031,0.0117,0.0124,0.0042
1286,0.0031,0.0144,0.0137,0.0042
1287,0.0030,0.0147,0.0158,0.0044
1288,0.0032,0.0105,0.0130,0.0045
1289,0.0034,0.0109,0.0122,0.0048
1290,0.0038,0.0117,0.0161,0.0053
1291,0.0036,0.0118,0.0124,0.0051
1292,0.0039,0.0140,0.0143,0.0058
1293,0.0048,0.0191,0.0182,0.0069
1294,0.0061,0.0246,0.0196,0.0091
1295,0.0031,0.0117,0.0124,0.0042
1296,0.0070,0.0719,0.0701,0.0412
1297,0.0051,0.0532,0.0516,0.0331
1298,0.0049,0.0466,0.0447,0.0290
1299,0.0058,0.0475,0.0461,0.0275
1300,0.0065,0.0485,0.0492,0.0254
1301,0.0035,0.0128,0.0128,0.0050
1302,0.0061,0.0477,0.0523,0.0224
1303,0.0049,0.0428,0.0516,0.0168
1304,0.0047,0.0346,0.0458,0.0103
1305,0.0070,0.0235,0.0341,0.0076
1306,0.0079,0.0273,0.0345,0.0051
1307,0.0031,0.0144,0.0137,0.0042
1308,0.0056,0.0297,0.0389,0.0054
1309,0.0028,0.0300,0.0270,0.0045
1310,0.0033,0.0187,0.0246,0.0062
1311,0.0032,0.0278,0.0331,0.0078
1312,0.0032,0.0147,0.0130,0.0047
1313,0.0027,0.0251,0.0289,0.0082
1314,0.0027,0.0181,0.0213,0.0081
1315,0.0029,0.0183,0.0210,0.0081
1316,0.0031,0.0234,0.0245,0.0086
1317,0.0032,0.0227,0.0231,0.0108
1318,0.0031,0.0305,0.0360,0.0202
1319,0.0030,0.0147,0.0158,0.0044
1320,0.0027,0.0117,0.0139,0.0042
1321,0.0027,0.0117,0.0139,0.0042
1322,0.0027,0.0117,0.0139,0.0042
1323,0.0026,0.0150,0.0132,0.0044
1324,0.0027,0.0117,0.0139,0.0042
1325,0.0027,0.0117,0.0139,0.0042
1326,0.0027,0.0117,0.0139,0.0042
1327,0.0027,0.0117,0.0139,0.0042
1328,0.0027,0.0117,0.0139,0.0042
1329,0.0027,0.0117,0.0139,0.0042
1330,0.0027,0.0117,0.0139,0.0042
1331,0.0032,0.0105,0.0130,0.0045
1332,0.0027,0.0117,0.0139,0.0042
1333,0.0027,0.0117,0.0139,0.0042
1334,0.0024,0.0160,0.0145,0.0044
1335,0.0027,0.0117,0.0139,0.0042
1336,0.0027,0.0117,0.0139,0.0042
1337,0.0027,0.0117,0.0139,0.0042
1338,0.0027,0.0117,0.0139,0.0042
1339,0.0027,0.0117,0.0139,0.0042
1340,0.0027,0.0117,0.0139,0.0042
1341,0.0027,0.0117,0.0139,0.0042
1342,0.0027,0.0117,0.0139,0.0042
1343,0.0034,0.0109,0.0122,0.0048
1344,0.0027,0.0117,0.0139,0.0042
1345,0.0042,0.0142,0.0144,0.0044
1346,0.0027,0.0117,0.0139,0.0042
1347,0.0027,0.0117,0.0139,0.0042
1348,0.0027,0.0117,0.0139,0.0042
1349,0.0027,0.0117,0.0139,0.0042
1350,0.0027,0.0117,0.0139,0.0042
1351,0.0027,0.0117,0.0139,0.0042
1352,0.0027,0.0117,0.0139,0.0042
1353,0.0027,0.0117,0.0139,0.0042
1354,0.0027,0.0117,0.0139,0.0042
1355,0.0036,0.0118,0.0124,0.0051
1356,0.0041,0.0146,0.0138,0.0043
1357,0.0027,0.0117,0.0139,0.0042
1358,0.0027,0.0117,0.0139,0.0042
1359,0.0027,0.0117,0.0139,0.0042
1360,0.0027,0.0117,0.0139,0.0042
1361,0.0027,0.0117,0.0139,0.0042
1362,0.0137,0.0179,0.0337,0.0086
1363,0.0105,0.0122,0.0239,0.0058
1364,0.0081,0.0111,0.0200,0.0045
1365,0.0063,0.0096,0.0154,0.0047
1366,0.0034,0.0109,0.0122,0.0048
1367,0.0034,0.0216,0.0189,0.0045
1368,0.0039,0.0140,0.0143,0.0058
1369,0.0050,0.0112,0.0162,0.0057
1370,0.0048,0.0132,0.0180,0.0056
1371,0.0041,0.0155,0.0205,0.0051
1372,0.0030,0.0150,0.0191,0.0046
1373,0.0021,0.0142,0.0177,0.0042
1374,0.0033,0.0098,0.0114,0.0042
1375,0.0031,0.0117,0.0124,0.0042
1376,0.0031,0.0144,0.0137,0.0042
1377,0.0030,0.0147,0.0158,0.0044
1378,0.0032,0.0226,0.0188,0.0047
1379,0.0032,0.0105,0.0130,0.0045
1380,0.0048,0.0191,0.0182,0.0069
1381,0.0034,0.0109,0.0122,0.0048
1382,0.0036,0.0118,0.0124,0.0051
1383,0.0039,0.0140,0.0143,0.0058
1384,0.0048,0.0191,0.0182,0.0069
1385,0.0061,0.0246,0.0196,0.0091
1386,0.0070,0.0719,0.0701,0.0412
1387,0.0051,0.0532,0.0516,0.0331
1388,0.0049,0.0466,0.0447,0.0290
1389,0.0036,0.0200,0.0139,0.0053
1390,0.0034,0.0181,0.0131,0.0050
1391,0.0027,0.0120,0.0146,0.0042
1392,0.0027,0.0120,0.0146,0.0042
1393,0.0027,0.0120,0.0146,0.0042
1394,0.0032,0.0101,0.0114,0.0042
1395,0.0032,0.0101,0.0114,0.0042
1396,0.0030,0.0129,0.0135,0.0042
1397,0.0031,0.0152,0.0138,0.0043
1398,0.0030,0.0135,0.0133,0.0045
1399,0.0032,0.0098,0.0129,0.0047
1400,0.0034,0.0090,0.0100,0.0049
1401,0.0053,0.0222,0.0185,0.0065
1402,0.0036,0.0113,0.0122,0.0053
1403,0.0039,0.0141,0.0143,0.0059
1404,0.0047,0.0191,0.0172,0.0070
1405,0.0060,0.0256,0.0196,0.0092
1406,0.0030,0.0129,0.0135,0.0042
1407,0.0067,0.0786,0.0764,0.0461
1408,0.0049,0.0599,0.0585,0.0376
1409,0.0046,0.0533,0.0515,0.0327
1410,0.0055,0.0531,0.0529,0.0307
1411,0.0063,0.0539,0.0558,0.0280
1412,0.0036,0.0200,0.0139,0.0053
1413,0.0059,0.0513,0.0574,0.0241
1414,0.0048,0.0468,0.0573,0.0182
1415,0.0050,0.0380,0.0512,0.0115
1416,0.0075,0.0261,0.0384,0.0083
1417,0.0081,0.0310,0.0397,0.0054
1418,0.0031,0.0152,0.0138,0.0043
1419,0.0055,0.0323,0.0430,0.0053
1420,0.0029,0.0282,0.0257,0.0045
1421,0.0036,0.0218,0.0299,0.0066
1422,0.0034,0.0320,0.0389,0.0086
1423,0.0039,0.0193,0.0136,0.0056
1424,0.0027,0.0290,0.0342,0.0093
1425,0.0026,0.0218,0.0257,0.0095
1426,0.0029,0.0191,0.0226,0.0097
1427,0.0032,0.0218,0.0240,0.0103
1428,0.0034,0.0219,0.0238,0.0134
1429,0.0033,0.0353,0.0409,0.0243
1430,0.0030,0.0135,0.0133,0.0045
1431,0.0027,0.0120,0.0146,0.0042
1432,0.0027,0.0120,0.0146,0.0042
1433,0.0027,0.0120,0.0146,0.0042
1434,0.0044,0.0223,0.0171,0.0059
1435,0.0027,0.0120,0.0146,0.0042
1436,0.0027,0.0120,0.0146,0.0042
1437,0.0027,0.0120,0.0146,0.0042
1438,0.0027,0.0120,0.0146,0.0042
1439,0.0027,0.0120,0.0146,0.0042
1440,0.0027,0.0120,0.0146,0.0042
1441,0.0027,0.0120,0.0146,0.0042
1442,0.0032,0.0098,0.0129,0.0047
1443,0.0027,0.0120,0.0146,0.0042
1444,0.0027,0.0120,0.0146,0.0042
1445,0.0053,0.0222,0.0185,0.0065
1446,0.0027,0.0120,0.0146,0.0042
1447,0.0027,0.0120,0.0146,0.0042
1448,0.0027,0.0120,0.0146,0.0042
1449,0.0027,0.0120,0.0146,0.0042
1450,0.0027,0.0120,0.0146,0.0042
1451,0.0027,0.0120,0.0146,0.0042
1452,0.0027,0.0120,0.0146,0.0042
1453,0.0027,0.0120,0.0146,0.0042
1454,0.0034,0.0090,0.0100,0.0049
1455,0.0027,0.0120,0.0146,0.0042
1456,0.0067,0.0242,0.0197,0.0080
1457,0.0027,0.0120,0.0146,0.0042
1458,0.0027,0.0120,0.0146,0.0042
1459,0.0027,0.0120,0.0146,0.0042
1460,0.0027,0.0120,0.0146,0.0042
1461,0.0027,0.0120,0.0146,0.0042
1462,0.0027,0.0120,0.0146,0.0042
1463,0.0027,0.0120,0.0146,0.0042
1464,0.0027,0.0120,0.0146,0.0042
1465,0.0027,0.0120,0.0146,0.0042
1466,0.0036,0.0113,0.0122,0.0053
1467,0.0091,0.0484,0.0453,0.0345
1468,0.0027,0.0120,0.0146,0.0042
1469,0.0027,0.0120,0.0146,0.0042
1470,0.0027,0.0120,0.0146,0.0042
1471,0.0027,0.0120,0.0146,0.0042
1472,0.0027,0.0120,0.0146,0.0042
1473,0.0136,0.0188,0.0384,0.0082
1474,0.0105,0.0140,0.0299,0.0055
1475,0.0081,0.0123,0.0248,0.0044
1476,0.0063,0.0105,0.0205,0.0048
1477,0.0034,0.0090,0.0100,0.0049
1478,0.0074,0.0413,0.0400,0.0285
1479,0.0039,0.0141,0.0143,0.0059
1480,0.0051,0.0121,0.0194,0.0059
1481,0.0050,0.0129,0.0185,0.0059
1482,0.0043,0.0141,0.0196,0.0053
1483,0.0031,0.0140,0.0183,0.0047
1484,0.0021,0.0145,0.0184,0.0042
1485,0.0032,0.0101,0.0114,0.0042
1486,0.0030,0.0129,0.0135,0.0042
1487,0.0031,0.0152,0.0138,0.0043
1488,0.0030,0.0135,0.0133,0.0045
1489,0.0073,0.0373,0.0390,0.0230
1490,0.0032,0.0098,0.0129,0.0047
1491,0.0047,0.0191,0.0172,0.0070
1492,0.0034,0.0090,0.0100,0.0049
1493,0.0036,0.0113,0.0122,0.0053
1494,0.0039,0.0141,0.0143,0.0059
1495,0.0047,0.0191,0.0172,0.0070
1496,0.0060,0.0256,0.0196,0.0092
1497,0.0067,0.0786,0.0764,0.0461
1498,0.0049,0.0599,0.0585,0.0376
1499,0.0046,0.0533,0.0515,0.0327
1500,0.0048,0.0141,0.0128,0.0037
1501,0.0048,0.0141,0.0128,0.0037
1502,0.0072,0.0241,0.0150,0.0076
1503,0.0125,0.0392,0.0453,0.0488
1504,0.0033,0.0124,0.0152,0.0038
1505,0.0035,0.0116,0.0137,0.0036
1506,0.0033,0.0124,0.0152,0.0038
1507,0.0046,0.0080,0.0087,0.0046
1508,0.0033,0.0149,0.0177,0.0040
1509,0.0033,0.0124,0.0152,0.0038
1510,0.0033,0.0124,0.0152,0.0038
1511,0.0035,0.0116,0.0137,0.0036
1512,0.0033,0.0124,0.0152,0.0038
1513,0.0033,0.0149,0.0177,0.0040
1514,0.0098,0.0312,0.0416,0.0408
1515,0.0035,0.0116,0.0137,0.0036
1516,0.0033,0.0124,0.0152,0.0038
1517,0.0033,0.0124,0.0152,0.0038
1518,0.0035,0.0116,0.0137,0.0036
1519,0.0049,0.0109,0.0113,0.0052
1520,0.0033,0.0124,0.0152,0.0038
1521,0.0035,0.0116,0.0137,0.0036
1522,0.0033,0.0124,0.0152,0.0038
1523,0.0033,0.0124,0.0152,0.0038
1524,0.0033,0.0149,0.0177,0.0040
1525,0.0078,0.0279,0.0421,0.0350
1526,0.0160,0.0207,0.0391,0.0079
1527,0.0126,0.0153,0.0303,0.0053
1528,0.0101,0.0125,0.0229,0.0040
1529,0.0074,0.0117,0.0199,0.0048
1530,0.0046,0.0101,0.0104,0.0048
1531,0.0055,0.0146,0.0149,0.0055
1532,0.0054,0.0133,0.0187,0.0058
1533,0.0051,0.0150,0.0190,0.0056
1534,0.0045,0.0135,0.0172,0.0048
1535,0.0037,0.0185,0.0232,0.0045
1536,0.0064,0.0299,0.0468,0.0309
1537,0.0029,0.0139,0.0174,0.0039
1538,0.0038,0.0101,0.0114,0.0037
1539,0.0036,0.0151,0.0156,0.0039
1540,0.0039,0.0214,0.0206,0.0040
1541,0.0040,0.0247,0.0242,0.0044
1542,0.0043,0.0102,0.0113,0.0044
1543,0.0061,0.0178,0.0161,0.0064
1544,0.0046,0.0106,0.0110,0.0045
1545,0.0048,0.0101,0.0105,0.0049
1546,0.0052,0.0153,0.0151,0.0059
1547,0.0058,0.0354,0.0543,0.0294
1548,0.0064,0.0188,0.0176,0.0061
1549,0.0074,0.0274,0.0226,0.0080
1550,0.0067,0.0718,0.0696,0.0416
1551,0.0057,0.0457,0.0445,0.0283
1552,0.0062,0.0563,0.0547,0.0330
1553,0.0069,0.0466,0.0529,0.0271
1554,0.0076,0.0374,0.0455,0.0308
1555,0.0069,0.0338,0.0432,0.0367
1556,0.0055,0.0298,0.0376,0.0375
1557,0.0046,0.0270,0.0333,0.0372
1558,0.0046,0.0124,0.0120,0.0036
1559,0.0032,0.0173,0.0172,0.0047
1560,0.0032,0.0173,0.0172,0.0047
1561,0.0033,0.0147,0.0138,0.0045
1562,0.0041,0.0173,0.0178,0.0047
1563,0.0041,0.0207,0.0212,0.0049
1564,0.0041,0.0147,0.0137,0.0043
1565,0.0033,0.0272,0.0252,0.0046
1566,0.0031,0.0252,0.0216,0.0048
1567,0.0034,0.0183,0.0134,0.0050
1568,0.0037,0.0213,0.0153,0.0054
1569,0.0046,0.0124,0.0120,0.0036
1570,0.0039,0.0185,0.0126,0.0056
1571,0.0044,0.0222,0.0170,0.0059
1572,0.0049,0.0223,0.0180,0.0071
1573,0.0062,0.0271,0.0220,0.0091
1574,0.0040,0.0217,0.0211,0.0047
1575,0.0094,0.0569,0.0541,0.0374
1576,0.0077,0.0473,0.0453,0.0303
1577,0.0073,0.0372,0.0389,0.0229
1578,0.0081,0.0391,0.0400,0.0199
1579,0.0088,0.0463,0.0458,0.0197
1580,0.0046,0.0124,0.0120,0.0036
1581,0.0090,0.0314,0.0325,0.0121
1582,0.0066,0.0350,0.0386,0.0110
1583,0.0043,0.0282,0.0348,0.0087
1584,0.0044,0.0211,0.0282,0.0077
1585,0.0066,0.0318,0.0342,0.0054
1586,0.0033,0.0272,0.0252,0.0046
1587,0.0057,0.0391,0.0426,0.0053
1588,0.0026,0.0485,0.0580,0.0048
1589,0.0034,0.0275,0.0391,0.0054
1590,0.0037,0.0303,0.0375,0.0071
1591,0.0051,0.0122,0.0123,0.0036
1592,0.0031,0.0266,0.0338,0.0083
1593,0.0027,0.0319,0.0400,0.0130
1594,0.0032,0.0489,0.0560,0.0213
1595,0.0045,0.0535,0.0557,0.0259
1596,0.0059,0.0510,0.0478,0.0301
1597,0.0063,0.0468,0.0403,0.0327
1598,0.0031,0.0252,0.0216,0.0048
1599,0.0032,0.0173,0.0172,0.0047
1600,0.0033,0.0147,0.0138,0.0045
1601,0.0032,0.0198,0.0196,0.0049
1602,0.0050,0.0148,0.0154,0.0038
1603,0.0032,0.0173,0.0172,0.0047
1604,0.0033,0.0147,0.0138,0.0045
1605,0.0032,0.0173,0.0172,0.0047
1606,0.0032,0.0173,0.0172,0.0047
1607,0.0032,0.0198,0.0196,0.0049
1608,0.0032,0.0173,0.0172,0.0047
1609,0.0032,0.0173,0.0172,0.0047
1610,0.0034,0.0183,0.0134,0.0050
1611,0.0032,0.0173,0.0172,0.0047
1612,0.0032,0.0198,0.0196,0.0049
1613,0.0083,0.0264,0.0177,0.0085
1614,0.0051,0.0165,0.0163,0.0038
1615,0.0033,0.0147,0.0138,0.0045
1616,0.0032,0.0173,0.0172,0.0047
1617,0.0032,0.0173,0.0172,0.0047
1618,0.0033,0.0147,0.0138,0.0045
1619,0.0032,0.0198,0.0196,0.0049
1620,0.0032,0.0173,0.0172,0.0047
1621,0.0033,0.0147,0.0138,0.0045
1622,0.0032,0.0173,0.0172,0.0047
1623,0.0036,0.0194,0.0132,0.0053
1624,0.0032,0.0198,0.0196,0.0049
1625,0.0051,0.0248,0.0237,0.0043
1626,0.0032,0.0173,0.0172,0.0047
1627,0.0032,0.0173,0.0172,0.0047
1628,0.0033,0.0147,0.0138,0.0045
1629,0.0032,0.0173,0.0172,0.0047
1630,0.0032,0.0198,0.0196,0.0049
1631,0.0033,0.0147,0.0138,0.0045
1632,0.0032,0.0173,0.0172,0.0047
1633,0.0032,0.0173,0.0172,0.0047
1634,0.0033,0.0147,0.0138,0.0045
1635,0.0039,0.0199,0.0142,0.0059
1636,0.0054,0.0245,0.0220,0.0048
1637,0.0032,0.0173,0.0172,0.0047
1638,0.0033,0.0147,0.0138,0.0045
1639,0.0032,0.0173,0.0172,0.0047
1640,0.0032,0.0173,0.0172,0.0047
1641,0.0032,0.0198,0.0196,0.0049
1642,0.0150,0.0191,0.0253,0.0122
1643,0.0115,0.0153,0.0216,0.0093
1644,0.0089,0.0129,0.0200,0.0070
1645,0.0061,0.0137,0.0199,0.0062
1646,0.0037,0.0213,0.0153,0.0054
1647,0.0059,0.0211,0.0167,0.0053
1648,0.0044,0.0222,0.0170,0.0059
1649,0.0039,0.0136,0.0168,0.0056
1650,0.0036,0.0159,0.0158,0.0053
1651,0.0031,0.0144,0.0128,0.0047
1652,0.0028,0.0217,0.0221,0.0048
1653,0.0023,0.0177,0.0164,0.0046
1654,0.0042,0.0142,0.0145,0.0044
1655,0.0040,0.0178,0.0167,0.0045
1656,0.0033,0.0272,0.0252,0.0046
1657,0.0032,0.0312,0.0284,0.0050
1658,0.0063,0.0207,0.0147,0.0057
1659,0.0034,0.0191,0.0136,0.0051
1660,0.0049,0.0223,0.0180,0.0071
1661,0.0036,0.0202,0.0140,0.0053
1662,0.0039,0.0185,0.0126,0.0056
1663,0.0041,0.0242,0.0188,0.0065
1664,0.0052,0.0224,0.0185,0.0065
1665,0.0062,0.0271,0.0220,0.0091
1666,0.0094,0.0569,0.0541,0.0374
1667,0.0074,0.0413,0.0400,0.0285
1668,0.0076,0.0491,0.0483,0.0269
1669,0.0071,0.0225,0.0156,0.0072
1670,0.0093,0.0469,0.0542,0.0499
1671,0.0072,0.0387,0.0468,0.0416
1672,0.0055,0.0324,0.0413,0.0351
1673,0.0043,0.0290,0.0394,0.0309
1674,0.0038,0.0283,0.0413,0.0289
1675,0.0029,0.0159,0.0165,0.0046
1676,0.0029,0.0159,0.0165,0.0046
1677,0.0030,0.0132,0.0131,0.0044
1678,0.0036,0.0150,0.0152,0.0046
1679,0.0036,0.0183,0.0186,0.0048
1680,0.0081,0.0246,0.0179,0.0080
1681,0.0035,0.0149,0.0145,0.0042
1682,0.0030,0.0270,0.0258,0.0045
1683,0.0030,0.0241,0.0212,0.0047
1684,0.0033,0.0183,0.0158,0.0047
1685,0.0037,0.0197,0.0156,0.0052
1686,0.0038,0.0179,0.0139,0.0053
1687,0.0041,0.0208,0.0174,0.0056
1688,0.0046,0.0203,0.0171,0.0069
1689,0.0059,0.0269,0.0226,0.0089
1690,0.0034,0.0214,0.0211,0.0047
1691,0.0095,0.0222,0.0178,0.0087
1692,0.0085,0.0555,0.0538,0.0328
1693,0.0068,0.0441,0.0420,0.0259
1694,0.0064,0.0325,0.0324,0.0184
1695,0.0071,0.0373,0.0365,0.0183
1696,0.0079,0.0468,0.0453,0.0203
1697,0.0081,0.0316,0.0306,0.0120
1698,0.0058,0.0347,0.0378,0.0110
1699,0.0040,0.0274,0.0329,0.0077
1700,0.0048,0.0178,0.0226,0.0064
1701,0.0073,0.0315,0.0340,0.0053
1702,0.0114,0.0238,0.0222,0.0093
1703,0.0030,0.0270,0.0258,0.0045
1704,0.0058,0.0353,0.0396,0.0053
1705,0.0026,0.0435,0.0498,0.0047
1706,0.0031,0.0228,0.0311,0.0054
1707,0.0035,0.0288,0.0338,0.0071
1708,0.0029,0.0231,0.0271,0.0073
1709,0.0027,0.0259,0.0315,0.0104
1710,0.0032,0.0417,0.0473,0.0175
1711,0.0042,0.0455,0.0467,0.0207
1712,0.0054,0.0424,0.0397,0.0243
1713,0.0051,0.0193,0.0195,0.0038
1714,0.0056,0.0377,0.0327,0.0251
1715,0.0030,0.0241,0.0212,0.0047
1716,0.0029,0.0159,0.0165,0.0046
1717,0.0030,0.0132,0.0131,0.0044
1718,0.0029,0.0185,0.0191,0.0048
1719,0.0029,0.0159,0.0165,0.0046
1720,0.0030,0.0132,0.0131,0.0044
1721,0.0029,0.0159,0.0165,0.0046
1722,0.0029,0.0159,0.0165,0.0046
1723,0.0029,0.0185,0.0191,0.0048
1724,0.0097,0.0243,0.0183,0.0091
1725,0.0109,0.0374,0.0336,0.0269
1726,0.0029,0.0159,0.0165,0.0046
1727,0.0029,0.0159,0.0165,0.0046
1728,0.0033,0.0183,0.0158,0.0047
1729,0.0029,0.0159,0.0165,0.0046
1730,0.0029,0.0185,0.0191,0.0048
1731,0.0030,0.0132,0.0131,0.0044
1732,0.0029,0.0159,0.0165,0.0046
1733,0.0029,0.0159,0.0165,0.0046
1734,0.0030,0.0132,0.0131,0.0044
1735,0.0029,0.0185,0.0191,0.0048
1736,0.0112,0.0375,0.0369,0.0248
1737,0.0029,0.0159,0.0165,0.0046
1738,0.0030,0.0132,0.0131,0.0044
1739,0.0029,0.0159,0.0165,0.0046
1740,0.0036,0.0177,0.0139,0.0050
1741,0.0029,0.0185,0.0191,0.0048
1742,0.0029,0.0159,0.0165,0.0046
1743,0.0029,0.0159,0.0165,0.0046
1744,0.0030,0.0132,0.0131,0.0044
1745,0.0029,0.0159,0.0165,0.0046
1746,0.0029,0.0185,0.0191,0.0048
1747,0.0129,0.0349,0.0385,0.0215
1748,0.0030,0.0132,0.0131,0.0044
1749,0.0029,0.0159,0.0165,0.0046
1750,0.0029,0.0159,0.0165,0.0046
1751,0.0030,0.0132,0.0131,0.0044
1752,0.0039,0.0190,0.0150,0.0056
1753,0.0029,0.0159,0.0165,0.0046
1754,0.0030,0.0132,0.0131,0.0044
1755,0.0029,0.0159,0.0165,0.0046
1756,0.0029,0.0159,0.0165,0.0046
1757,0.0029,0.0185,0.0191,0.0048
1758,0.0147,0.0311,0.0361,0.0177
1759,0.0147,0.0198,0.0260,0.0118
1760,0.0113,0.0148,0.0195,0.0087
1761,0.0087,0.0118,0.0151,0.0065
1762,0.0060,0.0127,0.0159,0.0059
1763,0.0037,0.0197,0.0156,0.0052
1764,0.0041,0.0208,0.0174,0.0056
1765,0.0041,0.0132,0.0145,0.0055
1766,0.0038,0.0155,0.0153,0.0052
1767,0.0033,0.0130,0.0123,0.0046
1768,0.0028,0.0208,0.0221,0.0047
1769,0.0157,0.0317,0.0320,0.0137
1770,0.0021,0.0175,0.0174,0.0045
1771,0.0037,0.0116,0.0116,0.0043
1772,0.0034,0.0176,0.0170,0.0045
1773,0.0030,0.0270,0.0258,0.0045
1774,0.0030,0.0304,0.0281,0.0048
1775,0.0033,0.0194,0.0161,0.0048
1776,0.0046,0.0203,0.0171,0.0069
1777,0.0035,0.0184,0.0146,0.0049
1778,0.0038,0.0179,0.0139,0.0053
1779,0.0040,0.0222,0.0186,0.0063
1780,0.0161,0.0272,0.0293,0.0129
1781,0.0049,0.0207,0.0181,0.0062
1782,0.0059,0.0269,0.0226,0.0089
1783,0.0085,0.0555,0.0538,0.0328
1784,0.0066,0.0360,0.0344,0.0225
1785,0.0067,0.0475,0.0457,0.0250
1786,0.0088,0.0473,0.0526,0.0423
1787,0.0072,0.0389,0.0445,0.0350
1788,0.0055,0.0321,0.0374,0.0295
1789,0.0043,0.0277,0.0334,0.0266
1790,0.0038,0.0254,0.0333,0.0252
1791,0.0148,0.0250,0.0288,0.0114
1792,0.0024,0.0142,0.0157,0.0045
1793,0.0024,0.0142,0.0157,0.0045
1794,0.0026,0.0117,0.0122,0.0043
1795,0.0030,0.0137,0.0144,0.0045
1796,0.0030,0.0172,0.0179,0.0047
1797,0.0029,0.0136,0.0139,0.0042
1798,0.0027,0.0244,0.0238,0.0044
1799,0.0030,0.0223,0.0223,0.0045
1800,0.0034,0.0127,0.0134,0.0044
1801,0.0039,0.0163,0.0149,0.0051
1802,0.0125,0.0233,0.0281,0.0088
1803,0.0038,0.0134,0.0129,0.0051
1804,0.0038,0.0147,0.0139,0.0053
1805,0.0042,0.0191,0.0178,0.0067
1806,0.0053,0.0282,0.0234,0.0087
1807,0.0028,0.0210,0.0210,0.0047
1808,0.0069,0.0617,0.0608,0.0337
1809,0.0052,0.0466,0.0445,0.0264
1810,0.0049,0.0313,0.0285,0.0176
1811,0.0057,0.0409,0.0381,0.0212
1812,0.0062,0.0511,0.0505,0.0242
1813,0.0099,0.0224,0.0283,0.0071
1814,0.0067,0.0370,0.0364,0.0153
1815,0.0048,0.0397,0.0443,0.0137
1816,0.0044,0.0305,0.0377,0.0085
1817,0.0063,0.0157,0.0204,0.0057
1818,0.0086,0.0335,0.0379,0.0056
1819,0.0027,0.0244,0.0238,0.0044
1820,0.0060,0.0297,0.0361,0.0054
1821,0.0030,0.0343,0.0343,0.0047
1822,0.0035,0.0173,0.0214,0.0059
1823,0.0039,0.0307,0.0344,0.0080
1824,0.0060,0.0292,0.0265,0.0041
1825,0.0030,0.0222,0.0229,0.0070
1826,0.0029,0.0183,0.0199,0.0073
1827,0.0031,0.0269,0.0304,0.0102
1828,0.0036,0.0295,0.0298,0.0113
1829,0.0044,0.0291,0.0281,0.0163
1830,0.0040,0.0261,0.0264,0.0147
1831,0.0030,0.0223,0.0223,0.0045
1832,0.0024,0.0142,0.0157,0.0045
1833,0.0026,0.0117,0.0122,0.0043
1834,0.0025,0.0167,0.0179,0.0046
1835,0.0117,0.0253,0.0219,0.0096
1836,0.0051,0.0248,0.0237,0.0043
1837,0.0024,0.0142,0.0157,0.0045
1838,0.0026,0.0117,0.0122,0.0043
1839,0.0024,0.0142,0.0157,0.0045
1840,0.0024,0.0142,0.0157,0.0045
1841,0.0025,0.0167,0.0179,0.0046
1842,0.0024,0.0142,0.0157,0.0045
1843,0.0024,0.0142,0.0157,0.0045
1844,0.0034,0.0127,0.0134,0.0044
1845,0.0024,0.0142,0.0157,0.0045
1846,0.0025,0.0167,0.0179,0.0046
1847,0.0060,0.0292,0.0311,0.0043
1848,0.0026,0.0117,0.0122,0.0043
1849,0.0024,0.0142,0.0157,0.0045
1850,0.0024,0.0142,0.0157,0.0045
1851,0.0026,0.0117,0.0122,0.0043
1852,0.0025,0.0167,0.0179,0.0046
1853,0.0024,0.0142,0.0157,0.0045
1854,0.0026,0.0117,0.0122,0.0043
1855,0.0024,0.0142,0.0157,0.0045
1856,0.0037,0.0139,0.0130,0.0048
1857,0.0025,0.0167,0.0179,0.0046
1858,0.0063,0.0614,0.0701,0.0039
1859,0.0024,0.0142,0.0157,0.0045
1860,0.0024,0.0142,0.0157,0.0045
1861,0.0026,0.0117,0.0122,0.0043
1862,0.0024,0.0142,0.0157,0.0045
1863,0.0025,0.0167,0.0179,0.0046
1864,0.0026,0.0117,0.0122,0.0043
1865,0.0024,0.0142,0.0157,0.0045
1866,0.0024,0.0142,0.0157,0.0045
1867,0.0026,0.0117,0.0122,0.0043
1868,0.0040,0.0155,0.0146,0.0055
1869,0.0060,0.0366,0.0457,0.0057
1870,0.0024,0.0142,0.0157,0.0045
1871,0.0026,0.0117,0.0122,0.0043
1872,0.0024,0.0142,0.0157,0.0045
1873,0.0024,0.0142,0.0157,0.0045
1874,0.0025,0.0167,0.0179,0.0046
1875,0.0144,0.0205,0.0324,0.0105
1876,0.0110,0.0152,0.0232,0.0075
1877,0.0085,0.0111,0.0140,0.0055
1878,0.0062,0.0118,0.0142,0.0051
1879,0.0039,0.0163,0.0149,0.0051
1880,0.0056,0.0270,0.0341,0.0078
1881,0.0038,0.0147,0.0139,0.0053
1882,0.0046,0.0132,0.0148,0.0055
1883,0.0044,0.0149,0.0167,0.0053
1884,0.0038,0.0137,0.0143,0.0046
1885,0.0032,0.0196,0.0227,0.0046
1886,0.0021,0.0149,0.0164,0.0043
1887,0.0031,0.0106,0.0112,0.0043
1888,0.0028,0.0169,0.0167,0.0044
1889,0.0027,0.0244,0.0238,0.0044
1890,0.0031,0.0294,0.0292,0.0048
1891,0.0064,0.0346,0.0433,0.0131
1892,0.0035,0.0148,0.0140,0.0046
1893,0.0042,0.0191,0.0178,0.0067
1894,0.0036,0.0142,0.0136,0.0046
1895,0.0038,0.0134,0.0129,0.0051
1896,0.0038,0.0175,0.0157,0.0061
1897,0.0044,0.0192,0.0186,0.0060
1898,0.0053,0.0282,0.0234,0.0087
1899,0.0069,0.0617,0.0608,0.0337
1900,0.0051,0.0358,0.0337,0.0203
1901,0.0050,0.0504,0.0481,0.0278
1902,0.0071,0.0469,0.0563,0.0191
1903,0.0078,0.0496,0.0527,0.0310
1904,0.0070,0.0406,0.0447,0.0288
1905,0.0057,0.0349,0.0379,0.0287
1906,0.0046,0.0294,0.0317,0.0295
1907,0.0038,0.0250,0.0267,0.0292
1908,0.0023,0.0147,0.0163,0.0044
1909,0.0023,0.0147,0.0163,0.0044
1910,0.0024,0.0125,0.0135,0.0042
1911,0.0027,0.0139,0.0146,0.0045
1912,0.0027,0.0173,0.0181,0.0047
1913,0.0080,0.0647,0.0725,0.0263
1914,0.0026,0.0134,0.0136,0.0043
1915,0.0027,0.0239,0.0228,0.0045
1916,0.0030,0.0199,0.0192,0.0046
1917,0.0035,0.0089,0.0109,0.0045
1918,0.0042,0.0133,0.0132,0.0053
1919,0.0039,0.0101,0.0105,0.0052
1920,0.0038,0.0141,0.0144,0.0053
1921,0.0041,0.0198,0.0179,0.0067
1922,0.0049,0.0278,0.0219,0.0087
1923,0.0025,0.0210,0.0209,0.0047
1924,0.0091,0.0759,0.0802,0.0313
1925,0.0059,0.0740,0.0722,0.0421
1926,0.0043,0.0560,0.0542,0.0336
1927,0.0042,0.0400,0.0378,0.0241
1928,0.0050,0.0505,0.0488,0.0275
1929,0.0054,0.0593,0.0609,0.0292
1930,0.0059,0.0440,0.0473,0.0194
1931,0.0046,0.0466,0.0550,0.0168
1932,0.0052,0.0375,0.0483,0.0106
1933,0.0072,0.0217,0.0301,0.0071
1934,0.0096,0.0369,0.0436,0.0059
1935,0.0103,0.0672,0.0667,0.0295
1936,0.0027,0.0239,0.0228,0.0045
1937,0.0060,0.0291,0.0370,0.0053
1938,0.0034,0.0268,0.0242,0.0047
1939,0.0043,0.0205,0.0265,0.0067
1940,0.0046,0.0364,0.0426,0.0094
1941,0.0034,0.0279,0.0307,0.0087
1942,0.0030,0.0207,0.0223,0.0084
1943,0.0029,0.0189,0.0219,0.0079
1944,0.0031,0.0203,0.0216,0.0091
1945,0.0036,0.0258,0.0275,0.0175
1946,0.0054,0.0194,0.0191,0.0039
1947,0.0108,0.0591,0.0549,0.0296
1948,0.0030,0.0296,0.0325,0.0181
1949,0.0030,0.0199,0.0192,0.0046
1950,0.0023,0.0147,0.0163,0.0044
1951,0.0024,0.0125,0.0135,0.0042
1952,0.0023,0.0171,0.0187,0.0046
1953,0.0023,0.0147,0.0163,0.0044
1954,0.0024,0.0125,0.0135,0.0042
1955,0.0023,0.0147,0.0163,0.0044
1956,0.0023,0.0147,0.0163,0.0044
1957,0.0023,0.0171,0.0187,0.0046
1958,0.0054,0.0245,0.0220,0.0048
1959,0.0023,0.0147,0.0163,0.0044
1960,0.0023,0.0147,0.0163,0.0044
1961,0.0035,0.0089,0.0109,0.0045
1962,0.0023,0.0147,0.0163,0.0044
1963,0.0023,0.0171,0.0187,0.0046
1964,0.0024,0.0125,0.0135,0.0042
1965,0.0023,0.0147,0.0163,0.0044
1966,0.0023,0.0147,0.0163,0.0044
1967,0.0024,0.0125,0.0135,0.0042
1968,0.0023,0.0171,0.0187,0.0046
1969,0.0046,0.0124,0.0120,0.0036
1970,0.0023,0.0147,0.0163,0.0044
1971,0.0024,0.0125,0.0135,0.0042
1972,0.0023,0.0147,0.0163,0.0044
1973,0.0039,0.0096,0.0104,0.0049
1974,0.0023,0.0171,0.0187,0.0046
1975,0.0023,0.0147,0.0163,0.0044
1976,0.0023,0.0147,0.0163,0.0044
1977,0.0024,0.0125,0.0135,0.0042
1978,0.0023,0.0147,0.0163,0.0044
1979,0.0023,0.0171,0.0187,0.0046
1980,0.0046,0.0124,0.0120,0.0036
1981,0.0024,0.0125,0.0135,0.0042
1982,0.0023,0.0147,0.0163,0.0044
1983,0.0023,0.0147,0.0163,0.0044
1984,0.0024,0.0125,0.0135,0.0042
1985,0.0041,0.0131,0.0128,0.0056
1986,0.0023,0.0147,0.0163,0.0044
1987,0.0024,0.0125,0.0135,0.0042
1988,0.0023,0.0147,0.0163,0.0044
1989,0.0023,0.0147,0.0163,0.0044
1990,0.0023,0.0171,0.0187,0.0046
1991,0.0045,0.0148,0.0154,0.0038
1992,0.0143,0.0236,0.0425,0.0096
1993,0.0109,0.0160,0.0310,0.0065
1994,0.0085,0.0121,0.0216,0.0047
1995,0.0063,0.0117,0.0190,0.0049
1996,0.0042,0.0133,0.0132,0.0053
1997,0.0038,0.0141,0.0144,0.0053
1998,0.0050,0.0136,0.0185,0.0058
1999,0.0049,0.0161,0.0203,0.0056
2000,0.0041,0.0157,0.0192,0.0048
2001,0.0035,0.0211,0.0257,0.0047
2002,0.0046,0.0124,0.0120,0.0036
2003,0.0021,0.0157,0.0184,0.0043
2004,0.0028,0.0112,0.0120,0.0043
2005,0.0025,0.0170,0.0167,0.0045
2006,0.0027,0.0239,0.0228,0.0045
2007,0.0032,0.0280,0.0272,0.0049
2008,0.0036,0.0123,0.0119,0.0048
2009,0.0041,0.0198,0.0179,0.0067
2010,0.0037,0.0103,0.0114,0.0046
2011,0.0039,0.0101,0.0105,0.0052
2012,0.0039,0.0173,0.0164,0.0063
2013,0.0046,0.0124,0.0120,0.0036
2014,0.0042,0.0199,0.0188,0.0060
2015,0.0049,0.0278,0.0219,0.0087
2016,0.0059,0.0740,0.0722,0.0421
2017,0.0043,0.0458,0.0440,0.0277
2018,0.0042,0.0588,0.0573,0.0342
2019,0.0072,0.0532,0.0567,0.0293
2020,0.0065,0.0430,0.0477,0.0307
2021,0.0058,0.0390,0.0451,0.0365
2022,0.0047,0.0347,0.0403,0.0393
2023,0.0039,0.0304,0.0341,0.0389
2024,0.0046,0.0124,0.0120,0.0036
2025,0.0023,0.0148,0.0168,0.0044
2026,0.0023,0.0148,0.0168,0.0044
2027,0.0024,0.0129,0.0142,0.0042
2028,0.0026,0.0140,0.0146,0.0045
2029,0.0026,0.0173,0.0180,0.0047
2030,0.0026,0.0151,0.0149,0.0043
2031,0.0027,0.0254,0.0236,0.0046
2032,0.0030,0.0199,0.0180,0.0047
2033,0.0035,0.0083,0.0107,0.0046
2034,0.0042,0.0136,0.0125,0.0054
2035,0.0046,0.0124,0.0120,0.0036
2036,0.0040,0.0103,0.0106,0.0053
2037,0.0038,0.0142,0.0142,0.0054
2038,0.0040,0.0198,0.0169,0.0068
2039,0.0048,0.0296,0.0227,0.0087
2040,0.0025,0.0225,0.0220,0.0047
2041,0.0056,0.0804,0.0782,0.0467
2042,0.0041,0.0620,0.0605,0.0378
2043,0.0040,0.0466,0.0444,0.0277
2044,0.0048,0.0553,0.0547,0.0303
2045,0.0052,0.0641,0.0666,0.0314
2046,0.0045,0.0148,0.0154,0.0038
2047,0.0057,0.0479,0.0527,0.0212
2048,0.0046,0.0504,0.0605,0.0182
2049,0.0056,0.0408,0.0536,0.0117
2050,0.0078,0.0246,0.0346,0.0078
2051,0.0098,0.0400,0.0481,0.0062
2052,0.0027,0.0254,0.0236,0.0046
2053,0.0059,0.0317,0.0410,0.0052
2054,0.0036,0.0246,0.0226,0.0048
2055,0.0047,0.0236,0.0316,0.0071
2056,0.0049,0.0401,0.0476,0.0102
2057,0.0115,0.0460,0.0407,0.0361
2058,0.0046,0.0124,0.0120,0.0036
2059,0.0036,0.0317,0.0358,0.0098
2060,0.0030,0.0242,0.0264,0.0098
2061,0.0028,0.0190,0.0222,0.0090
2062,0.0030,0.0195,0.0216,0.0109
2063,0.0033,0.0274,0.0298,0.0201
2064,0.0028,0.0348,0.0375,0.0223
2065,0.0030,0.0199,0.0180,0.0047
2066,0.0023,0.0148,0.0168,0.0044
2067,0.0024,0.0129,0.0142,0.0042
2068,0.0023,0.0172,0.0191,0.0046
2069,0.0046,0.0124,0.0120,0.0036
2070,0.0023,0.0148,0.0168,0.0044
2071,0.0024,0.0129,0.0142,0.0042
2072,0.0023,0.0148,0.0168,0.0044
2073,0.0023,0.0148,0.0168,0.0044
2074,0.0023,0.0172,0.0191,0.0046
2075,0.0023,0.0148,0.0168,0.0044
2076,0.0023,0.0148,0.0168,0.0044
2077,0.0035,0.0083,0.0107,0.0046
2078,0.0023,0.0148,0.0168,0.0044
2079,0.0023,0.0172,0.0191,0.0046
2080,0.0059,0.0211,0.0167,0.0053
2081,0.0024,0.0129,0.0142,0.0042
2082,0.0023,0.0148,0.0168,0.0044
2083,0.0023,0.0148,0.0168,0.0044
2084,0.0024,0.0129,0.0142,0.0042
2085,0.0023,0.0172,0.0191,0.0046
2086,0.0023,0.0148,0.0168,0.0044
2087,0.0024,0.0129,0.0142,0.0042
2088,0.0023,0.0148,0.0168,0.0044
2089,0.0039,0.0094,0.0093,0.0050
2090,0.0023,0.0172,0.0191,0.0046
2091,0.0046,0.0124,0.0120,0.0036
2092,0.0023,0.0148,0.0168,0.0044
2093,0.0023,0.0148,0.0168,0.0044
2094,0.0024,0.0129,0.0142,0.0042
2095,0.0023,0.0148,0.0168,0.0044
2096,0.0023,0.0172,0.0191,0.0046
2097,0.0024,0.0129,0.0142,0.0042
2098,0.0023,0.0148,0.0168,0.0044
2099,0.0023,0.0148,0.0168,0.0044
2100,0.0024,0.0129,0.0142,0.0042
2101,0.0042,0.0136,0.0129,0.0057
2102,0.0045,0.0148,0.0154,0.0038
2103,0.0023,0.0148,0.0168,0.0044
2104,0.0024,0.0129,0.0142,0.0042
2105,0.0023,0.0148,0.0168,0.0044
2106,0.0023,0.0148,0.0168,0.0044
2107,0.0023,0.0172,0.0191,0.0046
2108,0.0142,0.0241,0.0462,0.0090
2109,0.0109,0.0180,0.0362,0.0062
2110,0.0085,0.0134,0.0260,0.0045
2111,0.0063,0.0131,0.0240,0.0049
2112,0.0042,0.0136,0.0125,0.0054
2113,0.0046,0.0124,0.0120,0.0036
2114,0.0038,0.0142,0.0142,0.0054
2115,0.0052,0.0146,0.0217,0.0059
2116,0.0051,0.0159,0.0212,0.0058
2117,0.0043,0.0143,0.0184,0.0050
2118,0.0036,0.0205,0.0251,0.0048
2119,0.0021,0.0160,0.0189,0.0043
2120,0.0027,0.0113,0.0119,0.0043
2121,0.0025,0.0185,0.0179,0.0045
2122,0.0027,0.0254,0.0236,0.0046
2123,0.0032,0.0280,0.0261,0.0050
2124,0.0046,0.0124,0.0120,0.0036
2125,0.0037,0.0120,0.0120,0.0049
2126,0.0040,0.0198,0.0169,0.0068
2127,0.0037,0.0092,0.0098,0.0047
2128,0.0040,0.0103,0.0106,0.0053
2129,0.0039,0.0181,0.0165,0.0064
2130,0.0042,0.0194,0.0173,0.0061
2131,0.0048,0.0296,0.0227,0.0087
2132,0.0056,0.0804,0.0782,0.0467
2133,0.0041,0.0521,0.0506,0.0320
2134,0.0040,0.0647,0.0633,0.0376
2135,0.0046,0.0124,0.0120,0.0036
2136,0.0070,0.0556,0.0596,0.0311
2137,0.0062,0.0444,0.0498,0.0329
2138,0.0058,0.0411,0.0489,0.0405
2139,0.0048,0.0380,0.0455,0.0442
2140,0.0040,0.0332,0.0394,0.0438
2141,0.0029,0.0180,0.0167,0.0049
2142,0.0029,0.0180,0.0167,0.0049
2143,0.0030,0.0154,0.0133,0.0046
2144,0.0037,0.0189,0.0184,0.0049
2145,0.0037,0.0224,0.0221,0.0051
2146,0.0046,0.0124,0.0120,0.0036
2147,0.0036,0.0155,0.0147,0.0043
2148,0.0029,0.0279,0.0259,0.0046
2149,0.0030,0.0245,0.0211,0.0049
2150,0.0034,0.0157,0.0111,0.0052
2151,0.0039,0.0208,0.0151,0.0056
2152,0.0039,0.0181,0.0127,0.0058
2153,0.0040,0.0218,0.0169,0.0063
2154,0.0044,0.0223,0.0179,0.0069
2155,0.0056,0.0277,0.0226,0.0083
2156,0.0036,0.0235,0.0226,0.0049
2157,0.0045,0.0148,0.0154,0.0038
2158,0.0084,0.0530,0.0497,0.0367
2159,0.0068,0.0453,0.0435,0.0300
2160,0.0066,0.0373,0.0400,0.0239
2161,0.0076,0.0372,0.0391,0.0192
2162,0.0084,0.0435,0.0429,0.0177
2163,0.0087,0.0295,0.0310,0.0114
2164,0.0065,0.0332,0.0362,0.0104
2165,0.0043,0.0274,0.0334,0.0090
2166,0.0044,0.0214,0.0290,0.0079
2167,0.0067,0.0317,0.0328,0.0054
2168,0.0117,0.0468,0.0463,0.0328
2169,0.0046,0.0124,0.0120,0.0036
2170,0.0029,0.0279,0.0259,0.0046
2171,0.0060,0.0389,0.0411,0.0052
2172,0.0027,0.0503,0.0609,0.0048
2173,0.0033,0.0288,0.0410,0.0053
2174,0.0037,0.0295,0.0367,0.0067
2175,0.0031,0.0269,0.0350,0.0084
2176,0.0030,0.0332,0.0425,0.0134
2177,0.0041,0.0510,0.0598,0.0222
2178,0.0057,0.0547,0.0587,0.0266
2179,0.0072,0.0517,0.0496,0.0303
2180,0.0046,0.0124,0.0120,0.0036
2181,0.0078,0.0471,0.0416,0.0332
2182,0.0030,0.0245,0.0211,0.0049
2183,0.0029,0.0180,0.0167,0.0049
2184,0.0030,0.0154,0.0133,0.0046
2185,0.0029,0.0211,0.0197,0.0051
2186,0.0029,0.0180,0.0167,0.0049
2187,0.0030,0.0154,0.0133,0.0046
2188,0.0029,0.0180,0.0167,0.0049
2189,0.0029,0.0180,0.0167,0.0049
2190,0.0029,0.0211,0.0197,0.0051
2191,0.0046,0.0124,0.0120,0.0036
2192,0.0029,0.0180,0.0167,0.0049
2193,0.0029,0.0180,0.0167,0.0049
2194,0.0034,0.0157,0.0111,0.0052
2195,0.0029,0.0180,0.0167,0.0049
2196,0.0029,0.0211,0.0197,0.0051
2197,0.0030,0.0154,0.0133,0.0046
2198,0.0029,0.0180,0.0167,0.0049
2199,0.0029,0.0180,0.0167,0.0049
2200,0.0030,0.0154,0.0133,0.0046
2201,0.0029,0.0211,0.0197,0.0051
2202,0.0064,0.0220,0.0161,0.0062
2203,0.0029,0.0180,0.0167,0.0049
2204,0.0030,0.0154,0.0133,0.0046
2205,0.0029,0.0180,0.0167,0.0049
2206,0.0037,0.0185,0.0124,0.0055
2207,0.0029,0.0211,0.0197,0.0051
2208,0.0029,0.0180,0.0167,0.0049
2209,0.0029,0.0180,0.0167,0.0049
2210,0.0030,0.0154,0.0133,0.0046
2211,0.0029,0.0180,0.0167,0.0049
2212,0.0029,0.0211,0.0197,0.0051
2213,0.0045,0.0148,0.0154,0.0038
2214,0.0030,0.0154,0.0133,0.0046
2215,0.0029,0.0180,0.0167,0.0049
2216,0.0029,0.0180,0.0167,0.0049
2217,0.0030,0.0154,0.0133,0.0046
2218,0.0040,0.0200,0.0149,0.0059
2219,0.0029,0.0180,0.0167,0.0049
2220,0.0030,0.0154,0.0133,0.0046
2221,0.0029,0.0180,0.0167,0.0049
2222,0.0029,0.0180,0.0167,0.0049
2223,0.0029,0.0211,0.0197,0.0051
2224,0.0046,0.0124,0.0120,0.0036
2225,0.0163,0.0221,0.0265,0.0131
2226,0.0126,0.0171,0.0216,0.0100
2227,0.0098,0.0133,0.0192,0.0075
2228,0.0066,0.0141,0.0193,0.0065
2229,0.0039,0.0208,0.0151,0.0056
2230,0.0040,0.0218,0.0169,0.0063
2231,0.0038,0.0140,0.0167,0.0056
2232,0.0034,0.0164,0.0154,0.0053
2233,0.0031,0.0151,0.0128,0.0047
2234,0.0028,0.0221,0.0213,0.0049
2235,0.0046,0.0124,0.0120,0.0036
2236,0.0023,0.0184,0.0158,0.0047
2237,0.0037,0.0156,0.0150,0.0046
2238,0.0035,0.0192,0.0181,0.0046
2239,0.0029,0.0279,0.0259,0.0046
2240,0.0031,0.0316,0.0289,0.0050
2241,0.0035,0.0183,0.0129,0.0052
2242,0.0044,0.0223,0.0179,0.0069
2243,0.0037,0.0190,0.0132,0.0056
2244,0.0039,0.0181,0.0127,0.0058
2245,0.0040,0.0242,0.0191,0.0065
2246,0.0046,0.0124,0.0120,0.0036
2247,0.0047,0.0223,0.0187,0.0065
2248,0.0056,0.0277,0.0226,0.0083
2249,0.0084,0.0530,0.0497,0.0367
2250,0.0066,0.0416,0.0406,0.0297
2251,0.0068,0.0464,0.0461,0.0257
2252,0.0110,0.0528,0.0575,0.0566
2253,0.0075,0.0434,0.0505,0.0472
2254,0.0051,0.0376,0.0448,0.0384
2255,0.0042,0.0323,0.0405,0.0322
2256,0.0043,0.0283,0.0382,0.0282
2257,0.0046,0.0124,0.0120,0.0036
2258,0.0026,0.0167,0.0162,0.0048
2259,0.0026,0.0167,0.0162,0.0048
2260,0.0027,0.0140,0.0127,0.0045
2261,0.0032,0.0165,0.0158,0.0047
2262,0.0032,0.0199,0.0195,0.0050
2263,0.0031,0.0153,0.0150,0.0043
2264,0.0027,0.0274,0.0261,0.0045
2265,0.0030,0.0237,0.0209,0.0047
2266,0.0035,0.0159,0.0134,0.0048
2267,0.0040,0.0188,0.0149,0.0053
2268,0.0045,0.0148,0.0154,0.0038
2269,0.0039,0.0173,0.0134,0.0055
2270,0.0039,0.0204,0.0171,0.0058
2271,0.0042,0.0202,0.0169,0.0065
2272,0.0052,0.0278,0.0232,0.0079
2273,0.0030,0.0228,0.0222,0.0048
2274,0.0075,0.0499,0.0479,0.0306
2275,0.0060,0.0404,0.0385,0.0243
2276,0.0057,0.0311,0.0323,0.0183
2277,0.0065,0.0343,0.0342,0.0165
2278,0.0074,0.0430,0.0412,0.0174
2279,0.0134,0.0429,0.0476,0.0278
2280,0.0046,0.0124,0.0120,0.0036
2281,0.0079,0.0290,0.0280,0.0104
2282,0.0057,0.0325,0.0346,0.0098
2283,0.0040,0.0262,0.0306,0.0075
2284,0.0049,0.0177,0.0227,0.0065
2285,0.0074,0.0314,0.0322,0.0054
2286,0.0027,0.0274,0.0261,0.0045
2287,0.0061,0.0349,0.0379,0.0052
2288,0.0028,0.0451,0.0527,0.0047
2289,0.0032,0.0238,0.0327,0.0053
2290,0.0038,0.0275,0.0321,0.0066
2291,0.0046,0.0124,0.0120,0.0036
2292,0.0031,0.0227,0.0274,0.0071
2293,0.0032,0.0269,0.0337,0.0108
2294,0.0041,0.0435,0.0511,0.0185
2295,0.0053,0.0470,0.0500,0.0216
2296,0.0067,0.0430,0.0412,0.0244
2297,0.0071,0.0379,0.0334,0.0254
2298,0.0030,0.0237,0.0209,0.0047
2299,0.0026,0.0167,0.0162,0.0048
2300,0.0027,0.0140,0.0127,0.0045
2301,0.0026,0.0197,0.0192,0.0050
2302,0.0046,0.0124,0.0120,0.0036
2303,0.0026,0.0167,0.0162,0.0048
2304,0.0027,0.0140,0.0127,0.0045
2305,0.0026,0.0167,0.0162,0.0048
2306,0.0026,0.0167,0.0162,0.0048
2307,0.0026,0.0197,0.0192,0.0050
2308,0.0026,0.0167,0.0162,0.0048
2309,0.0026,0.0167,0.0162,0.0048
2310,0.0035,0.0159,0.0134,0.0048
2311,0.0026,0.0167,0.0162,0.0048
2312,0.0026,0.0197,0.0192,0.0050
2313,0.0046,0.0124,0.0120,0.0036
2314,0.0027,0.0140,0.0127,0.0045
2315,0.0026,0.0167,0.0162,0.0048
2316,0.0026,0.0167,0.0162,0.0048
2317,0.0027,0.0140,0.0127,0.0045
2318,0.0026,0.0197,0.0192,0.0050
2319,0.0026,0.0167,0.0162,0.0048
2320,0.0027,0.0140,0.0127,0.0045
2321,0.0026,0.0167,0.0162,0.0048
2322,0.0039,0.0169,0.0128,0.0051
2323,0.0026,0.0197,0.0192,0.0050
2324,0.0069,0.0207,0.0144,0.0066
2325,0.0026,0.0167,0.0162,0.0048
2326,0.0026,0.0167,0.0162,0.0048
2327,0.0027,0.0140,0.0127,0.0045
2328,0.0026,0.0167,0.0162,0.0048
2329,0.0026,0.0197,0.0192,0.0050
2330,0.0027,0.0140,0.0127,0.0045
2331,0.0026,0.0167,0.0162,0.0048
2332,0.0026,0.0167,0.0162,0.0048
2333,0.0027,0.0140,0.0127,0.0045
2334,0.0041,0.0190,0.0152,0.0056
2335,0.0046,0.0124,0.0120,0.0036
2336,0.0026,0.0167,0.0162,0.0048
2337,0.0027,0.0140,0.0127,0.0045
2338,0.0026,0.0167,0.0162,0.0048
2339,0.0026,0.0167,0.0162,0.0048
2340,0.0026,0.0197,0.0192,0.0050
2341,0.0161,0.0225,0.0280,0.0126
2342,0.0124,0.0164,0.0204,0.0094
2343,0.0095,0.0124,0.0150,0.0070
2344,0.0065,0.0134,0.0160,0.0061
2345,0.0040,0.0188,0.0149,0.0053
2346,0.0046,0.0124,0.0120,0.0036
2347,0.0039,0.0204,0.0171,0.0058
2348,0.0039,0.0139,0.0147,0.0055
2349,0.0037,0.0158,0.0146,0.0052
2350,0.0033,0.0132,0.0117,0.0045
2351,0.0029,0.0213,0.0213,0.0047
2352,0.0021,0.0181,0.0166,0.0046
2353,0.0032,0.0130,0.0123,0.0045
2354,0.0030,0.0187,0.0180,0.0045
2355,0.0027,0.0274,0.0261,0.0045
2356,0.0031,0.0311,0.0287,0.0049
2357,0.0046,0.0124,0.0120,0.0036
2358,0.0036,0.0180,0.0144,0.0049
2359,0.0042,0.0202,0.0169,0.0065
2360,0.0037,0.0169,0.0131,0.0052
2361,0.0039,0.0173,0.0134,0.0055
2362,0.0040,0.0223,0.0188,0.0061
2363,0.0044,0.0205,0.0181,0.0060
2364,0.0052,0.0278,0.0232,0.0079
2365,0.0075,0.0499,0.0479,0.0306
2366,0.0058,0.0344,0.0332,0.0225
2367,0.0060,0.0437,0.0422,0.0226
2368,0.0046,0.0124,0.0120,0.0036
2369,0.0113,0.0538,0.0556,0.0485
2370,0.0075,0.0430,0.0471,0.0402
2371,0.0051,0.0378,0.0417,0.0330
2372,0.0041,0.0327,0.0361,0.0282
2373,0.0040,0.0276,0.0321,0.0255
2374,0.0022,0.0149,0.0152,0.0046
2375,0.0022,0.0149,0.0152,0.0046
2376,0.0023,0.0122,0.0118,0.0044
2377,0.0026,0.0151,0.0149,0.0047
2378,0.0026,0.0188,0.0187,0.0049
2379,0.0045,0.0148,0.0154,0.0038
2380,0.0025,0.0149,0.0148,0.0043
2381,0.0026,0.0259,0.0248,0.0045
2382,0.0032,0.0221,0.0214,0.0045
2383,0.0038,0.0110,0.0115,0.0044
2384,0.0045,0.0160,0.0144,0.0049
2385,0.0042,0.0130,0.0123,0.0050
2386,0.0038,0.0146,0.0139,0.0053
2387,0.0040,0.0192,0.0177,0.0060
2388,0.0048,0.0293,0.0244,0.0073
2389,0.0025,0.0228,0.0224,0.0048
2390,0.0152,0.0372,0.0443,0.0223
2391,0.0215,0.0173,0.0188,0.0101
2392,0.0059,0.0529,0.0522,0.0282
2393,0.0044,0.0391,0.0371,0.0214
2394,0.0043,0.0257,0.0235,0.0136
2395,0.0052,0.0353,0.0323,0.0170
2396,0.0058,0.0461,0.0446,0.0203
2397,0.0064,0.0330,0.0313,0.0123
2398,0.0047,0.0364,0.0395,0.0114
2399,0.0046,0.0282,0.0335,0.0072
2400,0.0064,0.0144,0.0174,0.0054
2401,0.0087,0.0330,0.0351,0.0056
2402,0.0174,0.0154,0.0201,0.0076
2403,0.0026,0.0259,0.0248,0.0045
2404,0.0063,0.0288,0.0339,0.0053
2405,0.0033,0.0361,0.0373,0.0047
2406,0.0040,0.0168,0.0203,0.0057
2407,0.0045,0.0284,0.0305,0.0075
2408,0.0037,0.0202,0.0200,0.0065
2409,0.0037,0.0181,0.0203,0.0073
2410,0.0039,0.0285,0.0340,0.0112
2411,0.0045,0.0307,0.0328,0.0118
2412,0.0055,0.0287,0.0276,0.0152
2413,0.0138,0.0158,0.0212,0.0061
2414,0.0053,0.0254,0.0243,0.0137
2415,0.0032,0.0221,0.0214,0.0045
2416,0.0022,0.0149,0.0152,0.0046
2417,0.0023,0.0122,0.0118,0.0044
2418,0.0023,0.0177,0.0179,0.0048
2419,0.0022,0.0149,0.0152,0.0046
2420,0.0023,0.0122,0.0118,0.0044
2421,0.0022,0.0149,0.0152,0.0046
2422,0.0022,0.0149,0.0152,0.0046
2423,0.0023,0.0177,0.0179,0.0048
2424,0.0104,0.0155,0.0214,0.0055
2425,0.0022,0.0149,0.0152,0.0046
2426,0.0022,0.0149,0.0152,0.0046
2427,0.0038,0.0110,0.0115,0.0044
2428,0.0022,0.0149,0.0152,0.0046
2429,0.0023,0.0177,0.0179,0.0048
2430,0.0023,0.0122,0.0118,0.0044
2431,0.0022,0.0149,0.0152,0.0046
2432,0.0022,0.0149,0.0152,0.0046
2433,0.0023,0.0122,0.0118,0.0044
2434,0.0023,0.0177,0.0179,0.0048
2435,0.0063,0.0207,0.0147,0.0057
2436,0.0022,0.0149,0.0152,0.0046
2437,0.0023,0.0122,0.0118,0.0044
2438,0.0022,0.0149,0.0152,0.0046
2439,0.0042,0.0129,0.0118,0.0047
2440,0.0023,0.0177,0.0179,0.0048
2441,0.0022,0.0149,0.0152,0.0046
2442,0.0022,0.0149,0.0152,0.0046
2443,0.0023,0.0122,0.0118,0.0044
2444,0.0022,0.0149,0.0152,0.0046
2445,0.0023,0.0177,0.0179,0.0048
2446,0.0081,0.0246,0.0179,0.0080
2447,0.0023,0.0122,0.0118,0.0044
2448,0.0022,0.0149,0.0152,0.0046
2449,0.0022,0.0149,0.0152,0.0046
2450,0.0023,0.0122,0.0118,0.0044
2451,0.0044,0.0152,0.0141,0.0052
2452,0.0022,0.0149,0.0152,0.0046
2453,0.0023,0.0122,0.0118,0.0044
2454,0.0022,0.0149,0.0152,0.0046
2455,0.0022,0.0149,0.0152,0.0046
2456,0.0023,0.0177,0.0179,0.0048
2457,0.0059,0.0152,0.0174,0.0050
2458,0.0157,0.0232,0.0350,0.0112
2459,0.0120,0.0171,0.0250,0.0081
2460,0.0092,0.0119,0.0149,0.0058
2461,0.0064,0.0122,0.0143,0.0052
2462,0.0045,0.0160,0.0144,0.0049
2463,0.0038,0.0146,0.0139,0.0053
2464,0.0044,0.0136,0.0142,0.0053
2465,0.0042,0.0150,0.0155,0.0051
2466,0.0038,0.0136,0.0128,0.0045
2467,0.0033,0.0199,0.0216,0.0046
2468,0.0051,0.0153,0.0144,0.0045
2469,0.0022,0.0154,0.0155,0.0044
2470,0.0026,0.0119,0.0117,0.0044
2471,0.0025,0.0186,0.0181,0.0045
2472,0.0026,0.0259,0.0248,0.0045
2473,0.0034,0.0302,0.0294,0.0047
2474,0.0039,0.0145,0.0128,0.0046
2475,0.0040,0.0192,0.0177,0.0060
2476,0.0040,0.0132,0.0125,0.0046
2477,0.0042,0.0130,0.0123,0.0050
2478,0.0041,0.0181,0.0163,0.0057
2479,0.0048,0.0143,0.0131,0.0040
2480,0.0041,0.0197,0.0188,0.0055
2481,0.0048,0.0293,0.0244,0.0073
2482,0.0059,0.0529,0.0522,0.0282
2483,0.0044,0.0293,0.0275,0.0161
2484,0.0044,0.0439,0.0415,0.0230
2485,0.0126,0.0578,0.0556,0.0346
2486,0.0075,0.0438,0.0438,0.0294
2487,0.0052,0.0383,0.0385,0.0278
2488,0.0040,0.0353,0.0355,0.0298
2489,0.0037,0.0303,0.0298,0.0302
2490,0.0043,0.0178,0.0176,0.0038
2491,0.0021,0.0155,0.0160,0.0045
2492,0.0021,0.0155,0.0160,0.0045
2493,0.0021,0.0133,0.0132,0.0043
2494,0.0023,0.0158,0.0155,0.0046
2495,0.0024,0.0192,0.0192,0.0049
2496,0.0024,0.0158,0.0154,0.0043
2497,0.0027,0.0270,0.0251,0.0045
2498,0.0034,0.0216,0.0198,0.0046
2499,0.0040,0.0085,0.0095,0.0044
2500,0.0048,0.0138,0.0131,0.0050
2501,0.0162,0.0346,0.0381,0.0161
2502,0.0042,0.0146,0.0132,0.0036
2503,0.0044,0.0102,0.0103,0.0049
2504,0.0039,0.0142,0.0144,0.0051
2505,0.0040,0.0204,0.0185,0.0058
2506,0.0045,0.0293,0.0231,0.0071
2507,0.0024,0.0235,0.0227,0.0048
2508,0.0050,0.0639,0.0625,0.0354
2509,0.0039,0.0474,0.0457,0.0275
2510,0.0038,0.0327,0.0305,0.0188
2511,0.0046,0.0436,0.0413,0.0224
2512,0.0052,0.0530,0.0535,0.0244
2513,0.0051,0.0122,0.0123,0.0036
2514,0.0057,0.0392,0.0410,0.0158
2515,0.0046,0.0425,0.0491,0.0141
2516,0.0053,0.0343,0.0429,0.0088
2517,0.0072,0.0194,0.0253,0.0065
2518,0.0097,0.0364,0.0404,0.0060
2519,0.0027,0.0270,0.0251,0.0045
2520,0.0063,0.0286,0.0350,0.0052
2521,0.0037,0.0283,0.0264,0.0048
2522,0.0049,0.0186,0.0228,0.0064
2523,0.0053,0.0337,0.0380,0.0088
2524,0.0051,0.0165,0.0163,0.0038
2525,0.0042,0.0255,0.0263,0.0079
2526,0.0038,0.0187,0.0192,0.0076
2527,0.0036,0.0201,0.0241,0.0080
2528,0.0038,0.0208,0.0228,0.0080
2529,0.0044,0.0249,0.0251,0.0154
2530,0.0039,0.0285,0.0289,0.0157
2531,0.0034,0.0216,0.0198,0.0046
2532,0.0021,0.0155,0.0160,0.0045
2533,0.0021,0.0133,0.0132,0.0043
2534,0.0021,0.0180,0.0185,0.0047
2535,0.0051,0.0248,0.0237,0.0043
2536,0.0021,0.0155,0.0160,0.0045
2537,0.0021,0.0133,0.0132,0.0043
2538,0.0021,0.0155,0.0160,0.0045
2539,0.0021,0.0155,0.0160,0.0045
2540,0.0021,0.0180,0.0185,0.0047
2541,0.0021,0.0155,0.0160,0.0045
2542,0.0021,0.0155,0.0160,0.0045
2543,0.0040,0.0085,0.0095,0.0044
2544,0.0021,0.0155,0.0160,0.0045
2545,0.0021,0.0180,0.0185,0.0047
2546,0.0054,0.0286,0.0269,0.0047
2547,0.0021,0.0133,0.0132,0.0043
2548,0.0021,0.0155,0.0160,0.0045
2549,0.0021,0.0155,0.0160,0.0045
2550,0.0021,0.0133,0.0132,0.0043
2551,0.0021,0.0180,0.0185,0.0047
2552,0.0021,0.0155,0.0160,0.0045
2553,0.0021,0.0133,0.0132,0.0043
2554,0.0021,0.0155,0.0160,0.0045
2555,0.0045,0.0098,0.0099,0.0047
2556,0.0021,0.0180,0.0185,0.0047
2557,0.0059,0.0211,0.0167,0.0053
2558,0.0021,0.0155,0.0160,0.0045
2559,0.0021,0.0155,0.0160,0.0045
2560,0.0021,0.0133,0.0132,0.0043
2561,0.0021,0.0155,0.0160,0.0045
2562,0.0021,0.0180,0.0185,0.0047
2563,0.0021,0.0133,0.0132,0.0043
2564,0.0021,0.0155,0.0160,0.0045
2565,0.0021,0.0155,0.0160,0.0045
2566,0.0021,0.0133,0.0132,0.0043
2567,0.0047,0.0136,0.0129,0.0052
2568,0.0095,0.0222,0.0178,0.0087
2569,0.0021,0.0155,0.0160,0.0045
2570,0.0021,0.0133,0.0132,0.0043
2571,0.0021,0.0155,0.0160,0.0045
2572,0.0021,0.0155,0.0160,0.0045
2573,0.0021,0.0180,0.0185,0.0047
2574,0.0156,0.0259,0.0442,0.0101
2575,0.0119,0.0176,0.0322,0.0069
2576,0.0091,0.0131,0.0221,0.0050
2577,0.0064,0.0124,0.0190,0.0049
2578,0.0048,0.0138,0.0131,0.0050
2579,0.0064,0.0220,0.0161,0.0062
2580,0.0039,0.0142,0.0144,0.0051
2581,0.0047,0.0140,0.0176,0.0055
2582,0.0046,0.0164,0.0191,0.0053
2583,0.0041,0.0157,0.0176,0.0046
2584,0.0036,0.0216,0.0246,0.0046
2585,0.0022,0.0162,0.0174,0.0043
2586,0.0024,0.0126,0.0124,0.0044
2587,0.0023,0.0195,0.0185,0.0046
2588,0.0027,0.0270,0.0251,0.0045
2589,0.0036,0.0300,0.0282,0.0049
2590,0.0071,0.0225,0.0156,0.0072
2591,0.0042,0.0132,0.0115,0.0047
2592,0.0040,0.0204,0.0185,0.0058
2593,0.0043,0.0094,0.0103,0.0045
2594,0.0044,0.0102,0.0103,0.0049
2595,0.0043,0.0180,0.0169,0.0056
2596,0.0040,0.0204,0.0193,0.0054
2597,0.0045,0.0293,0.0231,0.0071
2598,0.0050,0.0639,0.0625,0.0354
2599,0.0039,0.0376,0.0359,0.0219
2600,0.0038,0.0509,0.0493,0.0286
2601,0.0078,0.0235,0.0178,0.0075
2602,0.0145,0.0630,0.0602,0.0302
2603,0.0080,0.0471,0.0457,0.0271
2604,0.0051,0.0390,0.0389,0.0284
2605,0.0040,0.0389,0.0411,0.0368
2606,0.0035,0.0366,0.0381,0.0398
2607,0.0020,0.0159,0.0167,0.0045
2608,0.0020,0.0159,0.0167,0.0045
2609,0.0021,0.0138,0.0140,0.0043
2610,0.0023,0.0156,0.0153,0.0046
2611,0.0023,0.0187,0.0186,0.0048
2612,0.0048,0.0141,0.0128,0.0037
2613,0.0167,0.0297,0.0352,0.0148
2614,0.0095,0.0222,0.0178,0.0087
2615,0.0024,0.0178,0.0168,0.0044
2616,0.0027,0.0292,0.0266,0.0046
2617,0.0034,0.0226,0.0197,0.0047
2618,0.0041,0.0081,0.0092,0.0045
2619,0.0048,0.0149,0.0133,0.0051
2620,0.0045,0.0108,0.0107,0.0050
2621,0.0040,0.0145,0.0146,0.0052
2622,0.0040,0.0205,0.0176,0.0059
2623,0.0045,0.0305,0.0237,0.0072
2624,0.0024,0.0256,0.0244,0.0049
2625,0.0114,0.0238,0.0222,0.0093
2626,0.0048,0.0699,0.0682,0.0397
2627,0.0038,0.0522,0.0508,0.0310
2628,0.0037,0.0378,0.0356,0.0216
2629,0.0045,0.0482,0.0469,0.0251
2630,0.0050,0.0577,0.0591,0.0267
2631,0.0056,0.0427,0.0460,0.0173
2632,0.0047,0.0456,0.0538,0.0150
2633,0.0056,0.0375,0.0479,0.0098
2634,0.0078,0.0221,0.0294,0.0072
2635,0.0099,0.0394,0.0447,0.0062
2636,0.0109,0.0374,0.0336,0.0269
2637,0.0027,0.0292,0.0266,0.0046
2638,0.0062,0.0311,0.0390,0.0051
2639,0.0039,0.0259,0.0239,0.0048
2640,0.0052,0.0215,0.0274,0.0068
2641,0.0056,0.0371,0.0425,0.0094
2642,0.0044,0.0289,0.0308,0.0088
2643,0.0039,0.0224,0.0230,0.0088
2644,0.0034,0.0194,0.0230,0.0085
2645,0.0036,0.0194,0.0215,0.0091
2646,0.0040,0.0262,0.0266,0.0175
2647,0.0112,0.0375,0.0369,0.0248
2648,0.0034,0.0337,0.0338,0.0198
2649,0.0034,0.0226,0.0197,0.0047
2650,0.0020,0.0159,0.0167,0.0045
2651,0.0021,0.0138,0.0140,0.0043
2652,0.0021,0.0184,0.0193,0.0047
2653,0.0020,0.0159,0.0167,0.0045
2654,0.0021,0.0138,0.0140,0.0043
2655,0.0020,0.0159,0.0167,0.0045
2656,0.0020,0.0159,0.0167,0.0045
2657,0.0021,0.0184,0.0193,0.0047
2658,0.0129,0.0354,0.0365,0.0198
2659,0.0020,0.0159,0.0167,0.0045
2660,0.0020,0.0159,0.0167,0.0045
2661,0.0041,0.0081,0.0092,0.0045
2662,0.0020,0.0159,0.0167,0.0045
2663,0.0021,0.0184,0.0193,0.0047
2664,0.0021,0.0138,0.0140,0.0043
2665,0.0020,0.0159,0.0167,0.0045
2666,0.0020,0.0159,0.0167,0.0045
2667,0.0021,0.0138,0.0140,0.0043
2668,0.0021,0.0184,0.0193,0.0047
2669,0.0122,0.0394,0.0425,0.0399
2670,0.0020,0.0159,0.0167,0.0045
2671,0.0021,0.0138,0.0140,0.0043
2672,0.0020,0.0159,0.0167,0.0045
2673,0.0045,0.0108,0.0099,0.0048
2674,0.0021,0.0184,0.0193,0.0047
2675,0.0020,0.0159,0.0167,0.0045
2676,0.0020,0.0159,0.0167,0.0045
2677,0.0021,0.0138,0.0140,0.0043
2678,0.0020,0.0159,0.0167,0.0045
2679,0.0021,0.0184,0.0193,0.0047
2680,0.0097,0.0308,0.0372,0.0321
2681,0.0021,0.0138,0.0140,0.0043
2682,0.0020,0.0159,0.0167,0.0045
2683,0.0020,0.0159,0.0167,0.0045
2684,0.0021,0.0138,0.0140,0.0043
2685,0.0048,0.0147,0.0137,0.0053
2686,0.0020,0.0159,0.0167,0.0045
2687,0.0021,0.0138,0.0140,0.0043
2688,0.0020,0.0159,0.0167,0.0045
2689,0.0020,0.0159,0.0167,0.0045
2690,0.0021,0.0184,0.0193,0.0047
2691,0.0078,0.0262,0.0357,0.0265
2692,0.0155,0.0267,0.0482,0.0096
2693,0.0119,0.0197,0.0373,0.0066
2694,0.0091,0.0145,0.0264,0.0047
2695,0.0064,0.0138,0.0235,0.0049
2696,0.0048,0.0149,0.0133,0.0051
2697,0.0040,0.0145,0.0146,0.0052
2698,0.0048,0.0147,0.0200,0.0057
2699,0.0048,0.0159,0.0194,0.0056
2700,0.0042,0.0144,0.0168,0.0048
2701,0.0036,0.0205,0.0237,0.0047
2702,0.0064,0.0263,0.0384,0.0226
2703,0.0023,0.0164,0.0179,0.0043
2704,0.0023,0.0127,0.0124,0.0044
2705,0.0023,0.0215,0.0201,0.0046
2706,0.0027,0.0292,0.0266,0.0046
2707,0.0036,0.0306,0.0279,0.0050
2708,0.0043,0.0133,0.0118,0.0048
2709,0.0040,0.0205,0.0176,0.0059
2710,0.0043,0.0098,0.0098,0.0046
2711,0.0045,0.0108,0.0107,0.0050
2712,0.0044,0.0191,0.0174,0.0057
2713,0.0058,0.0306,0.0451,0.0218
2714,0.0040,0.0202,0.0182,0.0054
2715,0.0045,0.0305,0.0237,0.0072
2716,0.0048,0.0699,0.0682,0.0397
2717,0.0038,0.0426,0.0413,0.0254
2718,0.0038,0.0558,0.0542,0.0313
2719,0.0156,0.0663,0.0634,0.0308
2720,0.0084,0.0496,0.0484,0.0285
2721,0.0051,0.0403,0.0405,0.0303
2722,0.0041,0.0405,0.0434,0.0396
2723,0.0035,0.0393,0.0432,0.0443
2724,0.0153,0.0279,0.0346,0.0134
2725,0.0044,0.0114,0.0119,0.0035
2726,0.0044,0.0114,0.0119,0.0035
2727,0.0044,0.0114,0.0119,0.0035
2728,0.0047,0.0112,0.0120,0.0036
2729,0.0046,0.0139,0.0152,0.0037
2730,0.0047,0.0144,0.0152,0.0037
2731,0.0050,0.0209,0.0211,0.0040
2732,0.0054,0.0205,0.0212,0.0043
2733,0.0059,0.0156,0.0146,0.0046
2734,0.0064,0.0159,0.0136,0.0050
2735,0.0128,0.0272,0.0351,0.0113
2736,0.0070,0.0186,0.0152,0.0064
2737,0.0079,0.0176,0.0141,0.0074
2738,0.0092,0.0190,0.0178,0.0082
2739,0.0110,0.0249,0.0236,0.0087
2740,0.0047,0.0179,0.0190,0.0037
2741,0.0100,0.0323,0.0312,0.0167
2742,0.0106,0.0263,0.0252,0.0151
2743,0.0123,0.0239,0.0244,0.0141
2744,0.0141,0.0240,0.0240,0.0134
2745,0.0149,0.0316,0.0287,0.0139
2746,0.0100,0.0269,0.0358,0.0089
2747,0.0153,0.0282,0.0269,0.0127
2748,0.0141,0.0260,0.0271,0.0104
2749,0.0122,0.0211,0.0238,0.0060
2750,0.0104,0.0154,0.0186,0.0052
2751,0.0071,0.0292,0.0265,0.0043
2752,0.0050,0.0209,0.0211,0.0040
2753,0.0061,0.0240,0.0280,0.0044
2754,0.0063,0.0523,0.0554,0.0039
2755,0.0059,0.0276,0.0312,0.0058
2756,0.0057,0.0216,0.0236,0.0077
2757,0.0056,0.0305,0.0292,0.0044
2758,0.0063,0.0272,0.0318,0.0116
2759,0.0071,0.0371,0.0434,0.0158
2760,0.0079,0.0520,0.0580,0.0204
2761,0.0088,0.0622,0.0659,0.0229
2762,0.0099,0.0527,0.0532,0.0182
2763,0.0101,0.0456,0.0446,0.0164
2764,0.0054,0.0205,0.0212,0.0043
2765,0.0044,0.0114,0.0119,0.0035
2766,0.0044,0.0114,0.0119,0.0035
2767,0.0042,0.0134,0.0149,0.0037
2768,0.0053,0.0261,0.0239,0.0045
2769,0.0044,0.0114,0.0119,0.0035
2770,0.0044,0.0114,0.0119,0.0035
2771,0.0044,0.0114,0.0119,0.0035
2772,0.0044,0.0114,0.0119,0.0035
2773,0.0042,0.0134,0.0149,0.0037
2774,0.0044,0.0114,0.0119,0.0035
2775,0.0044,0.0114,0.0119,0.0035
2776,0.0059,0.0156,0.0146,0.0046
2777,0.0044,0.0114,0.0119,0.0035
2778,0.0042,0.0134,0.0149,0.0037
2779,0.0059,0.0331,0.0344,0.0043
2780,0.0044,0.0114,0.0119,0.0035
2781,0.0044,0.0114,0.0119,0.0035
2782,0.0044,0.0114,0.0119,0.0035
2783,0.0044,0.0114,0.0119,0.0035
2784,0.0042,0.0134,0.0149,0.0037
2785,0.0044,0.0114,0.0119,0.0035
2786,0.0044,0.0114,0.0119,0.0035
2787,0.0044,0.0114,0.0119,0.0035
2788,0.0064,0.0177,0.0154,0.0054
2789,0.0042,0.0134,0.0149,0.0037
2790,0.0064,0.0665,0.0779,0.0040
2791,0.0044,0.0114,0.0119,0.0035
2792,0.0044,0.0114,0.0119,0.0035
2793,0.0044,0.0114,0.0119,0.0035
2794,0.0044,0.0114,0.0119,0.0035
2795,0.0042,0.0134,0.0149,0.0037
2796,0.0044,0.0114,0.0119,0.0035
2797,0.0044,0.0114,0.0119,0.0035
2798,0.0044,0.0114,0.0119,0.0035
2799,0.0044,0.0114,0.0119,0.0035
2800,0.0069,0.0162,0.0135,0.0059
2801,0.0063,0.0422,0.0549,0.0058
2802,0.0044,0.0114,0.0119,0.0035
2803,0.0044,0.0114,0.0119,0.0035
2804,0.0044,0.0114,0.0119,0.0035
2805,0.0044,0.0114,0.0119,0.0035
2806,0.0042,0.0134,0.0149,0.0037
2807,0.0212,0.0177,0.0207,0.0090
2808,0.0171,0.0144,0.0162,0.0064
2809,0.0135,0.0140,0.0147,0.0051
2810,0.0103,0.0136,0.0137,0.0049
2811,0.0064,0.0159,0.0136,0.0050
2812,0.0059,0.0316,0.0418,0.0082
2813,0.0079,0.0176,0.0141,0.0074
2814,0.0061,0.0139,0.0118,0.0050
2815,0.0054,0.0146,0.0122,0.0046
2816,0.0050,0.0144,0.0128,0.0041
2817,0.0045,0.0167,0.0175,0.0038
2818,0.0042,0.0127,0.0129,0.0035
2819,0.0047,0.0112,0.0120,0.0036
2820,0.0047,0.0144,0.0152,0.0037
2821,0.0050,0.0209,0.0211,0.0040
2822,0.0053,0.0262,0.0270,0.0042
2823,0.0054,0.0143,0.0141,0.0037
2824,0.0065,0.0399,0.0514,0.0143
2825,0.0059,0.0156,0.0146,0.0046
2826,0.0092,0.0190,0.0178,0.0082
2827,0.0064,0.0177,0.0154,0.0054
2828,0.0070,0.0186,0.0152,0.0064
2829,0.0077,0.0162,0.0139,0.0069
2830,0.0092,0.0190,0.0178,0.0082
2831,0.0110,0.0249,0.0236,0.0087
2832,0.0100,0.0323,0.0312,0.0167
2833,0.0106,0.0263,0.0252,0.0151
2834,0.0123,0.0280,0.0261,0.0146
2835,0.0071,0.0529,0.0645,0.0213
2836,0.0116,0.0420,0.0410,0.0239
2837,0.0095,0.0320,0.0343,0.0204
2838,0.0079,0.0268,0.0307,0.0190
2839,0.0066,0.0236,0.0290,0.0180
2840,0.0059,0.0248,0.0318,0.0175
2841,0.0043,0.0118,0.0130,0.0035
2842,0.0043,0.0118,0.0130,0.0035
2843,0.0043,0.0118,0.0130,0.0035
2844,0.0046,0.0116,0.0128,0.0036
2845,0.0045,0.0141,0.0157,0.0037
2846,0.0080,0.0713,0.0802,0.0295
2847,0.0046,0.0139,0.0150,0.0037
2848,0.0050,0.0197,0.0198,0.0039
2849,0.0054,0.0171,0.0181,0.0042
2850,0.0059,0.0114,0.0115,0.0044
2851,0.0064,0.0107,0.0106,0.0048
2852,0.0070,0.0138,0.0122,0.0061
2853,0.0078,0.0154,0.0138,0.0071
2854,0.0091,0.0190,0.0184,0.0079
2855,0.0108,0.0249,0.0226,0.0086
2856,0.0045,0.0177,0.0190,0.0037
2857,0.0092,0.0829,0.0881,0.0359
2858,0.0096,0.0435,0.0422,0.0235
2859,0.0103,0.0316,0.0305,0.0191
2860,0.0120,0.0276,0.0270,0.0175
2861,0.0138,0.0307,0.0295,0.0175
2862,0.0145,0.0391,0.0377,0.0182
2863,0.0149,0.0342,0.0358,0.0155
2864,0.0138,0.0316,0.0361,0.0122
2865,0.0122,0.0265,0.0324,0.0068
2866,0.0107,0.0182,0.0237,0.0060
2867,0.0080,0.0323,0.0319,0.0046
2868,0.0106,0.0755,0.0746,0.0358
2869,0.0050,0.0197,0.0198,0.0039
2870,0.0061,0.0238,0.0295,0.0044
2871,0.0064,0.0448,0.0455,0.0040
2872,0.0062,0.0251,0.0281,0.0062
2873,0.0060,0.0245,0.0275,0.0083
2874,0.0064,0.0272,0.0310,0.0115
2875,0.0071,0.0331,0.0382,0.0146
2876,0.0079,0.0446,0.0498,0.0176
2877,0.0088,0.0534,0.0573,0.0187
2878,0.0097,0.0451,0.0468,0.0143
2879,0.0111,0.0678,0.0624,0.0376
2880,0.0099,0.0419,0.0432,0.0152
2881,0.0054,0.0171,0.0181,0.0042
2882,0.0043,0.0118,0.0130,0.0035
2883,0.0043,0.0118,0.0130,0.0035
2884,0.0042,0.0140,0.0160,0.0036
2885,0.0043,0.0118,0.0130,0.0035
2886,0.0043,0.0118,0.0130,0.0035
2887,0.0043,0.0118,0.0130,0.0035
2888,0.0043,0.0118,0.0130,0.0035
2889,0.0042,0.0140,0.0160,0.0036
2890,0.0055,0.0257,0.0220,0.0052
2891,0.0043,0.0118,0.0130,0.0035
2892,0.0043,0.0118,0.0130,0.0035
2893,0.0059,0.0114,0.0115,0.0044
2894,0.0043,0.0118,0.0130,0.0035
2895,0.0042,0.0140,0.0160,0.0036
2896,0.0043,0.0118,0.0130,0.0035
2897,0.0043,0.0118,0.0130,0.0035
2898,0.0043,0.0118,0.0130,0.0035
2899,0.0043,0.0118,0.0130,0.0035
2900,0.0042,0.0140,0.0160,0.0036
2901,0.0048,0.0141,0.0128,0.0037
2902,0.0043,0.0118,0.0130,0.0035
2903,0.0043,0.0118,0.0130,0.0035
2904,0.0043,0.0118,0.0130,0.0035
2905,0.0064,0.0127,0.0124,0.0051
2906,0.0042,0.0140,0.0160,0.0036
2907,0.0043,0.0118,0.0130,0.0035
2908,0.0043,0.0118,0.0130,0.0035
2909,0.0043,0.0118,0.0130,0.0035
2910,0.0043,0.0118,0.0130,0.0035
2911,0.0042,0.0140,0.0160,0.0036
2912,0.0048,0.0141,0.0128,0.0037
2913,0.0043,0.0118,0.0130,0.0035
2914,0.0043,0.0118,0.0130,0.0035
2915,0.0043,0.0118,0.0130,0.0035
2916,0.0043,0.0118,0.0130,0.0035
2917,0.0069,0.0114,0.0108,0.0056
2918,0.0043,0.0118,0.0130,0.0035
2919,0.0043,0.0118,0.0130,0.0035
2920,0.0043,0.0118,0.0130,0.0035
2921,0.0043,0.0118,0.0130,0.0035
2922,0.0042,0.0140,0.0160,0.0036
2923,0.0047,0.0161,0.0159,0.0039
2924,0.0210,0.0200,0.0301,0.0079
2925,0.0170,0.0147,0.0220,0.0054
2926,0.0134,0.0139,0.0182,0.0045
2927,0.0102,0.0127,0.0143,0.0048
2928,0.0064,0.0107,0.0106,0.0048
2929,0.0078,0.0154,0.0138,0.0071
2930,0.0063,0.0140,0.0132,0.0054
2931,0.0056,0.0156,0.0151,0.0050
2932,0.0052,0.0160,0.0167,0.0043
2933,0.0046,0.0185,0.0207,0.0038
2934,0.0054,0.0167,0.0172,0.0039
2935,0.0048,0.0141,0.0128,0.0037
2936,0.0042,0.0136,0.0149,0.0035
2937,0.0046,0.0116,0.0128,0.0036
2938,0.0046,0.0139,0.0150,0.0037
2939,0.0050,0.0197,0.0198,0.0039
2940,0.0053,0.0238,0.0246,0.0041
2941,0.0059,0.0114,0.0115,0.0044
2942,0.0091,0.0190,0.0184,0.0079
2943,0.0064,0.0127,0.0124,0.0051
2944,0.0070,0.0138,0.0122,0.0061
2945,0.0076,0.0146,0.0142,0.0067
2946,0.0048,0.0141,0.0128,0.0037
2947,0.0091,0.0190,0.0184,0.0079
2948,0.0108,0.0249,0.0226,0.0086
2949,0.0096,0.0435,0.0422,0.0235
2950,0.0103,0.0316,0.0305,0.0191
2951,0.0120,0.0335,0.0315,0.0195
2952,0.0115,0.0464,0.0452,0.0186
2953,0.0091,0.0344,0.0362,0.0195
2954,0.0080,0.0305,0.0354,0.0255
2955,0.0067,0.0270,0.0329,0.0274
2956,0.0060,0.0262,0.0317,0.0268
2957,0.0048,0.0141,0.0128,0.0037
2958,0.0043,0.0123,0.0138,0.0035
2959,0.0043,0.0123,0.0138,0.0035
2960,0.0043,0.0123,0.0138,0.0035
2961,0.0045,0.0121,0.0132,0.0036
2962,0.0044,0.0144,0.0160,0.0037
2963,0.0045,0.0153,0.0161,0.0037
2964,0.0050,0.0213,0.0207,0.0039
2965,0.0054,0.0168,0.0165,0.0042
2966,0.0059,0.0106,0.0112,0.0045
2967,0.0064,0.0091,0.0090,0.0048
2968,0.0048,0.0141,0.0128,0.0037
2969,0.0070,0.0136,0.0123,0.0061
2970,0.0078,0.0148,0.0136,0.0071
2971,0.0090,0.0182,0.0171,0.0079
2972,0.0107,0.0255,0.0229,0.0086
2973,0.0045,0.0188,0.0197,0.0038
2974,0.0095,0.0505,0.0490,0.0284
2975,0.0102,0.0375,0.0365,0.0231
2976,0.0120,0.0336,0.0327,0.0206
2977,0.0138,0.0355,0.0350,0.0200
2978,0.0145,0.0437,0.0434,0.0204
2979,0.0047,0.0161,0.0159,0.0039
2980,0.0148,0.0383,0.0413,0.0171
2981,0.0138,0.0360,0.0422,0.0133
2982,0.0122,0.0299,0.0379,0.0077
2983,0.0109,0.0208,0.0278,0.0068
2984,0.0082,0.0353,0.0367,0.0049
2985,0.0050,0.0213,0.0207,0.0039
2986,0.0060,0.0263,0.0335,0.0043
2987,0.0064,0.0422,0.0427,0.0040
2988,0.0063,0.0259,0.0302,0.0064
2989,0.0062,0.0278,0.0323,0.0088
2990,0.0048,0.0141,0.0128,0.0037
2991,0.0065,0.0291,0.0332,0.0119
2992,0.0071,0.0331,0.0381,0.0146
2993,0.0079,0.0429,0.0481,0.0173
2994,0.0087,0.0508,0.0550,0.0182
2995,0.0097,0.0434,0.0457,0.0151
2996,0.0099,0.0431,0.0449,0.0182
2997,0.0054,0.0168,0.0165,0.0042
2998,0.0043,0.0123,0.0138,0.0035
2999,0.0043,0.0123,0.0138,0.0035
3000,0.0042,0.0142,0.0165,0.0036
3001,0.0048,0.0141,0.0128,0.0037
3002,0.0043,0.0123,0.0138,0.0035
3003,0.0043,0.0123,0.0138,0.0035
3004,0.0043,0.0123,0.0138,0.0035
3005,0.0043,0.0123,0.0138,0.0035
3006,0.0042,0.0142,0.0165,0.0036
3007,0.0043,0.0123,0.0138,0.0035
3008,0.0043,0.0123,0.0138,0.0035
3009,0.0059,0.0106,0.0112,0.0045
3010,0.0043,0.0123,0.0138,0.0035
3011,0.0042,0.0142,0.0165,0.0036
3012,0.0059,0.0222,0.0152,0.0059
3013,0.0043,0.0123,0.0138,0.0035
3014,0.0043,0.0123,0.0138,0.0035
3015,0.0043,0.0123,0.0138,0.0035
3016,0.0043,0.0123,0.0138,0.0035
3017,0.0042,0.0142,0.0165,0.0036
3018,0.0043,0.0123,0.0138,0.0035
3019,0.0043,0.0123,0.0138,0.0035
3020,0.0043,0.0123,0.0138,0.0035
3021,0.0064,0.0108,0.0105,0.0051
3022,0.0042,0.0142,0.0165,0.0036
3023,0.0048,0.0141,0.0128,0.0037
3024,0.0043,0.0123,0.0138,0.0035
3025,0.0043,0.0123,0.0138,0.0035
3026,0.0043,0.0123,0.0138,0.0035
3027,0.0043,0.0123,0.0138,0.0035
3028,0.0042,0.0142,0.0165,0.0036
3029,0.0043,0.0123,0.0138,0.0035
3030,0.0043,0.0123,0.0138,0.0035
3031,0.0043,0.0123,0.0138,0.0035
3032,0.0043,0.0123,0.0138,0.0035
3033,0.0069,0.0111,0.0107,0.0056
3034,0.0047,0.0161,0.0159,0.0039
3035,0.0043,0.0123,0.0138,0.0035
3036,0.0043,0.0123,0.0138,0.0035
3037,0.0043,0.0123,0.0138,0.0035
3038,0.0043,0.0123,0.0138,0.0035
3039,0.0042,0.0142,0.0165,0.0036
3040,0.0210,0.0211,0.0348,0.0074
3041,0.0170,0.0160,0.0270,0.0051
3042,0.0134,0.0146,0.0218,0.0043
3043,0.0102,0.0131,0.0176,0.0049
3044,0.0064,0.0091,0.0090,0.0048
3045,0.0055,0.0165,0.0154,0.0039
3046,0.0048,0.0141,0.0128,0.0037
3047,0.0078,0.0148,0.0136,0.0071
3048,0.0064,0.0144,0.0155,0.0056
3049,0.0057,0.0157,0.0158,0.0052
3050,0.0053,0.0152,0.0164,0.0045
3051,0.0046,0.0176,0.0199,0.0040
3052,0.0042,0.0140,0.0157,0.0035
3053,0.0045,0.0121,0.0132,0.0036
3054,0.0045,0.0153,0.0161,0.0037
3055,0.0050,0.0213,0.0207,0.0039
3056,0.0054,0.0237,0.0236,0.0042
3057,0.0048,0.0141,0.0128,0.0037
3058,0.0059,0.0106,0.0112,0.0045
3059,0.0090,0.0182,0.0171,0.0079
3060,0.0064,0.0108,0.0105,0.0051
3061,0.0070,0.0136,0.0123,0.0061
3062,0.0076,0.0138,0.0137,0.0066
3063,0.0090,0.0182,0.0171,0.0079
3064,0.0107,0.0255,0.0229,0.0086
3065,0.0095,0.0505,0.0490,0.0284
3066,0.0102,0.0375,0.0365,0.0231
3067,0.0119,0.0394,0.0375,0.0228
3068,0.0048,0.0141,0.0128,0.0037
3069,0.0116,0.0493,0.0486,0.0202
3070,0.0090,0.0362,0.0384,0.0216
3071,0.0079,0.0324,0.0385,0.0294
3072,0.0068,0.0301,0.0371,0.0326
3073,0.0060,0.0281,0.0348,0.0317
3074,0.0040,0.0144,0.0145,0.0040
3075,0.0040,0.0144,0.0145,0.0040
3076,0.0042,0.0130,0.0124,0.0038
3077,0.0049,0.0144,0.0153,0.0040
3078,0.0049,0.0172,0.0184,0.0042
3079,0.0048,0.0141,0.0128,0.0037
3080,0.0050,0.0145,0.0135,0.0038
3081,0.0045,0.0263,0.0241,0.0043
3082,0.0043,0.0252,0.0216,0.0046
3083,0.0045,0.0213,0.0158,0.0050
3084,0.0046,0.0219,0.0150,0.0051
3085,0.0052,0.0202,0.0127,0.0056
3086,0.0063,0.0243,0.0181,0.0062
3087,0.0071,0.0220,0.0173,0.0068
3088,0.0087,0.0261,0.0221,0.0083
3089,0.0049,0.0194,0.0192,0.0041
3090,0.0047,0.0161,0.0159,0.0039
3091,0.0100,0.0498,0.0462,0.0347
3092,0.0086,0.0435,0.0417,0.0287
3093,0.0088,0.0374,0.0409,0.0233
3094,0.0101,0.0356,0.0383,0.0184
3095,0.0108,0.0401,0.0406,0.0168
3096,0.0115,0.0279,0.0316,0.0115
3097,0.0092,0.0304,0.0350,0.0102
3098,0.0067,0.0260,0.0331,0.0088
3099,0.0054,0.0231,0.0310,0.0079
3100,0.0053,0.0303,0.0319,0.0048
3101,0.0048,0.0141,0.0128,0.0037
3102,0.0045,0.0263,0.0241,0.0043
3103,0.0053,0.0352,0.0383,0.0046
3104,0.0039,0.0540,0.0633,0.0042
3105,0.0042,0.0305,0.0420,0.0047
3106,0.0041,0.0271,0.0354,0.0062
3107,0.0042,0.0271,0.0357,0.0092
3108,0.0042,0.0363,0.0451,0.0148
3109,0.0047,0.0585,0.0656,0.0244
3110,0.0057,0.0623,0.0644,0.0283
3111,0.0069,0.0567,0.0531,0.0307
3112,0.0048,0.0141,0.0128,0.0037
3113,0.0070,0.0530,0.0456,0.0338
3114,0.0043,0.0252,0.0216,0.0046
3115,0.0040,0.0144,0.0145,0.0040
3116,0.0042,0.0130,0.0124,0.0038
3117,0.0040,0.0173,0.0177,0.0042
3118,0.0040,0.0144,0.0145,0.0040
3119,0.0042,0.0130,0.0124,0.0038
3120,0.0040,0.0144,0.0145,0.0040
3121,0.0040,0.0144,0.0145,0.0040
3122,0.0040,0.0173,0.0177,0.0042
3123,0.0048,0.0141,0.0128,0.0037
3124,0.0040,0.0144,0.0145,0.0040
3125,0.0040,0.0144,0.0145,0.0040
3126,0.0045,0.0213,0.0158,0.0050
3127,0.0040,0.0144,0.0145,0.0040
3128,0.0040,0.0173,0.0177,0.0042
3129,0.0042,0.0130,0.0124,0.0038
3130,0.0040,0.0144,0.0145,0.0040
3131,0.0040,0.0144,0.0145,0.0040
3132,0.0042,0.0130,0.0124,0.0038
3133,0.0040,0.0173,0.0177,0.0042
3134,0.0065,0.0245,0.0161,0.0067
3135,0.0040,0.0144,0.0145,0.0040
3136,0.0042,0.0130,0.0124,0.0038
3137,0.0040,0.0144,0.0145,0.0040
3138,0.0047,0.0214,0.0142,0.0052
3139,0.0040,0.0173,0.0177,0.0042
3140,0.0040,0.0144,0.0145,0.0040
3141,0.0040,0.0144,0.0145,0.0040
3142,0.0042,0.0130,0.0124,0.0038
3143,0.0040,0.0144,0.0145,0.0040
3144,0.0040,0.0173,0.0177,0.0042
3145,0.0047,0.0161,0.0159,0.0039
3146,0.0042,0.0130,0.0124,0.0038
3147,0.0040,0.0144,0.0145,0.0040
3148,0.0040,0.0144,0.0145,0.0040
3149,0.0042,0.0130,0.0124,0.0038
3150,0.0051,0.0203,0.0133,0.0056
3151,0.0040,0.0144,0.0145,0.0040
3152,0.0042,0.0130,0.0124,0.0038
3153,0.0040,0.0144,0.0145,0.0040
3154,0.0040,0.0144,0.0145,0.0040
3155,0.0040,0.0173,0.0177,0.0042
3156,0.0053,0.0261,0.0239,0.0045
3157,0.0048,0.0141,0.0128,0.0037
3158,0.0167,0.0163,0.0220,0.0109
3159,0.0132,0.0143,0.0218,0.0082
3160,0.0105,0.0145,0.0244,0.0062
3161,0.0074,0.0141,0.0222,0.0058
3162,0.0046,0.0219,0.0150,0.0051
3163,0.0063,0.0243,0.0181,0.0062
3164,0.0045,0.0136,0.0181,0.0053
3165,0.0040,0.0147,0.0154,0.0049
3166,0.0037,0.0136,0.0127,0.0042
3167,0.0032,0.0191,0.0199,0.0043
3168,0.0048,0.0141,0.0128,0.0037
3169,0.0031,0.0151,0.0141,0.0040
3170,0.0050,0.0124,0.0129,0.0038
3171,0.0049,0.0159,0.0149,0.0040
3172,0.0045,0.0263,0.0241,0.0043
3173,0.0043,0.0304,0.0277,0.0046
3174,0.0044,0.0205,0.0143,0.0049
3175,0.0071,0.0220,0.0173,0.0068
3176,0.0048,0.0235,0.0165,0.0054
3177,0.0052,0.0202,0.0127,0.0056
3178,0.0057,0.0236,0.0180,0.0062
3179,0.0048,0.0141,0.0128,0.0037
3180,0.0075,0.0229,0.0187,0.0066
3181,0.0087,0.0261,0.0221,0.0083
3182,0.0100,0.0498,0.0462,0.0347
3183,0.0084,0.0406,0.0399,0.0284
3184,0.0090,0.0443,0.0443,0.0246
3185,0.0102,0.0390,0.0479,0.0469
3186,0.0082,0.0320,0.0423,0.0395
3187,0.0065,0.0286,0.0406,0.0340
3188,0.0049,0.0300,0.0439,0.0308
3189,0.0041,0.0326,0.0482,0.0285
3190,0.0048,0.0141,0.0128,0.0037
3191,0.0038,0.0130,0.0140,0.0039
3192,0.0038,0.0130,0.0140,0.0039
3193,0.0039,0.0116,0.0118,0.0038
3194,0.0045,0.0123,0.0132,0.0039
3195,0.0045,0.0151,0.0163,0.0041
3196,0.0046,0.0149,0.0147,0.0038
3197,0.0042,0.0256,0.0244,0.0041
3198,0.0041,0.0240,0.0213,0.0043
3199,0.0044,0.0213,0.0181,0.0046
3200,0.0045,0.0195,0.0152,0.0048
3201,0.0047,0.0161,0.0159,0.0039
3202,0.0050,0.0191,0.0140,0.0052
3203,0.0060,0.0227,0.0184,0.0059
3204,0.0068,0.0200,0.0168,0.0065
3205,0.0084,0.0254,0.0227,0.0081
3206,0.0044,0.0194,0.0196,0.0041
3207,0.0092,0.0468,0.0445,0.0286
3208,0.0079,0.0382,0.0362,0.0229
3209,0.0081,0.0306,0.0325,0.0176
3210,0.0093,0.0321,0.0326,0.0157
3211,0.0101,0.0398,0.0386,0.0167
3212,0.0048,0.0141,0.0128,0.0037
3213,0.0108,0.0270,0.0276,0.0106
3214,0.0085,0.0297,0.0327,0.0095
3215,0.0063,0.0243,0.0295,0.0071
3216,0.0055,0.0186,0.0240,0.0062
3217,0.0059,0.0297,0.0310,0.0047
3218,0.0042,0.0256,0.0244,0.0041
3219,0.0054,0.0312,0.0350,0.0046
3220,0.0038,0.0489,0.0551,0.0042
3221,0.0038,0.0250,0.0331,0.0047
3222,0.0038,0.0243,0.0299,0.0060
3223,0.0048,0.0141,0.0128,0.0037
3224,0.0040,0.0223,0.0278,0.0079
3225,0.0042,0.0297,0.0362,0.0122
3226,0.0047,0.0514,0.0572,0.0207
3227,0.0055,0.0543,0.0555,0.0230
3228,0.0066,0.0477,0.0445,0.0244
3229,0.0065,0.0435,0.0372,0.0257
3230,0.0041,0.0240,0.0213,0.0043
3231,0.0038,0.0130,0.0140,0.0039
3232,0.0039,0.0116,0.0118,0.0038
3233,0.0037,0.0160,0.0172,0.0041
3234,0.0048,0.0141,0.0128,0.0037
3235,0.0038,0.0130,0.0140,0.0039
3236,0.0039,0.0116,0.0118,0.0038
3237,0.0038,0.0130,0.0140,0.0039
3238,0.0038,0.0130,0.0140,0.0039
3239,0.0037,0.0160,0.0172,0.0041
3240,0.0038,0.0130,0.0140,0.0039
3241,0.0038,0.0130,0.0140,0.0039
3242,0.0044,0.0213,0.0181,0.0046
3243,0.0038,0.0130,0.0140,0.0039
3244,0.0037,0.0160,0.0172,0.0041
3245,0.0048,0.0141,0.0128,0.0037
3246,0.0039,0.0116,0.0118,0.0038
3247,0.0038,0.0130,0.0140,0.0039
3248,0.0038,0.0130,0.0140,0.0039
3249,0.0039,0.0116,0.0118,0.0038
3250,0.0037,0.0160,0.0172,0.0041
3251,0.0038,0.0130,0.0140,0.0039
3252,0.0039,0.0116,0.0118,0.0038
3253,0.0038,0.0130,0.0140,0.0039
3254,0.0046,0.0196,0.0148,0.0048
3255,0.0037,0.0160,0.0172,0.0041
3256,0.0070,0.0226,0.0138,0.0070
3257,0.0038,0.0130,0.0140,0.0039
3258,0.0038,0.0130,0.0140,0.0039
3259,0.0039,0.0116,0.0118,0.0038
3260,0.0038,0.0130,0.0140,0.0039
3261,0.0037,0.0160,0.0172,0.0041
3262,0.0039,0.0116,0.0118,0.0038
3263,0.0038,0.0130,0.0140,0.0039
3264,0.0038,0.0130,0.0140,0.0039
3265,0.0039,0.0116,0.0118,0.0038
3266,0.0049,0.0193,0.0147,0.0053
3267,0.0055,0.0257,0.0220,0.0052
3268,0.0048,0.0141,0.0128,0.0037
3269,0.0038,0.0130,0.0140,0.0039
3270,0.0039,0.0116,0.0118,0.0038
3271,0.0038,0.0130,0.0140,0.0039
3272,0.0038,0.0130,0.0140,0.0039
3273,0.0037,0.0160,0.0172,0.0041
3274,0.0165,0.0164,0.0199,0.0105
3275,0.0130,0.0135,0.0173,0.0077
3276,0.0104,0.0131,0.0183,0.0058
3277,0.0073,0.0129,0.0168,0.0055
3278,0.0045,0.0195,0.0152,0.0048
3279,0.0048,0.0141,0.0128,0.0037
3280,0.0060,0.0227,0.0184,0.0059
3281,0.0046,0.0130,0.0148,0.0052
3282,0.0041,0.0144,0.0139,0.0049
3283,0.0038,0.0121,0.0118,0.0042
3284,0.0032,0.0186,0.0201,0.0042
3285,0.0030,0.0150,0.0151,0.0039
3286,0.0046,0.0106,0.0110,0.0037
3287,0.0044,0.0161,0.0158,0.0039
3288,0.0042,0.0256,0.0244,0.0041
3289,0.0041,0.0294,0.0274,0.0044
3290,0.0048,0.0141,0.0128,0.0037
3291,0.0043,0.0205,0.0169,0.0045
3292,0.0068,0.0200,0.0168,0.0065
3293,0.0047,0.0217,0.0170,0.0050
3294,0.0050,0.0191,0.0140,0.0052
3295,0.0055,0.0220,0.0182,0.0059
3296,0.0072,0.0212,0.0184,0.0063
3297,0.0084,0.0254,0.0227,0.0081
3298,0.0092,0.0468,0.0445,0.0286
3299,0.0077,0.0331,0.0321,0.0212
3300,0.0082,0.0411,0.0397,0.0215
3301,0.0048,0.0141,0.0128,0.0037
3302,0.0098,0.0390,0.0459,0.0386
3303,0.0082,0.0314,0.0386,0.0316
3304,0.0065,0.0267,0.0344,0.0266
3305,0.0050,0.0260,0.0353,0.0238
3306,0.0042,0.0278,0.0389,0.0224
3307,0.0034,0.0113,0.0132,0.0039
3308,0.0034,0.0113,0.0132,0.0039
3309,0.0036,0.0103,0.0114,0.0037
3310,0.0040,0.0112,0.0126,0.0039
3311,0.0039,0.0140,0.0156,0.0041
3312,0.0047,0.0161,0.0159,0.0039
3313,0.0040,0.0125,0.0134,0.0037
3314,0.0039,0.0217,0.0216,0.0039
3315,0.0040,0.0209,0.0217,0.0040
3316,0.0043,0.0154,0.0155,0.0041
3317,0.0046,0.0155,0.0142,0.0045
3318,0.0048,0.0149,0.0135,0.0048
3319,0.0056,0.0162,0.0150,0.0054
3320,0.0064,0.0178,0.0172,0.0063
3321,0.0079,0.0265,0.0237,0.0079
3322,0.0039,0.0184,0.0193,0.0040
3323,0.0217,0.0173,0.0223,0.0106
3324,0.0078,0.0516,0.0508,0.0277
3325,0.0065,0.0381,0.0359,0.0213
3326,0.0069,0.0257,0.0241,0.0143
3327,0.0082,0.0338,0.0309,0.0174
3328,0.0087,0.0436,0.0423,0.0204
3329,0.0096,0.0316,0.0308,0.0131
3330,0.0076,0.0341,0.0378,0.0116
3331,0.0062,0.0260,0.0321,0.0069
3332,0.0065,0.0137,0.0183,0.0049
3333,0.0073,0.0310,0.0340,0.0049
3334,0.0176,0.0163,0.0254,0.0081
3335,0.0039,0.0217,0.0216,0.0039
3336,0.0055,0.0261,0.0320,0.0047
3337,0.0039,0.0396,0.0395,0.0041
3338,0.0037,0.0170,0.0200,0.0051
3339,0.0038,0.0243,0.0274,0.0067
3340,0.0038,0.0180,0.0194,0.0068
3341,0.0041,0.0199,0.0227,0.0085
3342,0.0046,0.0375,0.0414,0.0139
3343,0.0052,0.0388,0.0393,0.0132
3344,0.0060,0.0317,0.0301,0.0138
3345,0.0140,0.0173,0.0273,0.0065
3346,0.0056,0.0280,0.0267,0.0123
3347,0.0040,0.0209,0.0217,0.0040
3348,0.0034,0.0113,0.0132,0.0039
3349,0.0036,0.0103,0.0114,0.0037
3350,0.0034,0.0144,0.0164,0.0040
3351,0.0034,0.0113,0.0132,0.0039
3352,0.0036,0.0103,0.0114,0.0037
3353,0.0034,0.0113,0.0132,0.0039
3354,0.0034,0.0113,0.0132,0.0039
3355,0.0034,0.0144,0.0164,0.0040
3356,0.0106,0.0169,0.0270,0.0058
3357,0.0034,0.0113,0.0132,0.0039
3358,0.0034,0.0113,0.0132,0.0039
3359,0.0043,0.0154,0.0155,0.0041
3360,0.0034,0.0113,0.0132,0.0039
3361,0.0034,0.0144,0.0164,0.0040
3362,0.0036,0.0103,0.0114,0.0037
3363,0.0034,0.0113,0.0132,0.0039
3364,0.0034,0.0113,0.0132,0.0039
3365,0.0036,0.0103,0.0114,0.0037
3366,0.0034,0.0144,0.0164,0.0040
3367,0.0064,0.0231,0.0146,0.0062
3368,0.0034,0.0113,0.0132,0.0039
3369,0.0036,0.0103,0.0114,0.0037
3370,0.0034,0.0113,0.0132,0.0039
3371,0.0046,0.0149,0.0136,0.0044
3372,0.0034,0.0144,0.0164,0.0040
3373,0.0034,0.0113,0.0132,0.0039
3374,0.0034,0.0113,0.0132,0.0039
3375,0.0036,0.0103,0.0114,0.0037
3376,0.0034,0.0113,0.0132,0.0039
3377,0.0034,0.0144,0.0164,0.0040
3378,0.0059,0.0222,0.0152,0.0059
3379,0.0083,0.0264,0.0177,0.0085
3380,0.0036,0.0103,0.0114,0.0037
3381,0.0034,0.0113,0.0132,0.0039
3382,0.0034,0.0113,0.0132,0.0039
3383,0.0036,0.0103,0.0114,0.0037
3384,0.0048,0.0152,0.0140,0.0050
3385,0.0034,0.0113,0.0132,0.0039
3386,0.0036,0.0103,0.0114,0.0037
3387,0.0034,0.0113,0.0132,0.0039
3388,0.0034,0.0113,0.0132,0.0039
3389,0.0034,0.0144,0.0164,0.0040
3390,0.0060,0.0158,0.0212,0.0051
3391,0.0162,0.0170,0.0245,0.0093
3392,0.0127,0.0131,0.0171,0.0066
3393,0.0101,0.0113,0.0127,0.0048
3394,0.0074,0.0114,0.0117,0.0049
3395,0.0046,0.0155,0.0142,0.0045
3396,0.0056,0.0162,0.0150,0.0054
3397,0.0050,0.0122,0.0123,0.0053
3398,0.0046,0.0138,0.0143,0.0050
3399,0.0041,0.0126,0.0129,0.0043
3400,0.0035,0.0176,0.0206,0.0042
3401,0.0050,0.0158,0.0169,0.0046
3402,0.0029,0.0124,0.0142,0.0038
3403,0.0041,0.0095,0.0105,0.0037
3404,0.0039,0.0144,0.0150,0.0039
3405,0.0039,0.0217,0.0216,0.0039
3406,0.0040,0.0276,0.0283,0.0042
3407,0.0043,0.0150,0.0144,0.0041
3408,0.0064,0.0178,0.0172,0.0063
3409,0.0046,0.0171,0.0157,0.0045
3410,0.0048,0.0149,0.0135,0.0048
3411,0.0052,0.0160,0.0149,0.0056
3412,0.0047,0.0155,0.0143,0.0041
3413,0.0067,0.0192,0.0188,0.0060
3414,0.0079,0.0265,0.0237,0.0079
3415,0.0078,0.0516,0.0508,0.0277
3416,0.0065,0.0291,0.0274,0.0162
3417,0.0069,0.0421,0.0396,0.0230
3418,0.0086,0.0409,0.0457,0.0263
3419,0.0081,0.0328,0.0383,0.0241
3420,0.0067,0.0271,0.0313,0.0231
3421,0.0053,0.0232,0.0270,0.0225
3422,0.0043,0.0222,0.0258,0.0223
3423,0.0043,0.0183,0.0178,0.0039
3424,0.0033,0.0120,0.0145,0.0038
3425,0.0033,0.0120,0.0145,0.0038
3426,0.0035,0.0112,0.0128,0.0037
3427,0.0038,0.0114,0.0131,0.0039
3428,0.0037,0.0145,0.0163,0.0041
3429,0.0038,0.0115,0.0128,0.0037
3430,0.0039,0.0204,0.0202,0.0039
3431,0.0040,0.0172,0.0178,0.0041
3432,0.0043,0.0110,0.0128,0.0041
3433,0.0046,0.0114,0.0121,0.0046
3434,0.0043,0.0152,0.0131,0.0037
3435,0.0048,0.0104,0.0104,0.0048
3436,0.0056,0.0148,0.0150,0.0054
3437,0.0062,0.0182,0.0174,0.0063
3438,0.0075,0.0264,0.0223,0.0079
3439,0.0036,0.0180,0.0190,0.0041
3440,0.0070,0.0651,0.0633,0.0368
3441,0.0059,0.0482,0.0464,0.0291
3442,0.0064,0.0341,0.0326,0.0209
3443,0.0077,0.0436,0.0418,0.0240
3444,0.0081,0.0521,0.0528,0.0254
3445,0.0054,0.0143,0.0141,0.0037
3446,0.0089,0.0387,0.0416,0.0172
3447,0.0073,0.0407,0.0484,0.0149
3448,0.0065,0.0330,0.0429,0.0091
3449,0.0071,0.0189,0.0271,0.0062
3450,0.0083,0.0346,0.0401,0.0053
3451,0.0039,0.0204,0.0202,0.0039
3452,0.0055,0.0262,0.0336,0.0047
3453,0.0040,0.0319,0.0291,0.0042
3454,0.0042,0.0184,0.0232,0.0058
3455,0.0042,0.0301,0.0359,0.0081
3456,0.0055,0.0165,0.0154,0.0039
3457,0.0039,0.0231,0.0261,0.0081
3458,0.0042,0.0191,0.0217,0.0085
3459,0.0046,0.0293,0.0328,0.0109
3460,0.0051,0.0291,0.0304,0.0095
3461,0.0057,0.0248,0.0262,0.0135
3462,0.0054,0.0267,0.0295,0.0142
3463,0.0040,0.0172,0.0178,0.0041
3464,0.0033,0.0120,0.0145,0.0038
3465,0.0035,0.0112,0.0128,0.0037
3466,0.0033,0.0149,0.0175,0.0040
3467,0.0053,0.0261,0.0239,0.0045
3468,0.0033,0.0120,0.0145,0.0038
3469,0.0035,0.0112,0.0128,0.0037
3470,0.0033,0.0120,0.0145,0.0038
3471,0.0033,0.0120,0.0145,0.0038
3472,0.0033,0.0149,0.0175,0.0040
3473,0.0033,0.0120,0.0145,0.0038
3474,0.0033,0.0120,0.0145,0.0038
3475,0.0043,0.0110,0.0128,0.0041
3476,0.0033,0.0120,0.0145,0.0038
3477,0.0033,0.0149,0.0175,0.0040
3478,0.0055,0.0299,0.0272,0.0050
3479,0.0035,0.0112,0.0128,0.0037
3480,0.0033,0.0120,0.0145,0.0038
3481,0.0033,0.0120,0.0145,0.0038
3482,0.0035,0.0112,0.0128,0.0037
3483,0.0033,0.0149,0.0175,0.0040
3484,0.0033,0.0120,0.0145,0.0038
3485,0.0035,0.0112,0.0128,0.0037
3486,0.0033,0.0120,0.0145,0.0038
3487,0.0046,0.0099,0.0107,0.0045
3488,0.0033,0.0149,0.0175,0.0040
3489,0.0064,0.0231,0.0146,0.0062
3490,0.0059,0.0222,0.0152,0.0059
3491,0.0033,0.0120,0.0145,0.0038
3492,0.0033,0.0120,0.0145,0.0038
3493,0.0035,0.0112,0.0128,0.0037
3494,0.0033,0.0120,0.0145,0.0038
3495,0.0033,0.0149,0.0175,0.0040
3496,0.0035,0.0112,0.0128,0.0037
3497,0.0033,0.0120,0.0145,0.0038
3498,0.0033,0.0120,0.0145,0.0038
3499,0.0035,0.0112,0.0128,0.0037
3500,0.0048,0.0110,0.0113,0.0051
3501,0.0097,0.0243,0.0183,0.0091
3502,0.0033,0.0120,0.0145,0.0038
3503,0.0035,0.0112,0.0128,0.0037
3504,0.0033,0.0120,0.0145,0.0038
3505,0.0033,0.0120,0.0145,0.0038
3506,0.0033,0.0149,0.0175,0.0040
3507,0.0160,0.0199,0.0347,0.0084
3508,0.0126,0.0136,0.0247,0.0056
3509,0.0101,0.0114,0.0185,0.0042
3510,0.0074,0.0107,0.0153,0.0047
3511,0.0046,0.0114,0.0121,0.0046
3512,0.0065,0.0245,0.0161,0.0067
3513,0.0056,0.0148,0.0150,0.0054
3514,0.0053,0.0124,0.0157,0.0056
3515,0.0050,0.0152,0.0183,0.0054
3516,0.0044,0.0147,0.0179,0.0045
3517,0.0037,0.0193,0.0239,0.0043
3518,0.0029,0.0136,0.0166,0.0038
3519,0.0039,0.0099,0.0113,0.0037
3520,0.0037,0.0138,0.0146,0.0039
3521,0.0039,0.0204,0.0202,0.0039
3522,0.0040,0.0250,0.0255,0.0043
3523,0.0072,0.0241,0.0150,0.0076
3524,0.0043,0.0109,0.0116,0.0042
3525,0.0062,0.0182,0.0174,0.0063
3526,0.0046,0.0125,0.0132,0.0044
3527,0.0048,0.0104,0.0104,0.0048
3528,0.0052,0.0153,0.0154,0.0058
3529,0.0065,0.0192,0.0189,0.0060
3530,0.0075,0.0264,0.0223,0.0079
3531,0.0070,0.0651,0.0633,0.0368
3532,0.0059,0.0394,0.0379,0.0239
3533,0.0063,0.0506,0.0489,0.0297
3534,0.0080,0.0255,0.0177,0.0079
3535,0.0074,0.0442,0.0499,0.0250
3536,0.0078,0.0359,0.0431,0.0281
3537,0.0069,0.0312,0.0386,0.0317
3538,0.0055,0.0267,0.0328,0.0323
3539,0.0045,0.0245,0.0286,0.0321
3540,0.0033,0.0124,0.0152,0.0038
3541,0.0033,0.0124,0.0152,0.0038
3542,0.0035,0.0116,0.0137,0.0036
3543,0.0037,0.0115,0.0131,0.0039
3544,0.0036,0.0144,0.0161,0.0041
3545,0.0097,0.0243,0.0183,0.0091
3546,0.0037,0.0127,0.0137,0.0038
3547,0.0039,0.0214,0.0206,0.0040
3548,0.0040,0.0166,0.0162,0.0042
3549,0.0043,0.0105,0.0129,0.0042
3550,0.0046,0.0101,0.0104,0.0048
3551,0.0048,0.0101,0.0105,0.0049
3552,0.0055,0.0146,0.0149,0.0055
3553,0.0061,0.0178,0.0161,0.0064
3554,0.0074,0.0274,0.0226,0.0080
3555,0.0036,0.0190,0.0197,0.0041
3556,0.0117,0.0253,0.0219,0.0096
3557,0.0067,0.0718,0.0696,0.0416
3558,0.0057,0.0544,0.0529,0.0334
3559,0.0063,0.0407,0.0390,0.0245
3560,0.0075,0.0486,0.0479,0.0269
3561,0.0080,0.0572,0.0591,0.0280
3562,0.0087,0.0432,0.0475,0.0191
3563,0.0073,0.0449,0.0542,0.0163
3564,0.0067,0.0367,0.0487,0.0103
3565,0.0077,0.0219,0.0317,0.0070
3566,0.0085,0.0378,0.0449,0.0055
3567,0.0115,0.0460,0.0407,0.0361
3568,0.0039,0.0214,0.0206,0.0040
3569,0.0054,0.0288,0.0377,0.0046
3570,0.0041,0.0295,0.0270,0.0042
3571,0.0045,0.0211,0.0281,0.0062
3572,0.0045,0.0340,0.0413,0.0089
3573,0.0040,0.0268,0.0311,0.0090
3574,0.0042,0.0218,0.0250,0.0096
3575,0.0046,0.0282,0.0319,0.0112
3576,0.0051,0.0272,0.0291,0.0104
3577,0.0057,0.0246,0.0271,0.0158
3578,0.0117,0.0468,0.0463,0.0328
3579,0.0054,0.0302,0.0336,0.0185
3580,0.0040,0.0166,0.0162,0.0042
3581,0.0033,0.0124,0.0152,0.0038
3582,0.0035,0.0116,0.0137,0.0036
3583,0.0033,0.0149,0.0177,0.0040
3584,0.0033,0.0124,0.0152,0.0038
3585,0.0035,0.0116,0.0137,0.0036
3586,0.0033,0.0124,0.0152,0.0038
3587,0.0033,0.0124,0.0152,0.0038
3588,0.0033,0.0149,0.0177,0.0040
3589,0.0134,0.0424,0.0449,0.0257
3590,0.0033,0.0124,0.0152,0.0038
3591,0.0033,0.0124,0.0152,0.0038
3592,0.0043,0.0105,0.0129,0.0042
3593,0.0033,0.0124,0.0152,0.0038
3594,0.0033,0.0149,0.0177,0.0040
3595,0.0035,0.0116,0.0137,0.0036
3596,0.0033,0.0124,0.0152,0.0038
3597,0.0033,0.0124,0.0152,0.0038
3598,0.0035,0.0116,0.0137,0.0036
3599,0.0033,0.0149,0.0177,0.0040
Total Error Summary
Vdc  RMSE=  0.0052
Idc  RMSE=  0.0236
Id   RMSE=  0.0246
Iq   RMSE=  0.0113
