Read Model from: ./ucf10t1siir/
Export Model to: ./ucf10t1siir/ucf10t1siir_fhf.json
idx_in [0, 1, 2, 3, 4, 5, 6]
idx_out [7, 8, 9, 10]
make_mimo_block iir
H1s[0][0]  Real Poles: [-1185.11591866  -760.04836321] Freqs [Hz]: []
H1s[0][1]  Real Poles: [-1244.28329329  -694.08300434] Freqs [Hz]: []
H1s[0][2]  Real Poles: [-1365.35833621  -457.71998322] Freqs [Hz]: []
H1s[0][3]  Real Poles: [-1169.9966584   -801.04038672] Freqs [Hz]: []
H1s[1][0]  Real Poles: [-1027.13381872 -1027.13381872] Freqs [Hz]: [35.68638047575777]
H1s[1][1]  Real Poles: [-1372.19194946  -401.36753144] Freqs [Hz]: []
H1s[1][2]  Real Poles: [-1203.67401941  -737.73897709] Freqs [Hz]: []
H1s[1][3]  Real Poles: [-1000.40532151 -1000.40532151] Freqs [Hz]: [20.362180519196443]
H1s[2][0]  Real Poles: [-1196.75749223  -764.56310172] Freqs [Hz]: []
H1s[2][1]  Real Poles: [-1367.74125173  -429.7141932 ] Freqs [Hz]: []
H1s[2][2]  Real Poles: [-1297.13014949  -571.82716142] Freqs [Hz]: []
H1s[2][3]  Real Poles: [-1024.15684238 -1024.15684238] Freqs [Hz]: [37.53727366324137]
H1s[3][0]  Real Poles: [-1002.97094998 -1002.97094998] Freqs [Hz]: [19.425365361219146]
H1s[3][1]  Real Poles: [-1014.92694113 -1014.92694113] Freqs [Hz]: [28.183183649849923]
H1s[3][2]  Real Poles: [-1307.18199572  -562.33743169] Freqs [Hz]: []
H1s[3][3]  Real Poles: [-1338.45825649  -498.51883792] Freqs [Hz]: []
model_folder = ./ucf10t1siir/
model_root = ucf10t1siir
data_path = d:/data/ucf3/ucf9c.hdf5
idx_in [0, 1, 2, 3, 4, 5, 6]
idx_out [7, 8, 9, 10]
read 2100 dataframes
dt=0.001000 data_len=4001 n_io=11 n_case=2100
['G', 'Ud', 'Uq', 'Id', 'Iq', 'GIrms', 'Ctrl'] ['Vdc', 'Idc', 'Vd', 'Vq'] (2100, 4001, 11)
make_mimo_block iir
prepending initial conditions (2100, 500, 11) (2100, 4001, 11) float32 float32
results in (2100, 4501, 11)
Idx,Vdc,Idc,Vd,Vq
#,RMSE,RMSE,RMSE,RMSE
Total,0.0522,0.0185,0.0553,0.0093
0,0.0623,0.0102,0.0724,0.0052
1,0.0623,0.0102,0.0724,0.0052
2,0.0586,0.0336,0.0658,0.0050
3,0.0535,0.0402,0.0727,0.0133
4,0.0423,0.0090,0.0400,0.0040
5,0.0542,0.0106,0.0350,0.0112
6,0.0423,0.0090,0.0400,0.0040
7,0.0408,0.0082,0.0499,0.0060
8,0.0431,0.0150,0.0547,0.0095
9,0.0423,0.0090,0.0400,0.0040
10,0.0423,0.0090,0.0400,0.0040
11,0.0542,0.0106,0.0350,0.0112
12,0.0423,0.0090,0.0400,0.0040
13,0.0431,0.0150,0.0547,0.0095
14,0.0535,0.0402,0.0727,0.0133
15,0.0542,0.0106,0.0350,0.0112
16,0.0423,0.0090,0.0400,0.0040
17,0.0423,0.0090,0.0400,0.0040
18,0.0542,0.0106,0.0350,0.0112
19,0.0416,0.0150,0.0636,0.0093
20,0.0423,0.0090,0.0400,0.0040
21,0.0542,0.0106,0.0350,0.0112
22,0.0423,0.0090,0.0400,0.0040
23,0.0423,0.0090,0.0400,0.0040
24,0.0431,0.0150,0.0547,0.0095
25,0.0535,0.0402,0.0727,0.0133
26,0.1160,0.0094,0.0407,0.0071
27,0.1038,0.0093,0.0403,0.0065
28,0.1199,0.0112,0.0394,0.0117
29,0.0821,0.0091,0.0395,0.0054
30,0.0414,0.0136,0.0626,0.0096
31,0.0504,0.0106,0.0437,0.0119
32,0.0642,0.0090,0.0390,0.0046
33,0.0571,0.0089,0.0388,0.0044
34,0.0699,0.0109,0.0361,0.0112
35,0.0446,0.0147,0.0513,0.0091
36,0.0535,0.0402,0.0727,0.0133
37,0.0440,0.0090,0.0394,0.0040
38,0.0518,0.0105,0.0350,0.0112
39,0.0414,0.0096,0.0430,0.0045
40,0.0414,0.0096,0.0448,0.0051
41,0.0417,0.0129,0.0605,0.0103
42,0.0411,0.0087,0.0484,0.0062
43,0.0404,0.0111,0.0537,0.0044
44,0.0507,0.0109,0.0403,0.0117
45,0.0405,0.0084,0.0513,0.0055
46,0.0421,0.0171,0.0644,0.0092
47,0.0535,0.0402,0.0727,0.0133
48,0.0502,0.0107,0.0452,0.0116
49,0.0407,0.0135,0.0548,0.0042
50,0.0448,0.0091,0.0411,0.0121
51,0.0588,0.0106,0.0363,0.0166
52,0.0435,0.0144,0.0530,0.0131
53,0.0435,0.0144,0.0530,0.0131
54,0.0435,0.0144,0.0530,0.0131
55,0.0435,0.0144,0.0530,0.0131
56,0.0435,0.0144,0.0530,0.0131
57,0.0435,0.0144,0.0530,0.0131
58,0.0628,0.0114,0.0689,0.0048
59,0.0468,0.0123,0.0584,0.0057
60,0.0468,0.0123,0.0584,0.0057
61,0.0505,0.0154,0.0662,0.0121
62,0.0444,0.0130,0.0551,0.0053
63,0.0500,0.0234,0.0549,0.0093
64,0.0466,0.0130,0.0592,0.0120
65,0.0410,0.0199,0.0486,0.0045
66,0.0404,0.0240,0.0464,0.0048
67,0.0407,0.0200,0.0480,0.0116
68,0.0567,0.0356,0.0518,0.0095
69,0.0628,0.0114,0.0689,0.0048
70,0.0435,0.0336,0.0433,0.0050
71,0.0393,0.0326,0.0409,0.0116
72,0.0481,0.0385,0.0430,0.0045
73,0.0507,0.0406,0.0432,0.0045
74,0.0501,0.0263,0.0535,0.0097
75,0.0574,0.0370,0.0534,0.0115
76,0.0563,0.0336,0.0533,0.0105
77,0.0560,0.0199,0.0576,0.0157
78,0.0538,0.0250,0.0548,0.0086
79,0.0551,0.0333,0.0566,0.0111
80,0.0628,0.0114,0.0689,0.0048
81,0.0541,0.0138,0.0627,0.0135
82,0.0504,0.0148,0.0578,0.0059
83,0.0493,0.0134,0.0584,0.0054
84,0.0518,0.0144,0.0654,0.0117
85,0.0511,0.0209,0.0572,0.0091
86,0.0410,0.0199,0.0486,0.0045
87,0.0499,0.0158,0.0662,0.0129
88,0.0457,0.0126,0.0574,0.0068
89,0.0454,0.0127,0.0563,0.0074
90,0.0503,0.0242,0.0549,0.0117
91,0.0602,0.0104,0.0675,0.0045
92,0.0451,0.0140,0.0537,0.0085
93,0.0453,0.0166,0.0521,0.0093
94,0.0488,0.0140,0.0599,0.0171
95,0.0462,0.0278,0.0491,0.0119
96,0.0521,0.0482,0.0535,0.0141
97,0.0502,0.0254,0.0527,0.0179
98,0.0404,0.0240,0.0464,0.0048
99,0.0468,0.0123,0.0584,0.0057
100,0.0505,0.0154,0.0662,0.0121
101,0.0508,0.0203,0.0569,0.0091
102,0.0444,0.0157,0.0722,0.0100
103,0.0468,0.0123,0.0584,0.0057
104,0.0505,0.0154,0.0662,0.0121
105,0.0468,0.0123,0.0584,0.0057
106,0.0468,0.0123,0.0584,0.0057
107,0.0508,0.0203,0.0569,0.0091
108,0.0468,0.0123,0.0584,0.0057
109,0.0468,0.0123,0.0584,0.0057
110,0.0407,0.0200,0.0480,0.0116
111,0.0468,0.0123,0.0584,0.0057
112,0.0508,0.0203,0.0569,0.0091
113,0.0605,0.0358,0.0659,0.0046
114,0.0579,0.0108,0.0663,0.0043
115,0.0505,0.0154,0.0662,0.0121
116,0.0468,0.0123,0.0584,0.0057
117,0.0468,0.0123,0.0584,0.0057
118,0.0505,0.0154,0.0662,0.0121
119,0.0508,0.0203,0.0569,0.0091
120,0.0468,0.0123,0.0584,0.0057
121,0.0505,0.0154,0.0662,0.0121
122,0.0468,0.0123,0.0584,0.0057
123,0.0418,0.0308,0.0438,0.0052
124,0.0508,0.0203,0.0569,0.0091
125,0.0564,0.0127,0.0653,0.0045
126,0.0468,0.0123,0.0584,0.0057
127,0.0468,0.0123,0.0584,0.0057
128,0.0505,0.0154,0.0662,0.0121
129,0.0468,0.0123,0.0584,0.0057
130,0.0508,0.0203,0.0569,0.0091
131,0.0505,0.0154,0.0662,0.0121
132,0.0468,0.0123,0.0584,0.0057
133,0.0468,0.0123,0.0584,0.0057
134,0.0505,0.0154,0.0662,0.0121
135,0.0591,0.0375,0.0519,0.0092
136,0.0555,0.0150,0.0649,0.0050
137,0.0468,0.0123,0.0584,0.0057
138,0.0505,0.0154,0.0662,0.0121
139,0.0468,0.0123,0.0584,0.0057
140,0.0468,0.0123,0.0584,0.0057
141,0.0508,0.0203,0.0569,0.0091
142,0.0802,0.0342,0.0907,0.0108
143,0.0748,0.0322,0.0878,0.0102
144,0.0753,0.0353,0.0922,0.0134
145,0.0660,0.0275,0.0816,0.0090
146,0.0567,0.0356,0.0518,0.0095
147,0.0554,0.0168,0.0647,0.0055
148,0.0393,0.0326,0.0409,0.0116
149,0.0596,0.0222,0.0751,0.0080
150,0.0568,0.0194,0.0717,0.0075
151,0.0563,0.0232,0.0766,0.0124
152,0.0545,0.0172,0.0622,0.0096
153,0.0493,0.0129,0.0617,0.0062
154,0.0486,0.0137,0.0628,0.0121
155,0.0424,0.0156,0.0517,0.0047
156,0.0410,0.0199,0.0486,0.0045
157,0.0525,0.0313,0.0521,0.0100
158,0.0492,0.0204,0.0728,0.0100
159,0.0407,0.0277,0.0448,0.0051
160,0.0481,0.0385,0.0430,0.0045
161,0.0394,0.0248,0.0448,0.0115
162,0.0435,0.0336,0.0433,0.0050
163,0.0615,0.0394,0.0522,0.0091
164,0.0403,0.0357,0.0400,0.0115
165,0.0507,0.0406,0.0432,0.0045
166,0.0574,0.0370,0.0534,0.0115
167,0.0568,0.0251,0.0558,0.0162
168,0.0579,0.0398,0.0562,0.0125
169,0.0569,0.0198,0.0650,0.0051
170,0.0579,0.0398,0.0562,0.0125
171,0.0579,0.0398,0.0562,0.0125
172,0.0579,0.0398,0.0562,0.0125
173,0.0579,0.0398,0.0562,0.0125
174,0.0579,0.0398,0.0562,0.0125
175,0.0475,0.0135,0.0538,0.0054
176,0.0475,0.0135,0.0538,0.0054
177,0.0495,0.0176,0.0608,0.0120
178,0.0455,0.0124,0.0507,0.0050
179,0.0505,0.0177,0.0522,0.0094
180,0.0583,0.0210,0.0654,0.0047
181,0.0469,0.0144,0.0544,0.0119
182,0.0419,0.0136,0.0452,0.0045
183,0.0408,0.0156,0.0435,0.0049
184,0.0418,0.0144,0.0440,0.0116
185,0.0541,0.0237,0.0510,0.0095
186,0.0418,0.0214,0.0418,0.0051
187,0.0390,0.0215,0.0386,0.0116
188,0.0453,0.0251,0.0422,0.0046
189,0.0475,0.0268,0.0426,0.0046
190,0.0500,0.0187,0.0514,0.0098
191,0.0600,0.0222,0.0659,0.0043
192,0.0549,0.0255,0.0491,0.0116
193,0.0542,0.0228,0.0491,0.0107
194,0.0527,0.0149,0.0522,0.0157
195,0.0525,0.0169,0.0502,0.0088
196,0.0556,0.0236,0.0535,0.0111
197,0.0516,0.0149,0.0573,0.0137
198,0.0500,0.0120,0.0531,0.0060
199,0.0493,0.0121,0.0538,0.0053
200,0.0503,0.0166,0.0600,0.0117
201,0.0520,0.0171,0.0539,0.0090
202,0.0618,0.0233,0.0664,0.0041
203,0.0419,0.0136,0.0452,0.0045
204,0.0491,0.0181,0.0610,0.0126
205,0.0468,0.0143,0.0528,0.0065
206,0.0466,0.0142,0.0519,0.0071
207,0.0512,0.0193,0.0523,0.0117
208,0.0465,0.0137,0.0494,0.0084
209,0.0467,0.0145,0.0480,0.0091
210,0.0490,0.0154,0.0549,0.0169
211,0.0477,0.0220,0.0456,0.0119
212,0.0535,0.0383,0.0516,0.0141
213,0.0438,0.0169,0.0721,0.0105
214,0.0504,0.0215,0.0481,0.0176
215,0.0408,0.0156,0.0435,0.0049
216,0.0475,0.0135,0.0538,0.0054
217,0.0495,0.0176,0.0608,0.0120
218,0.0517,0.0170,0.0536,0.0090
219,0.0475,0.0135,0.0538,0.0054
220,0.0495,0.0176,0.0608,0.0120
221,0.0475,0.0135,0.0538,0.0054
222,0.0475,0.0135,0.0538,0.0054
223,0.0517,0.0170,0.0536,0.0090
224,0.0625,0.0377,0.0663,0.0042
225,0.0699,0.0256,0.0657,0.0120
226,0.0475,0.0135,0.0538,0.0054
227,0.0475,0.0135,0.0538,0.0054
228,0.0418,0.0144,0.0440,0.0116
229,0.0475,0.0135,0.0538,0.0054
230,0.0517,0.0170,0.0536,0.0090
231,0.0495,0.0176,0.0608,0.0120
232,0.0475,0.0135,0.0538,0.0054
233,0.0475,0.0135,0.0538,0.0054
234,0.0495,0.0176,0.0608,0.0120
235,0.0517,0.0170,0.0536,0.0090
236,0.0690,0.0227,0.0659,0.0110
237,0.0475,0.0135,0.0538,0.0054
238,0.0495,0.0176,0.0608,0.0120
239,0.0475,0.0135,0.0538,0.0054
240,0.0408,0.0196,0.0419,0.0053
241,0.0517,0.0170,0.0536,0.0090
242,0.0475,0.0135,0.0538,0.0054
243,0.0475,0.0135,0.0538,0.0054
244,0.0495,0.0176,0.0608,0.0120
245,0.0475,0.0135,0.0538,0.0054
246,0.0517,0.0170,0.0536,0.0090
247,0.0681,0.0195,0.0663,0.0101
248,0.0495,0.0176,0.0608,0.0120
249,0.0475,0.0135,0.0538,0.0054
250,0.0475,0.0135,0.0538,0.0054
251,0.0495,0.0176,0.0608,0.0120
252,0.0561,0.0251,0.0514,0.0092
253,0.0475,0.0135,0.0538,0.0054
254,0.0495,0.0176,0.0608,0.0120
255,0.0475,0.0135,0.0538,0.0054
256,0.0475,0.0135,0.0538,0.0054
257,0.0517,0.0170,0.0536,0.0090
258,0.0673,0.0162,0.0667,0.0092
259,0.0786,0.0315,0.0837,0.0104
260,0.0726,0.0302,0.0811,0.0098
261,0.0740,0.0322,0.0853,0.0132
262,0.0636,0.0269,0.0753,0.0087
263,0.0541,0.0237,0.0510,0.0095
264,0.0390,0.0215,0.0386,0.0116
265,0.0575,0.0231,0.0692,0.0076
266,0.0552,0.0210,0.0661,0.0071
267,0.0537,0.0239,0.0706,0.0123
268,0.0553,0.0179,0.0583,0.0094
269,0.0508,0.0227,0.0711,0.0118
270,0.0494,0.0150,0.0568,0.0058
271,0.0482,0.0159,0.0577,0.0119
272,0.0436,0.0122,0.0478,0.0046
273,0.0419,0.0136,0.0452,0.0045
274,0.0510,0.0210,0.0507,0.0100
275,0.0404,0.0176,0.0425,0.0053
276,0.0453,0.0251,0.0422,0.0046
277,0.0403,0.0168,0.0414,0.0115
278,0.0418,0.0214,0.0418,0.0051
279,0.0582,0.0267,0.0518,0.0091
280,0.0659,0.0108,0.0678,0.0073
281,0.0393,0.0236,0.0381,0.0116
282,0.0475,0.0268,0.0426,0.0046
283,0.0549,0.0255,0.0491,0.0116
284,0.0531,0.0175,0.0507,0.0161
285,0.0578,0.0281,0.0532,0.0125
286,0.0578,0.0281,0.0532,0.0125
287,0.0578,0.0281,0.0532,0.0125
288,0.0578,0.0281,0.0532,0.0125
289,0.0578,0.0281,0.0532,0.0125
290,0.0578,0.0281,0.0532,0.0125
291,0.0652,0.0099,0.0682,0.0063
292,0.0463,0.0154,0.0444,0.0050
293,0.0463,0.0154,0.0444,0.0050
294,0.0446,0.0177,0.0494,0.0118
295,0.0455,0.0144,0.0422,0.0047
296,0.0519,0.0168,0.0480,0.0095
297,0.0445,0.0162,0.0443,0.0117
298,0.0434,0.0126,0.0393,0.0046
299,0.0423,0.0123,0.0390,0.0052
300,0.0428,0.0136,0.0369,0.0116
301,0.0513,0.0187,0.0507,0.0095
302,0.0646,0.0099,0.0686,0.0055
303,0.0407,0.0143,0.0403,0.0053
304,0.0397,0.0144,0.0355,0.0117
305,0.0421,0.0177,0.0419,0.0046
306,0.0434,0.0199,0.0428,0.0046
307,0.0510,0.0163,0.0482,0.0099
308,0.0480,0.0129,0.0409,0.0114
309,0.0479,0.0123,0.0409,0.0106
310,0.0448,0.0138,0.0415,0.0153
311,0.0476,0.0117,0.0416,0.0089
312,0.0548,0.0160,0.0481,0.0111
313,0.0639,0.0103,0.0688,0.0049
314,0.0448,0.0171,0.0459,0.0137
315,0.0469,0.0133,0.0437,0.0062
316,0.0467,0.0140,0.0442,0.0054
317,0.0446,0.0176,0.0485,0.0118
318,0.0531,0.0171,0.0483,0.0090
319,0.0434,0.0126,0.0393,0.0046
320,0.0446,0.0177,0.0495,0.0123
321,0.0463,0.0158,0.0436,0.0060
322,0.0464,0.0157,0.0429,0.0066
323,0.0531,0.0178,0.0483,0.0118
324,0.0467,0.0146,0.0724,0.0097
325,0.0468,0.0147,0.0411,0.0079
326,0.0471,0.0145,0.0402,0.0088
327,0.0458,0.0154,0.0443,0.0162
328,0.0480,0.0177,0.0393,0.0118
329,0.0551,0.0278,0.0492,0.0140
330,0.0471,0.0190,0.0390,0.0170
331,0.0423,0.0123,0.0390,0.0052
332,0.0463,0.0154,0.0444,0.0050
333,0.0446,0.0177,0.0494,0.0118
334,0.0530,0.0174,0.0482,0.0091
335,0.0647,0.0394,0.0666,0.0041
336,0.0564,0.0127,0.0653,0.0045
337,0.0463,0.0154,0.0444,0.0050
338,0.0446,0.0177,0.0494,0.0118
339,0.0463,0.0154,0.0444,0.0050
340,0.0463,0.0154,0.0444,0.0050
341,0.0530,0.0174,0.0482,0.0091
342,0.0463,0.0154,0.0444,0.0050
343,0.0463,0.0154,0.0444,0.0050
344,0.0428,0.0136,0.0369,0.0116
345,0.0463,0.0154,0.0444,0.0050
346,0.0530,0.0174,0.0482,0.0091
347,0.0623,0.0119,0.0690,0.0052
348,0.0446,0.0177,0.0494,0.0118
349,0.0463,0.0154,0.0444,0.0050
350,0.0463,0.0154,0.0444,0.0050
351,0.0446,0.0177,0.0494,0.0118
352,0.0530,0.0174,0.0482,0.0091
353,0.0463,0.0154,0.0444,0.0050
354,0.0446,0.0177,0.0494,0.0118
355,0.0463,0.0154,0.0444,0.0050
356,0.0408,0.0132,0.0396,0.0055
357,0.0530,0.0174,0.0482,0.0091
358,0.0619,0.0122,0.0690,0.0057
359,0.0463,0.0154,0.0444,0.0050
360,0.0463,0.0154,0.0444,0.0050
361,0.0446,0.0177,0.0494,0.0118
362,0.0463,0.0154,0.0444,0.0050
363,0.0530,0.0174,0.0482,0.0091
364,0.0446,0.0177,0.0494,0.0118
365,0.0463,0.0154,0.0444,0.0050
366,0.0463,0.0154,0.0444,0.0050
367,0.0446,0.0177,0.0494,0.0118
368,0.0524,0.0203,0.0514,0.0092
369,0.0615,0.0121,0.0689,0.0064
370,0.0463,0.0154,0.0444,0.0050
371,0.0446,0.0177,0.0494,0.0118
372,0.0463,0.0154,0.0444,0.0050
373,0.0463,0.0154,0.0444,0.0050
374,0.0530,0.0174,0.0482,0.0091
375,0.0793,0.0221,0.0681,0.0097
376,0.0715,0.0218,0.0659,0.0090
377,0.0765,0.0221,0.0697,0.0131
378,0.0594,0.0208,0.0613,0.0078
379,0.0513,0.0187,0.0507,0.0095
380,0.0451,0.0169,0.0744,0.0119
381,0.0397,0.0144,0.0355,0.0117
382,0.0521,0.0194,0.0562,0.0069
383,0.0499,0.0187,0.0537,0.0064
384,0.0479,0.0200,0.0574,0.0121
385,0.0552,0.0194,0.0504,0.0091
386,0.0470,0.0162,0.0465,0.0053
387,0.0446,0.0169,0.0468,0.0118
388,0.0446,0.0134,0.0404,0.0045
389,0.0434,0.0126,0.0393,0.0046
390,0.0502,0.0166,0.0492,0.0101
391,0.0611,0.0114,0.0688,0.0076
392,0.0413,0.0125,0.0391,0.0055
393,0.0421,0.0177,0.0419,0.0046
394,0.0417,0.0134,0.0358,0.0116
395,0.0407,0.0143,0.0403,0.0053
396,0.0538,0.0224,0.0522,0.0091
397,0.0392,0.0154,0.0359,0.0116
398,0.0434,0.0199,0.0428,0.0046
399,0.0480,0.0129,0.0409,0.0114
400,0.0449,0.0131,0.0405,0.0158
401,0.0558,0.0166,0.0479,0.0125
402,0.0610,0.0122,0.0687,0.0084
403,0.0558,0.0166,0.0479,0.0125
404,0.0558,0.0166,0.0479,0.0125
405,0.0558,0.0166,0.0479,0.0125
406,0.0558,0.0166,0.0479,0.0125
407,0.0558,0.0166,0.0479,0.0125
408,0.0430,0.0127,0.0379,0.0048
409,0.0430,0.0127,0.0379,0.0048
410,0.0404,0.0137,0.0408,0.0118
411,0.0431,0.0125,0.0369,0.0046
412,0.0518,0.0164,0.0467,0.0096
413,0.0610,0.0155,0.0686,0.0097
414,0.0406,0.0136,0.0372,0.0117
415,0.0428,0.0121,0.0368,0.0048
416,0.0423,0.0123,0.0377,0.0054
417,0.0416,0.0132,0.0335,0.0116
418,0.0508,0.0208,0.0519,0.0094
419,0.0409,0.0158,0.0411,0.0052
420,0.0400,0.0150,0.0354,0.0117
421,0.0415,0.0203,0.0435,0.0046
422,0.0423,0.0231,0.0446,0.0045
423,0.0513,0.0163,0.0477,0.0100
424,0.0613,0.0206,0.0687,0.0114
425,0.0427,0.0114,0.0364,0.0112
426,0.0427,0.0114,0.0364,0.0104
427,0.0414,0.0138,0.0349,0.0147
428,0.0428,0.0115,0.0367,0.0088
429,0.0526,0.0157,0.0458,0.0112
430,0.0412,0.0152,0.0380,0.0135
431,0.0428,0.0122,0.0375,0.0063
432,0.0429,0.0123,0.0377,0.0055
433,0.0407,0.0143,0.0401,0.0119
434,0.0523,0.0165,0.0457,0.0091
435,0.0474,0.0373,0.0764,0.0143
436,0.0428,0.0121,0.0368,0.0048
437,0.0403,0.0135,0.0409,0.0122
438,0.0432,0.0128,0.0374,0.0056
439,0.0434,0.0128,0.0370,0.0062
440,0.0527,0.0174,0.0472,0.0119
441,0.0438,0.0130,0.0364,0.0076
442,0.0442,0.0137,0.0363,0.0086
443,0.0407,0.0129,0.0370,0.0155
444,0.0447,0.0178,0.0368,0.0119
445,0.0538,0.0262,0.0496,0.0140
446,0.0444,0.0258,0.0735,0.0104
447,0.0623,0.0346,0.0686,0.0141
448,0.0416,0.0198,0.0338,0.0167
449,0.0423,0.0123,0.0377,0.0054
450,0.0430,0.0127,0.0379,0.0048
451,0.0404,0.0137,0.0408,0.0118
452,0.0523,0.0167,0.0458,0.0091
453,0.0430,0.0127,0.0379,0.0048
454,0.0404,0.0137,0.0408,0.0118
455,0.0430,0.0127,0.0379,0.0048
456,0.0430,0.0127,0.0379,0.0048
457,0.0523,0.0167,0.0458,0.0091
458,0.0555,0.0150,0.0649,0.0050
459,0.0430,0.0127,0.0379,0.0048
460,0.0430,0.0127,0.0379,0.0048
461,0.0416,0.0132,0.0335,0.0116
462,0.0430,0.0127,0.0379,0.0048
463,0.0523,0.0167,0.0458,0.0091
464,0.0404,0.0137,0.0408,0.0118
465,0.0430,0.0127,0.0379,0.0048
466,0.0430,0.0127,0.0379,0.0048
467,0.0404,0.0137,0.0408,0.0118
468,0.0523,0.0167,0.0458,0.0091
469,0.0628,0.0114,0.0689,0.0048
470,0.0430,0.0127,0.0379,0.0048
471,0.0404,0.0137,0.0408,0.0118
472,0.0430,0.0127,0.0379,0.0048
473,0.0412,0.0141,0.0399,0.0056
474,0.0523,0.0167,0.0458,0.0091
475,0.0430,0.0127,0.0379,0.0048
476,0.0430,0.0127,0.0379,0.0048
477,0.0404,0.0137,0.0408,0.0118
478,0.0430,0.0127,0.0379,0.0048
479,0.0523,0.0167,0.0458,0.0091
480,0.0628,0.0114,0.0689,0.0048
481,0.0404,0.0137,0.0408,0.0118
482,0.0430,0.0127,0.0379,0.0048
483,0.0430,0.0127,0.0379,0.0048
484,0.0404,0.0137,0.0408,0.0118
485,0.0515,0.0231,0.0529,0.0091
486,0.0430,0.0127,0.0379,0.0048
487,0.0404,0.0137,0.0408,0.0118
488,0.0430,0.0127,0.0379,0.0048
489,0.0430,0.0127,0.0379,0.0048
490,0.0523,0.0167,0.0458,0.0091
491,0.0462,0.0144,0.0727,0.0097
492,0.0872,0.0148,0.0555,0.0092
493,0.0776,0.0146,0.0538,0.0085
494,0.0865,0.0138,0.0574,0.0130
495,0.0615,0.0141,0.0500,0.0073
496,0.0508,0.0208,0.0519,0.0094
497,0.0400,0.0150,0.0354,0.0117
498,0.0505,0.0136,0.0461,0.0063
499,0.0470,0.0134,0.0441,0.0060
500,0.0476,0.0140,0.0471,0.0120
501,0.0529,0.0173,0.0455,0.0090
502,0.0628,0.0114,0.0689,0.0048
503,0.0430,0.0129,0.0392,0.0050
504,0.0403,0.0137,0.0389,0.0117
505,0.0431,0.0122,0.0365,0.0045
506,0.0428,0.0121,0.0368,0.0048
507,0.0505,0.0175,0.0498,0.0100
508,0.0417,0.0129,0.0388,0.0057
509,0.0415,0.0203,0.0435,0.0046
510,0.0412,0.0134,0.0337,0.0117
511,0.0409,0.0158,0.0411,0.0052
512,0.0524,0.0258,0.0538,0.0090
513,0.0628,0.0114,0.0689,0.0048
514,0.0395,0.0164,0.0365,0.0117
515,0.0423,0.0231,0.0446,0.0045
516,0.0427,0.0114,0.0364,0.0112
517,0.0415,0.0132,0.0344,0.0151
518,0.0527,0.0155,0.0456,0.0125
519,0.0527,0.0155,0.0456,0.0125
520,0.0527,0.0155,0.0456,0.0125
521,0.0527,0.0155,0.0456,0.0125
522,0.0527,0.0155,0.0456,0.0125
523,0.0527,0.0155,0.0456,0.0125
524,0.0628,0.0114,0.0689,0.0048
525,0.0416,0.0115,0.0360,0.0047
526,0.0416,0.0115,0.0360,0.0047
527,0.0399,0.0123,0.0378,0.0118
528,0.0418,0.0114,0.0356,0.0045
529,0.0513,0.0158,0.0469,0.0096
530,0.0392,0.0125,0.0349,0.0117
531,0.0420,0.0114,0.0368,0.0048
532,0.0418,0.0116,0.0381,0.0054
533,0.0405,0.0127,0.0331,0.0116
534,0.0508,0.0204,0.0529,0.0094
535,0.0628,0.0114,0.0689,0.0048
536,0.0410,0.0153,0.0422,0.0052
537,0.0398,0.0146,0.0363,0.0118
538,0.0415,0.0202,0.0447,0.0045
539,0.0422,0.0231,0.0458,0.0045
540,0.0511,0.0157,0.0482,0.0100
541,0.0416,0.0113,0.0355,0.0111
542,0.0415,0.0112,0.0356,0.0103
543,0.0422,0.0134,0.0333,0.0145
544,0.0414,0.0112,0.0356,0.0087
545,0.0515,0.0155,0.0456,0.0111
546,0.0462,0.0144,0.0727,0.0097
547,0.0417,0.0140,0.0354,0.0134
548,0.0415,0.0114,0.0358,0.0063
549,0.0415,0.0114,0.0359,0.0055
550,0.0406,0.0129,0.0372,0.0119
551,0.0515,0.0160,0.0454,0.0091
552,0.0420,0.0114,0.0368,0.0048
553,0.0397,0.0122,0.0379,0.0121
554,0.0417,0.0116,0.0357,0.0055
555,0.0418,0.0117,0.0356,0.0060
556,0.0520,0.0172,0.0476,0.0119
557,0.0717,0.0378,0.0687,0.0120
558,0.0628,0.0114,0.0689,0.0048
559,0.0421,0.0127,0.0356,0.0075
560,0.0424,0.0138,0.0359,0.0086
561,0.0391,0.0127,0.0347,0.0152
562,0.0428,0.0186,0.0371,0.0120
563,0.0526,0.0266,0.0506,0.0140
564,0.0395,0.0212,0.0329,0.0166
565,0.0418,0.0116,0.0381,0.0054
566,0.0416,0.0115,0.0360,0.0047
567,0.0399,0.0123,0.0378,0.0118
568,0.0515,0.0161,0.0456,0.0091
569,0.0628,0.0114,0.0689,0.0048
570,0.0416,0.0115,0.0360,0.0047
571,0.0399,0.0123,0.0378,0.0118
572,0.0416,0.0115,0.0360,0.0047
573,0.0416,0.0115,0.0360,0.0047
574,0.0515,0.0161,0.0456,0.0091
575,0.0416,0.0115,0.0360,0.0047
576,0.0416,0.0115,0.0360,0.0047
577,0.0405,0.0127,0.0331,0.0116
578,0.0416,0.0115,0.0360,0.0047
579,0.0515,0.0161,0.0456,0.0091
580,0.0554,0.0168,0.0647,0.0055
581,0.0399,0.0123,0.0378,0.0118
582,0.0416,0.0115,0.0360,0.0047
583,0.0416,0.0115,0.0360,0.0047
584,0.0399,0.0123,0.0378,0.0118
585,0.0515,0.0161,0.0456,0.0091
586,0.0416,0.0115,0.0360,0.0047
587,0.0399,0.0123,0.0378,0.0118
588,0.0416,0.0115,0.0360,0.0047
589,0.0411,0.0135,0.0408,0.0055
590,0.0515,0.0161,0.0456,0.0091
591,0.0628,0.0114,0.0689,0.0048
592,0.0416,0.0115,0.0360,0.0047
593,0.0416,0.0115,0.0360,0.0047
594,0.0399,0.0123,0.0378,0.0118
595,0.0416,0.0115,0.0360,0.0047
596,0.0515,0.0161,0.0456,0.0091
597,0.0399,0.0123,0.0378,0.0118
598,0.0416,0.0115,0.0360,0.0047
599,0.0416,0.0115,0.0360,0.0047
600,0.0399,0.0123,0.0378,0.0118
601,0.0514,0.0229,0.0539,0.0091
602,0.0462,0.0144,0.0727,0.0097
603,0.0416,0.0115,0.0360,0.0047
604,0.0399,0.0123,0.0378,0.0118
605,0.0416,0.0115,0.0360,0.0047
606,0.0416,0.0115,0.0360,0.0047
607,0.0515,0.0161,0.0456,0.0091
608,0.0930,0.0138,0.0506,0.0089
609,0.0827,0.0133,0.0490,0.0083
610,0.0932,0.0122,0.0527,0.0129
611,0.0651,0.0126,0.0456,0.0072
612,0.0508,0.0204,0.0529,0.0094
613,0.0628,0.0114,0.0689,0.0048
614,0.0398,0.0146,0.0363,0.0118
615,0.0521,0.0121,0.0422,0.0062
616,0.0476,0.0119,0.0406,0.0058
617,0.0501,0.0122,0.0432,0.0120
618,0.0517,0.0165,0.0443,0.0090
619,0.0417,0.0116,0.0368,0.0049
620,0.0392,0.0124,0.0362,0.0117
621,0.0420,0.0114,0.0359,0.0045
622,0.0420,0.0114,0.0368,0.0048
623,0.0505,0.0169,0.0506,0.0100
624,0.0628,0.0114,0.0689,0.0048
625,0.0415,0.0123,0.0395,0.0057
626,0.0415,0.0202,0.0447,0.0045
627,0.0405,0.0130,0.0339,0.0117
628,0.0410,0.0153,0.0422,0.0052
629,0.0522,0.0258,0.0549,0.0090
630,0.0395,0.0161,0.0376,0.0116
631,0.0422,0.0231,0.0458,0.0045
632,0.0416,0.0113,0.0355,0.0111
633,0.0425,0.0130,0.0331,0.0148
634,0.0514,0.0154,0.0454,0.0125
635,0.0628,0.0114,0.0689,0.0048
636,0.0514,0.0154,0.0454,0.0125
637,0.0514,0.0154,0.0454,0.0125
638,0.0514,0.0154,0.0454,0.0125
639,0.0514,0.0154,0.0454,0.0125
640,0.0514,0.0154,0.0454,0.0125
641,0.0423,0.0168,0.0647,0.0074
642,0.0423,0.0168,0.0647,0.0074
643,0.0464,0.0230,0.0751,0.0138
644,0.0409,0.0143,0.0605,0.0067
645,0.0516,0.0162,0.0568,0.0091
646,0.0628,0.0114,0.0689,0.0048
647,0.0422,0.0180,0.0665,0.0135
648,0.0409,0.0128,0.0519,0.0049
649,0.0425,0.0152,0.0488,0.0045
650,0.0388,0.0148,0.0524,0.0124
651,0.0661,0.0276,0.0512,0.0093
652,0.0514,0.0250,0.0437,0.0044
653,0.0434,0.0242,0.0428,0.0117
654,0.0582,0.0310,0.0427,0.0046
655,0.0615,0.0337,0.0425,0.0051
656,0.0537,0.0177,0.0547,0.0094
657,0.0462,0.0144,0.0727,0.0097
658,0.0556,0.0306,0.0588,0.0153
659,0.0540,0.0269,0.0586,0.0141
660,0.0555,0.0164,0.0653,0.0149
661,0.0506,0.0182,0.0601,0.0119
662,0.0520,0.0248,0.0592,0.0146
663,0.0521,0.0167,0.0708,0.0130
664,0.0463,0.0122,0.0636,0.0096
665,0.0451,0.0129,0.0643,0.0090
666,0.0486,0.0206,0.0739,0.0132
667,0.0501,0.0158,0.0601,0.0094
668,0.0704,0.0343,0.0690,0.0110
669,0.0628,0.0114,0.0689,0.0048
670,0.0409,0.0128,0.0519,0.0049
671,0.0455,0.0239,0.0753,0.0141
672,0.0413,0.0185,0.0640,0.0064
673,0.0410,0.0182,0.0631,0.0062
674,0.0513,0.0171,0.0573,0.0147
675,0.0406,0.0159,0.0605,0.0080
676,0.0406,0.0144,0.0586,0.0102
677,0.0424,0.0202,0.0705,0.0144
678,0.0408,0.0193,0.0551,0.0161
679,0.0501,0.0381,0.0551,0.0194
680,0.0628,0.0114,0.0689,0.0048
681,0.0432,0.0194,0.0629,0.0182
682,0.0425,0.0152,0.0488,0.0045
683,0.0423,0.0168,0.0647,0.0074
684,0.0464,0.0230,0.0751,0.0138
685,0.0504,0.0160,0.0598,0.0090
686,0.0423,0.0168,0.0647,0.0074
687,0.0464,0.0230,0.0751,0.0138
688,0.0423,0.0168,0.0647,0.0074
689,0.0423,0.0168,0.0647,0.0074
690,0.0504,0.0160,0.0598,0.0090
691,0.0628,0.0114,0.0689,0.0048
692,0.0423,0.0168,0.0647,0.0074
693,0.0423,0.0168,0.0647,0.0074
694,0.0388,0.0148,0.0524,0.0124
695,0.0423,0.0168,0.0647,0.0074
696,0.0504,0.0160,0.0598,0.0090
697,0.0464,0.0230,0.0751,0.0138
698,0.0423,0.0168,0.0647,0.0074
699,0.0423,0.0168,0.0647,0.0074
700,0.0464,0.0230,0.0751,0.0138
701,0.0504,0.0160,0.0598,0.0090
702,0.0559,0.0185,0.0647,0.0055
703,0.0423,0.0168,0.0647,0.0074
704,0.0464,0.0230,0.0751,0.0138
705,0.0423,0.0168,0.0647,0.0074
706,0.0481,0.0217,0.0448,0.0045
707,0.0504,0.0160,0.0598,0.0090
708,0.0423,0.0168,0.0647,0.0074
709,0.0423,0.0168,0.0647,0.0074
710,0.0464,0.0230,0.0751,0.0138
711,0.0423,0.0168,0.0647,0.0074
712,0.0504,0.0160,0.0598,0.0090
713,0.0462,0.0144,0.0727,0.0097
714,0.0464,0.0230,0.0751,0.0138
715,0.0423,0.0168,0.0647,0.0074
716,0.0423,0.0168,0.0647,0.0074
717,0.0464,0.0230,0.0751,0.0138
718,0.0694,0.0302,0.0511,0.0091
719,0.0423,0.0168,0.0647,0.0074
720,0.0464,0.0230,0.0751,0.0138
721,0.0423,0.0168,0.0647,0.0074
722,0.0423,0.0168,0.0647,0.0074
723,0.0504,0.0160,0.0598,0.0090
724,0.0628,0.0114,0.0689,0.0048
725,0.0731,0.0403,0.1065,0.0133
726,0.0686,0.0388,0.1026,0.0127
727,0.0689,0.0409,0.1085,0.0155
728,0.0611,0.0350,0.0944,0.0114
729,0.0661,0.0276,0.0512,0.0093
730,0.0434,0.0242,0.0428,0.0117
731,0.0549,0.0302,0.0859,0.0103
732,0.0521,0.0276,0.0816,0.0098
733,0.0530,0.0309,0.0881,0.0143
734,0.0510,0.0199,0.0671,0.0099
735,0.0628,0.0114,0.0689,0.0048
736,0.0444,0.0194,0.0689,0.0081
737,0.0443,0.0204,0.0709,0.0136
738,0.0403,0.0124,0.0561,0.0057
739,0.0409,0.0128,0.0519,0.0049
740,0.0595,0.0223,0.0522,0.0097
741,0.0450,0.0185,0.0464,0.0045
742,0.0582,0.0310,0.0427,0.0046
743,0.0394,0.0174,0.0483,0.0120
744,0.0514,0.0250,0.0437,0.0044
745,0.0725,0.0328,0.0511,0.0090
746,0.0628,0.0114,0.0689,0.0048
747,0.0461,0.0275,0.0413,0.0118
748,0.0615,0.0337,0.0425,0.0051
749,0.0556,0.0306,0.0588,0.0153
750,0.0567,0.0205,0.0635,0.0157
751,0.0546,0.0318,0.0590,0.0171
752,0.0546,0.0318,0.0590,0.0171
753,0.0546,0.0318,0.0590,0.0171
754,0.0546,0.0318,0.0590,0.0171
755,0.0546,0.0318,0.0590,0.0171
756,0.0546,0.0318,0.0590,0.0171
757,0.0628,0.0114,0.0689,0.0048
758,0.0434,0.0210,0.0604,0.0070
759,0.0434,0.0210,0.0604,0.0070
760,0.0466,0.0256,0.0703,0.0135
761,0.0417,0.0187,0.0563,0.0063
762,0.0504,0.0169,0.0539,0.0092
763,0.0431,0.0219,0.0620,0.0132
764,0.0403,0.0139,0.0483,0.0047
765,0.0410,0.0133,0.0457,0.0044
766,0.0390,0.0157,0.0484,0.0122
767,0.0620,0.0206,0.0500,0.0093
768,0.0462,0.0144,0.0727,0.0097
769,0.0477,0.0174,0.0418,0.0044
770,0.0411,0.0176,0.0402,0.0116
771,0.0539,0.0221,0.0414,0.0046
772,0.0570,0.0244,0.0415,0.0050
773,0.0517,0.0163,0.0523,0.0095
774,0.0541,0.0196,0.0546,0.0151
775,0.0529,0.0170,0.0543,0.0138
776,0.0531,0.0145,0.0600,0.0148
777,0.0503,0.0126,0.0555,0.0116
778,0.0526,0.0172,0.0559,0.0141
779,0.0693,0.0299,0.0694,0.0101
780,0.0628,0.0114,0.0689,0.0048
781,0.0507,0.0201,0.0657,0.0129
782,0.0469,0.0149,0.0591,0.0091
783,0.0458,0.0168,0.0599,0.0085
784,0.0483,0.0237,0.0690,0.0130
785,0.0501,0.0178,0.0567,0.0093
786,0.0403,0.0139,0.0483,0.0047
787,0.0459,0.0264,0.0707,0.0138
788,0.0423,0.0224,0.0597,0.0062
789,0.0419,0.0222,0.0589,0.0061
790,0.0501,0.0179,0.0544,0.0146
791,0.0628,0.0114,0.0689,0.0048
792,0.0415,0.0193,0.0563,0.0080
793,0.0414,0.0170,0.0546,0.0102
794,0.0437,0.0224,0.0661,0.0144
795,0.0418,0.0168,0.0515,0.0162
796,0.0499,0.0300,0.0526,0.0192
797,0.0446,0.0182,0.0586,0.0183
798,0.0410,0.0133,0.0457,0.0044
799,0.0434,0.0210,0.0604,0.0070
800,0.0466,0.0256,0.0703,0.0135
801,0.0500,0.0186,0.0564,0.0090
802,0.0628,0.0114,0.0689,0.0048
803,0.0434,0.0210,0.0604,0.0070
804,0.0466,0.0256,0.0703,0.0135
805,0.0434,0.0210,0.0604,0.0070
806,0.0434,0.0210,0.0604,0.0070
807,0.0500,0.0186,0.0564,0.0090
808,0.0434,0.0210,0.0604,0.0070
809,0.0434,0.0210,0.0604,0.0070
810,0.0390,0.0157,0.0484,0.0122
811,0.0434,0.0210,0.0604,0.0070
812,0.0500,0.0186,0.0564,0.0090
813,0.0628,0.0114,0.0689,0.0048
814,0.0466,0.0256,0.0703,0.0135
815,0.0434,0.0210,0.0604,0.0070
816,0.0434,0.0210,0.0604,0.0070
817,0.0466,0.0256,0.0703,0.0135
818,0.0500,0.0186,0.0564,0.0090
819,0.0434,0.0210,0.0604,0.0070
820,0.0466,0.0256,0.0703,0.0135
821,0.0434,0.0210,0.0604,0.0070
822,0.0449,0.0155,0.0425,0.0045
823,0.0500,0.0186,0.0564,0.0090
824,0.0516,0.0212,0.0732,0.0097
825,0.0434,0.0210,0.0604,0.0070
826,0.0434,0.0210,0.0604,0.0070
827,0.0466,0.0256,0.0703,0.0135
828,0.0434,0.0210,0.0604,0.0070
829,0.0500,0.0186,0.0564,0.0090
830,0.0466,0.0256,0.0703,0.0135
831,0.0434,0.0210,0.0604,0.0070
832,0.0434,0.0210,0.0604,0.0070
833,0.0466,0.0256,0.0703,0.0135
834,0.0650,0.0227,0.0501,0.0091
835,0.0628,0.0114,0.0689,0.0048
836,0.0434,0.0210,0.0604,0.0070
837,0.0466,0.0256,0.0703,0.0135
838,0.0434,0.0210,0.0604,0.0070
839,0.0434,0.0210,0.0604,0.0070
840,0.0500,0.0186,0.0564,0.0090
841,0.0712,0.0365,0.1005,0.0129
842,0.0666,0.0357,0.0968,0.0122
843,0.0668,0.0367,0.1024,0.0153
844,0.0594,0.0334,0.0889,0.0111
845,0.0620,0.0206,0.0500,0.0093
846,0.0628,0.0114,0.0689,0.0048
847,0.0411,0.0176,0.0402,0.0116
848,0.0540,0.0305,0.0808,0.0098
849,0.0518,0.0287,0.0766,0.0093
850,0.0515,0.0310,0.0828,0.0140
851,0.0517,0.0237,0.0633,0.0097
852,0.0454,0.0229,0.0644,0.0077
853,0.0450,0.0238,0.0662,0.0134
854,0.0406,0.0160,0.0521,0.0054
855,0.0403,0.0139,0.0483,0.0047
856,0.0561,0.0173,0.0505,0.0098
857,0.0628,0.0114,0.0689,0.0048
858,0.0426,0.0139,0.0438,0.0045
859,0.0539,0.0221,0.0414,0.0046
860,0.0388,0.0152,0.0448,0.0119
861,0.0477,0.0174,0.0418,0.0044
862,0.0680,0.0250,0.0503,0.0090
863,0.0432,0.0195,0.0390,0.0117
864,0.0570,0.0244,0.0415,0.0050
865,0.0541,0.0196,0.0546,0.0151
866,0.0539,0.0150,0.0585,0.0157
867,0.0550,0.0211,0.0557,0.0166
868,0.0628,0.0114,0.0689,0.0048
869,0.0550,0.0211,0.0557,0.0166
870,0.0550,0.0211,0.0557,0.0166
871,0.0550,0.0211,0.0557,0.0166
872,0.0550,0.0211,0.0557,0.0166
873,0.0550,0.0211,0.0557,0.0166
874,0.0441,0.0228,0.0512,0.0064
875,0.0441,0.0228,0.0512,0.0064
876,0.0444,0.0241,0.0597,0.0131
877,0.0430,0.0221,0.0477,0.0058
878,0.0501,0.0227,0.0487,0.0092
879,0.0462,0.0144,0.0727,0.0097
880,0.0432,0.0236,0.0524,0.0128
881,0.0408,0.0201,0.0416,0.0045
882,0.0404,0.0200,0.0401,0.0044
883,0.0401,0.0211,0.0408,0.0120
884,0.0557,0.0275,0.0487,0.0093
885,0.0429,0.0232,0.0391,0.0045
886,0.0390,0.0219,0.0358,0.0115
887,0.0473,0.0272,0.0400,0.0045
888,0.0498,0.0295,0.0407,0.0050
889,0.0501,0.0227,0.0481,0.0096
890,0.0682,0.0252,0.0700,0.0091
891,0.1121,0.0301,0.0895,0.0093
892,0.0489,0.0123,0.0457,0.0149
893,0.0485,0.0126,0.0454,0.0135
894,0.0462,0.0176,0.0492,0.0148
895,0.0474,0.0145,0.0464,0.0112
896,0.0531,0.0173,0.0497,0.0135
897,0.0455,0.0228,0.0548,0.0129
898,0.0459,0.0193,0.0496,0.0084
899,0.0454,0.0206,0.0504,0.0078
900,0.0448,0.0239,0.0582,0.0127
901,0.0509,0.0227,0.0502,0.0091
902,0.1044,0.0289,0.0875,0.0087
903,0.0408,0.0201,0.0416,0.0045
904,0.0442,0.0242,0.0602,0.0134
905,0.0436,0.0233,0.0507,0.0058
906,0.0434,0.0230,0.0500,0.0059
907,0.0501,0.0218,0.0491,0.0146
908,0.0433,0.0205,0.0477,0.0081
909,0.0434,0.0186,0.0462,0.0104
910,0.0441,0.0203,0.0564,0.0143
911,0.0439,0.0169,0.0439,0.0163
912,0.0511,0.0238,0.0483,0.0190
913,0.0975,0.0274,0.0854,0.0081
914,0.0453,0.0178,0.0495,0.0185
915,0.0404,0.0200,0.0401,0.0044
916,0.0441,0.0228,0.0512,0.0064
917,0.0444,0.0241,0.0597,0.0131
918,0.0506,0.0233,0.0501,0.0090
919,0.0441,0.0228,0.0512,0.0064
920,0.0444,0.0241,0.0597,0.0131
921,0.0441,0.0228,0.0512,0.0064
922,0.0441,0.0228,0.0512,0.0064
923,0.0506,0.0233,0.0501,0.0090
924,0.0914,0.0255,0.0832,0.0076
925,0.0441,0.0228,0.0512,0.0064
926,0.0441,0.0228,0.0512,0.0064
927,0.0401,0.0211,0.0408,0.0120
928,0.0441,0.0228,0.0512,0.0064
929,0.0506,0.0233,0.0501,0.0090
930,0.0444,0.0241,0.0597,0.0131
931,0.0441,0.0228,0.0512,0.0064
932,0.0441,0.0228,0.0512,0.0064
933,0.0444,0.0241,0.0597,0.0131
934,0.0506,0.0233,0.0501,0.0090
935,0.0492,0.0204,0.0728,0.0100
936,0.0441,0.0228,0.0512,0.0064
937,0.0444,0.0241,0.0597,0.0131
938,0.0441,0.0228,0.0512,0.0064
939,0.0414,0.0217,0.0389,0.0046
940,0.0506,0.0233,0.0501,0.0090
941,0.0441,0.0228,0.0512,0.0064
942,0.0441,0.0228,0.0512,0.0064
943,0.0444,0.0241,0.0597,0.0131
944,0.0441,0.0228,0.0512,0.0064
945,0.0506,0.0233,0.0501,0.0090
946,0.0583,0.0210,0.0654,0.0047
947,0.0444,0.0241,0.0597,0.0131
948,0.0441,0.0228,0.0512,0.0064
949,0.0441,0.0228,0.0512,0.0064
950,0.0444,0.0241,0.0597,0.0131
951,0.0581,0.0296,0.0493,0.0091
952,0.0441,0.0228,0.0512,0.0064
953,0.0444,0.0241,0.0597,0.0131
954,0.0441,0.0228,0.0512,0.0064
955,0.0441,0.0228,0.0512,0.0064
956,0.0506,0.0233,0.0501,0.0090
957,0.0809,0.0216,0.0788,0.0066
958,0.0686,0.0243,0.0868,0.0122
959,0.0631,0.0244,0.0835,0.0115
960,0.0651,0.0239,0.0886,0.0151
961,0.0549,0.0245,0.0764,0.0102
962,0.0557,0.0275,0.0487,0.0093
963,0.0390,0.0219,0.0358,0.0115
964,0.0501,0.0243,0.0691,0.0091
965,0.0486,0.0241,0.0655,0.0085
966,0.0466,0.0248,0.0710,0.0136
967,0.0528,0.0255,0.0552,0.0094
968,0.0765,0.0194,0.0767,0.0062
969,0.0453,0.0231,0.0546,0.0069
970,0.0439,0.0238,0.0561,0.0130
971,0.0418,0.0210,0.0443,0.0050
972,0.0408,0.0201,0.0416,0.0045
973,0.0519,0.0243,0.0479,0.0098
974,0.0405,0.0205,0.0392,0.0046
975,0.0473,0.0272,0.0400,0.0045
976,0.0392,0.0208,0.0383,0.0117
977,0.0429,0.0232,0.0391,0.0045
978,0.0606,0.0319,0.0499,0.0090
979,0.0725,0.0171,0.0746,0.0058
980,0.0398,0.0232,0.0355,0.0116
981,0.0498,0.0295,0.0407,0.0050
982,0.0489,0.0123,0.0457,0.0149
983,0.0463,0.0159,0.0478,0.0157
984,0.0545,0.0159,0.0496,0.0160
985,0.0545,0.0159,0.0496,0.0160
986,0.0545,0.0159,0.0496,0.0160
987,0.0545,0.0159,0.0496,0.0160
988,0.0545,0.0159,0.0496,0.0160
989,0.0545,0.0159,0.0496,0.0160
990,0.0527,0.0143,0.0746,0.0098
991,0.0427,0.0173,0.0440,0.0061
992,0.0427,0.0173,0.0440,0.0061
993,0.0409,0.0174,0.0510,0.0129
994,0.0424,0.0176,0.0412,0.0055
995,0.0504,0.0213,0.0459,0.0093
996,0.0410,0.0185,0.0447,0.0126
997,0.0412,0.0184,0.0375,0.0044
998,0.0407,0.0195,0.0371,0.0045
999,0.0402,0.0194,0.0358,0.0119
1000,0.0532,0.0309,0.0489,0.0092
1001,0.0503,0.0334,0.0733,0.0119
1002,0.0657,0.0130,0.0707,0.0051
1003,0.0415,0.0258,0.0385,0.0045
1004,0.0388,0.0235,0.0341,0.0115
1005,0.0445,0.0314,0.0404,0.0045
1006,0.0465,0.0344,0.0414,0.0050
1007,0.0501,0.0223,0.0460,0.0097
1008,0.0437,0.0134,0.0395,0.0151
1009,0.0437,0.0136,0.0392,0.0136
1010,0.0409,0.0174,0.0410,0.0150
1011,0.0436,0.0147,0.0399,0.0112
1012,0.0521,0.0180,0.0460,0.0133
1013,0.0602,0.0104,0.0675,0.0045
1014,0.0409,0.0196,0.0461,0.0129
1015,0.0432,0.0166,0.0423,0.0082
1016,0.0431,0.0169,0.0430,0.0076
1017,0.0409,0.0183,0.0495,0.0126
1018,0.0511,0.0205,0.0462,0.0091
1019,0.0412,0.0184,0.0375,0.0044
1020,0.0409,0.0170,0.0515,0.0131
1021,0.0427,0.0170,0.0435,0.0056
1022,0.0427,0.0166,0.0430,0.0058
1023,0.0507,0.0195,0.0460,0.0146
1024,0.0579,0.0108,0.0663,0.0043
1025,0.0429,0.0152,0.0412,0.0081
1026,0.0431,0.0145,0.0401,0.0105
1027,0.0416,0.0139,0.0484,0.0141
1028,0.0437,0.0160,0.0387,0.0165
1029,0.0517,0.0234,0.0461,0.0191
1030,0.0429,0.0182,0.0423,0.0188
1031,0.0407,0.0195,0.0371,0.0045
1032,0.0427,0.0173,0.0440,0.0061
1033,0.0409,0.0174,0.0510,0.0129
1034,0.0509,0.0207,0.0462,0.0090
1035,0.0564,0.0127,0.0653,0.0045
1036,0.0427,0.0173,0.0440,0.0061
1037,0.0409,0.0174,0.0510,0.0129
1038,0.0427,0.0173,0.0440,0.0061
1039,0.0427,0.0173,0.0440,0.0061
1040,0.0509,0.0207,0.0462,0.0090
1041,0.0427,0.0173,0.0440,0.0061
1042,0.0427,0.0173,0.0440,0.0061
1043,0.0402,0.0194,0.0358,0.0119
1044,0.0427,0.0173,0.0440,0.0061
1045,0.0509,0.0207,0.0462,0.0090
1046,0.0452,0.0189,0.0722,0.0107
1047,0.0409,0.0174,0.0510,0.0129
1048,0.0427,0.0173,0.0440,0.0061
1049,0.0427,0.0173,0.0440,0.0061
1050,0.0409,0.0174,0.0510,0.0129
1051,0.0509,0.0207,0.0462,0.0090
1052,0.0427,0.0173,0.0440,0.0061
1053,0.0409,0.0174,0.0510,0.0129
1054,0.0427,0.0173,0.0440,0.0061
1055,0.0407,0.0233,0.0377,0.0046
1056,0.0509,0.0207,0.0462,0.0090
1057,0.0554,0.0168,0.0647,0.0055
1058,0.0427,0.0173,0.0440,0.0061
1059,0.0427,0.0173,0.0440,0.0061
1060,0.0409,0.0174,0.0510,0.0129
1061,0.0427,0.0173,0.0440,0.0061
1062,0.0509,0.0207,0.0462,0.0090
1063,0.0409,0.0174,0.0510,0.0129
1064,0.0427,0.0173,0.0440,0.0061
1065,0.0427,0.0173,0.0440,0.0061
1066,0.0409,0.0174,0.0510,0.0129
1067,0.0550,0.0338,0.0498,0.0091
1068,0.0600,0.0222,0.0659,0.0043
1069,0.0427,0.0173,0.0440,0.0061
1070,0.0409,0.0174,0.0510,0.0129
1071,0.0427,0.0173,0.0440,0.0061
1072,0.0427,0.0173,0.0440,0.0061
1073,0.0509,0.0207,0.0462,0.0090
1074,0.0716,0.0156,0.0749,0.0117
1075,0.0644,0.0153,0.0720,0.0110
1076,0.0699,0.0138,0.0770,0.0149
1077,0.0534,0.0151,0.0658,0.0098
1078,0.0532,0.0309,0.0489,0.0092
1079,0.0559,0.0185,0.0647,0.0055
1080,0.0388,0.0235,0.0341,0.0115
1081,0.0469,0.0154,0.0593,0.0086
1082,0.0451,0.0156,0.0560,0.0081
1083,0.0436,0.0160,0.0611,0.0134
1084,0.0521,0.0206,0.0491,0.0093
1085,0.0431,0.0168,0.0468,0.0066
1086,0.0410,0.0179,0.0479,0.0128
1087,0.0419,0.0177,0.0388,0.0049
1088,0.0412,0.0184,0.0375,0.0044
1089,0.0508,0.0259,0.0472,0.0097
1090,0.0569,0.0198,0.0650,0.0051
1091,0.0405,0.0212,0.0372,0.0046
1092,0.0445,0.0314,0.0404,0.0045
1093,0.0395,0.0203,0.0345,0.0116
1094,0.0415,0.0258,0.0385,0.0045
1095,0.0570,0.0368,0.0506,0.0090
1096,0.0391,0.0256,0.0346,0.0116
1097,0.0465,0.0344,0.0414,0.0050
1098,0.0437,0.0134,0.0395,0.0151
1099,0.0409,0.0164,0.0400,0.0159
1100,0.0527,0.0171,0.0459,0.0158
1101,0.0541,0.0222,0.0737,0.0095
1102,0.0527,0.0171,0.0459,0.0158
1103,0.0527,0.0171,0.0459,0.0158
1104,0.0527,0.0171,0.0459,0.0158
1105,0.0527,0.0171,0.0459,0.0158
1106,0.0527,0.0171,0.0459,0.0158
1107,0.0418,0.0140,0.0412,0.0060
1108,0.0418,0.0140,0.0412,0.0060
1109,0.0396,0.0143,0.0474,0.0128
1110,0.0417,0.0145,0.0387,0.0054
1111,0.0504,0.0190,0.0451,0.0093
1112,0.0623,0.0102,0.0724,0.0052
1113,0.0662,0.0164,0.0713,0.0072
1114,0.0600,0.0222,0.0659,0.0043
1115,0.0398,0.0156,0.0417,0.0125
1116,0.0411,0.0159,0.0363,0.0044
1117,0.0407,0.0174,0.0364,0.0045
1118,0.0398,0.0173,0.0342,0.0119
1119,0.0527,0.0301,0.0493,0.0092
1120,0.0413,0.0247,0.0388,0.0045
1121,0.0388,0.0223,0.0340,0.0115
1122,0.0439,0.0309,0.0411,0.0046
1123,0.0457,0.0342,0.0421,0.0050
1124,0.0502,0.0202,0.0457,0.0097
1125,0.0618,0.0233,0.0664,0.0041
1126,0.0419,0.0132,0.0374,0.0153
1127,0.0419,0.0132,0.0372,0.0137
1128,0.0399,0.0164,0.0381,0.0151
1129,0.0419,0.0135,0.0376,0.0112
1130,0.0514,0.0170,0.0449,0.0133
1131,0.0399,0.0174,0.0427,0.0129
1132,0.0419,0.0142,0.0396,0.0082
1133,0.0418,0.0142,0.0402,0.0075
1134,0.0397,0.0155,0.0459,0.0125
1135,0.0508,0.0182,0.0450,0.0091
1136,0.0699,0.0256,0.0657,0.0120
1137,0.0411,0.0159,0.0363,0.0044
1138,0.0396,0.0138,0.0479,0.0130
1139,0.0418,0.0135,0.0408,0.0055
1140,0.0419,0.0132,0.0403,0.0057
1141,0.0507,0.0175,0.0451,0.0145
1142,0.0421,0.0126,0.0388,0.0082
1143,0.0424,0.0128,0.0379,0.0106
1144,0.0402,0.0123,0.0451,0.0141
1145,0.0428,0.0163,0.0369,0.0167
1146,0.0515,0.0239,0.0457,0.0191
1147,0.0690,0.0227,0.0659,0.0110
1148,0.0413,0.0199,0.0395,0.0190
1149,0.0407,0.0174,0.0364,0.0045
1150,0.0418,0.0140,0.0412,0.0060
1151,0.0396,0.0143,0.0474,0.0128
1152,0.0508,0.0183,0.0450,0.0090
1153,0.0418,0.0140,0.0412,0.0060
1154,0.0396,0.0143,0.0474,0.0128
1155,0.0418,0.0140,0.0412,0.0060
1156,0.0418,0.0140,0.0412,0.0060
1157,0.0508,0.0183,0.0450,0.0090
1158,0.0534,0.0276,0.0705,0.0132
1159,0.0418,0.0140,0.0412,0.0060
1160,0.0418,0.0140,0.0412,0.0060
1161,0.0398,0.0173,0.0342,0.0119
1162,0.0418,0.0140,0.0412,0.0060
1163,0.0508,0.0183,0.0450,0.0090
1164,0.0396,0.0143,0.0474,0.0128
1165,0.0418,0.0140,0.0412,0.0060
1166,0.0418,0.0140,0.0412,0.0060
1167,0.0396,0.0143,0.0474,0.0128
1168,0.0508,0.0183,0.0450,0.0090
1169,0.0534,0.0276,0.0705,0.0132
1170,0.0418,0.0140,0.0412,0.0060
1171,0.0396,0.0143,0.0474,0.0128
1172,0.0418,0.0140,0.0412,0.0060
1173,0.0407,0.0219,0.0378,0.0046
1174,0.0508,0.0183,0.0450,0.0090
1175,0.0418,0.0140,0.0412,0.0060
1176,0.0418,0.0140,0.0412,0.0060
1177,0.0396,0.0143,0.0474,0.0128
1178,0.0418,0.0140,0.0412,0.0060
1179,0.0508,0.0183,0.0450,0.0090
1180,0.0534,0.0276,0.0705,0.0132
1181,0.0396,0.0143,0.0474,0.0128
1182,0.0418,0.0140,0.0412,0.0060
1183,0.0418,0.0140,0.0412,0.0060
1184,0.0396,0.0143,0.0474,0.0128
1185,0.0543,0.0332,0.0503,0.0090
1186,0.0418,0.0140,0.0412,0.0060
1187,0.0396,0.0143,0.0474,0.0128
1188,0.0418,0.0140,0.0412,0.0060
1189,0.0418,0.0140,0.0412,0.0060
1190,0.0508,0.0183,0.0450,0.0090
1191,0.0534,0.0276,0.0705,0.0132
1192,0.0750,0.0149,0.0698,0.0115
1193,0.0671,0.0140,0.0670,0.0108
1194,0.0743,0.0124,0.0720,0.0148
1195,0.0545,0.0129,0.0611,0.0096
1196,0.0527,0.0301,0.0493,0.0092
1197,0.0388,0.0223,0.0340,0.0115
1198,0.0466,0.0124,0.0550,0.0084
1199,0.0443,0.0125,0.0519,0.0079
1200,0.0439,0.0129,0.0568,0.0133
1201,0.0515,0.0178,0.0469,0.0092
1202,0.0534,0.0276,0.0705,0.0132
1203,0.0419,0.0134,0.0436,0.0065
1204,0.0397,0.0149,0.0445,0.0127
1205,0.0415,0.0150,0.0370,0.0048
1206,0.0411,0.0159,0.0363,0.0044
1207,0.0506,0.0244,0.0474,0.0097
1208,0.0405,0.0194,0.0370,0.0046
1209,0.0439,0.0309,0.0411,0.0046
1210,0.0394,0.0185,0.0335,0.0116
1211,0.0413,0.0247,0.0388,0.0045
1212,0.0561,0.0365,0.0512,0.0090
1213,0.0534,0.0276,0.0705,0.0132
1214,0.0391,0.0247,0.0348,0.0116
1215,0.0457,0.0342,0.0421,0.0050
1216,0.0419,0.0132,0.0374,0.0153
1217,0.0399,0.0157,0.0372,0.0161
1218,0.0516,0.0167,0.0448,0.0159
1219,0.0516,0.0167,0.0448,0.0159
1220,0.0516,0.0167,0.0448,0.0159
1221,0.0516,0.0167,0.0448,0.0159
1222,0.0516,0.0167,0.0448,0.0159
1223,0.0516,0.0167,0.0448,0.0159
1224,0.0654,0.0138,0.0717,0.0063
1225,0.0621,0.0139,0.0624,0.0042
1226,0.0621,0.0139,0.0624,0.0042
1227,0.0621,0.0139,0.0624,0.0042
1228,0.0603,0.0129,0.0618,0.0041
1229,0.0455,0.0141,0.0697,0.0102
1230,0.0586,0.0120,0.0617,0.0042
1231,0.0573,0.0111,0.0618,0.0046
1232,0.0562,0.0106,0.0624,0.0053
1233,0.0555,0.0100,0.0630,0.0057
1234,0.0450,0.0124,0.0730,0.0100
1235,0.0645,0.0119,0.0721,0.0057
1236,0.0554,0.0096,0.0645,0.0053
1237,0.0559,0.0099,0.0653,0.0048
1238,0.0568,0.0108,0.0661,0.0043
1239,0.0580,0.0122,0.0669,0.0041
1240,0.0442,0.0135,0.0704,0.0106
1241,0.0652,0.0112,0.0603,0.0119
1242,0.0647,0.0104,0.0606,0.0110
1243,0.0644,0.0098,0.0608,0.0102
1244,0.0640,0.0095,0.0609,0.0092
1245,0.0502,0.0134,0.0676,0.0118
1246,0.0637,0.0108,0.0724,0.0052
1247,0.0635,0.0105,0.0614,0.0074
1248,0.0632,0.0114,0.0616,0.0064
1249,0.0629,0.0123,0.0619,0.0055
1250,0.0626,0.0130,0.0621,0.0047
1251,0.0477,0.0144,0.0688,0.0097
1252,0.0573,0.0111,0.0618,0.0046
1253,0.0619,0.0142,0.0625,0.0046
1254,0.0617,0.0143,0.0628,0.0051
1255,0.0615,0.0141,0.0629,0.0058
1256,0.0468,0.0148,0.0721,0.0120
1257,0.0460,0.0195,0.0747,0.0097
1258,0.0613,0.0127,0.0635,0.0072
1259,0.0613,0.0122,0.0640,0.0082
1260,0.0614,0.0129,0.0646,0.0096
1261,0.0616,0.0155,0.0651,0.0114
1262,0.0490,0.0254,0.0752,0.0143
1263,0.0622,0.0251,0.0658,0.0142
1264,0.0562,0.0106,0.0624,0.0053
1265,0.0621,0.0139,0.0624,0.0042
1266,0.0621,0.0139,0.0624,0.0042
1267,0.0474,0.0147,0.0692,0.0097
1268,0.0560,0.0200,0.0675,0.0045
1269,0.0621,0.0139,0.0624,0.0042
1270,0.0621,0.0139,0.0624,0.0042
1271,0.0621,0.0139,0.0624,0.0042
1272,0.0621,0.0139,0.0624,0.0042
1273,0.0474,0.0147,0.0692,0.0097
1274,0.0621,0.0139,0.0624,0.0042
1275,0.0621,0.0139,0.0624,0.0042
1276,0.0555,0.0100,0.0630,0.0057
1277,0.0621,0.0139,0.0624,0.0042
1278,0.0474,0.0147,0.0692,0.0097
1279,0.0617,0.0102,0.0724,0.0055
1280,0.0621,0.0139,0.0624,0.0042
1281,0.0621,0.0139,0.0624,0.0042
1282,0.0621,0.0139,0.0624,0.0042
1283,0.0621,0.0139,0.0624,0.0042
1284,0.0474,0.0147,0.0692,0.0097
1285,0.0621,0.0139,0.0624,0.0042
1286,0.0621,0.0139,0.0624,0.0042
1287,0.0621,0.0139,0.0624,0.0042
1288,0.0553,0.0097,0.0637,0.0057
1289,0.0474,0.0147,0.0692,0.0097
1290,0.0612,0.0104,0.0724,0.0060
1291,0.0621,0.0139,0.0624,0.0042
1292,0.0621,0.0139,0.0624,0.0042
1293,0.0621,0.0139,0.0624,0.0042
1294,0.0621,0.0139,0.0624,0.0042
1295,0.0474,0.0147,0.0692,0.0097
1296,0.0621,0.0139,0.0624,0.0042
1297,0.0621,0.0139,0.0624,0.0042
1298,0.0621,0.0139,0.0624,0.0042
1299,0.0621,0.0139,0.0624,0.0042
1300,0.0465,0.0132,0.0737,0.0097
1301,0.0607,0.0105,0.0721,0.0066
1302,0.0621,0.0139,0.0624,0.0042
1303,0.0621,0.0139,0.0624,0.0042
1304,0.0621,0.0139,0.0624,0.0042
1305,0.0621,0.0139,0.0624,0.0042
1306,0.0474,0.0147,0.0692,0.0097
1307,0.1131,0.0201,0.0754,0.0084
1308,0.1042,0.0200,0.0740,0.0078
1309,0.0962,0.0197,0.0726,0.0073
1310,0.0891,0.0192,0.0711,0.0067
1311,0.0450,0.0124,0.0730,0.0100
1312,0.0445,0.0228,0.0761,0.0119
1313,0.0559,0.0099,0.0653,0.0048
1314,0.0777,0.0179,0.0682,0.0057
1315,0.0733,0.0172,0.0668,0.0054
1316,0.0697,0.0163,0.0655,0.0050
1317,0.0527,0.0163,0.0691,0.0095
1318,0.0642,0.0147,0.0632,0.0045
1319,0.0603,0.0129,0.0618,0.0041
1320,0.0586,0.0120,0.0617,0.0042
1321,0.0573,0.0111,0.0618,0.0046
1322,0.0434,0.0123,0.0716,0.0107
1323,0.0595,0.0116,0.0706,0.0048
1324,0.0601,0.0120,0.0717,0.0077
1325,0.0555,0.0100,0.0630,0.0057
1326,0.0568,0.0108,0.0661,0.0043
1327,0.0553,0.0097,0.0637,0.0057
1328,0.0554,0.0096,0.0645,0.0053
1329,0.0483,0.0145,0.0743,0.0095
1330,0.0568,0.0108,0.0661,0.0043
1331,0.0580,0.0122,0.0669,0.0041
1332,0.0652,0.0112,0.0603,0.0119
1333,0.0647,0.0104,0.0606,0.0110
1334,0.0516,0.0140,0.0671,0.0131
1335,0.0600,0.0151,0.0714,0.0085
1336,0.0516,0.0140,0.0671,0.0131
1337,0.0516,0.0140,0.0671,0.0131
1338,0.0516,0.0140,0.0671,0.0131
1339,0.0516,0.0140,0.0671,0.0131
1340,0.0516,0.0140,0.0671,0.0131
1341,0.0602,0.0109,0.0585,0.0040
1342,0.0602,0.0109,0.0585,0.0040
1343,0.0602,0.0109,0.0585,0.0040
1344,0.0588,0.0108,0.0588,0.0040
1345,0.0455,0.0138,0.0692,0.0103
1346,0.0600,0.0204,0.0711,0.0097
1347,0.0578,0.0108,0.0597,0.0042
1348,0.0570,0.0107,0.0607,0.0047
1349,0.0563,0.0107,0.0620,0.0055
1350,0.0557,0.0107,0.0632,0.0059
1351,0.0440,0.0157,0.0742,0.0099
1352,0.0553,0.0118,0.0654,0.0053
1353,0.0555,0.0131,0.0665,0.0047
1354,0.0560,0.0149,0.0675,0.0043
1355,0.0568,0.0171,0.0684,0.0041
1356,0.0445,0.0136,0.0704,0.0107
1357,0.0602,0.0272,0.0709,0.0114
1358,0.0620,0.0091,0.0578,0.0118
1359,0.0616,0.0091,0.0581,0.0108
1360,0.0613,0.0092,0.0582,0.0100
1361,0.0611,0.0094,0.0582,0.0091
1362,0.0482,0.0129,0.0664,0.0118
1363,0.0609,0.0099,0.0579,0.0074
1364,0.0608,0.0102,0.0579,0.0065
1365,0.0607,0.0105,0.0580,0.0056
1366,0.0605,0.0107,0.0581,0.0047
1367,0.0471,0.0138,0.0674,0.0097
1368,0.0461,0.0480,0.0775,0.0143
1369,0.0570,0.0107,0.0607,0.0047
1370,0.0600,0.0110,0.0587,0.0042
1371,0.0598,0.0109,0.0591,0.0048
1372,0.0597,0.0108,0.0596,0.0054
1373,0.0466,0.0143,0.0717,0.0121
1374,0.0595,0.0107,0.0611,0.0070
1375,0.0595,0.0112,0.0621,0.0081
1376,0.0595,0.0127,0.0632,0.0097
1377,0.0596,0.0154,0.0641,0.0117
1378,0.0479,0.0233,0.0758,0.0143
1379,0.0614,0.0435,0.0705,0.0141
1380,0.0598,0.0239,0.0654,0.0146
1381,0.0563,0.0107,0.0620,0.0055
1382,0.0602,0.0109,0.0585,0.0040
1383,0.0602,0.0109,0.0585,0.0040
1384,0.0469,0.0139,0.0680,0.0097
1385,0.0602,0.0109,0.0585,0.0040
1386,0.0602,0.0109,0.0585,0.0040
1387,0.0602,0.0109,0.0585,0.0040
1388,0.0602,0.0109,0.0585,0.0040
1389,0.0469,0.0139,0.0680,0.0097
1390,0.0556,0.0243,0.0666,0.0049
1391,0.0602,0.0109,0.0585,0.0040
1392,0.0602,0.0109,0.0585,0.0040
1393,0.0557,0.0107,0.0632,0.0059
1394,0.0602,0.0109,0.0585,0.0040
1395,0.0469,0.0139,0.0680,0.0097
1396,0.0602,0.0109,0.0585,0.0040
1397,0.0602,0.0109,0.0585,0.0040
1398,0.0602,0.0109,0.0585,0.0040
1399,0.0602,0.0109,0.0585,0.0040
1400,0.0469,0.0139,0.0680,0.0097
1401,0.0623,0.0102,0.0724,0.0052
1402,0.0602,0.0109,0.0585,0.0040
1403,0.0602,0.0109,0.0585,0.0040
1404,0.0602,0.0109,0.0585,0.0040
1405,0.0554,0.0110,0.0643,0.0057
1406,0.0469,0.0139,0.0680,0.0097
1407,0.0602,0.0109,0.0585,0.0040
1408,0.0602,0.0109,0.0585,0.0040
1409,0.0602,0.0109,0.0585,0.0040
1410,0.0602,0.0109,0.0585,0.0040
1411,0.0469,0.0139,0.0680,0.0097
1412,0.0623,0.0102,0.0724,0.0052
1413,0.0602,0.0109,0.0585,0.0040
1414,0.0602,0.0109,0.0585,0.0040
1415,0.0602,0.0109,0.0585,0.0040
1416,0.0602,0.0109,0.0585,0.0040
1417,0.0449,0.0174,0.0750,0.0096
1418,0.0602,0.0109,0.0585,0.0040
1419,0.0602,0.0109,0.0585,0.0040
1420,0.0602,0.0109,0.0585,0.0040
1421,0.0602,0.0109,0.0585,0.0040
1422,0.0469,0.0139,0.0680,0.0097
1423,0.0456,0.0187,0.0749,0.0097
1424,0.1192,0.0109,0.0647,0.0078
1425,0.1089,0.0111,0.0639,0.0072
1426,0.0995,0.0111,0.0630,0.0066
1427,0.0910,0.0112,0.0622,0.0061
1428,0.0440,0.0157,0.0742,0.0099
1429,0.0555,0.0131,0.0665,0.0047
1430,0.0772,0.0112,0.0605,0.0051
1431,0.0719,0.0111,0.0598,0.0048
1432,0.0677,0.0110,0.0592,0.0046
1433,0.0508,0.0139,0.0661,0.0094
1434,0.0443,0.0226,0.0740,0.0100
1435,0.0623,0.0102,0.0724,0.0052
1436,0.0620,0.0109,0.0585,0.0041
1437,0.0588,0.0108,0.0588,0.0040
1438,0.0578,0.0108,0.0597,0.0042
1439,0.0570,0.0107,0.0607,0.0047
1440,0.0434,0.0137,0.0723,0.0107
1441,0.0557,0.0107,0.0632,0.0059
1442,0.0560,0.0149,0.0675,0.0043
1443,0.0554,0.0110,0.0643,0.0057
1444,0.0553,0.0118,0.0654,0.0053
1445,0.0461,0.0197,0.0757,0.0094
1446,0.0623,0.0102,0.0724,0.0052
1447,0.0560,0.0149,0.0675,0.0043
1448,0.0568,0.0171,0.0684,0.0041
1449,0.0620,0.0091,0.0578,0.0118
1450,0.0616,0.0091,0.0581,0.0108
1451,0.0489,0.0124,0.0659,0.0131
1452,0.0489,0.0124,0.0659,0.0131
1453,0.0489,0.0124,0.0659,0.0131
1454,0.0489,0.0124,0.0659,0.0131
1455,0.0489,0.0124,0.0659,0.0131
1456,0.0489,0.0124,0.0659,0.0131
1457,0.0623,0.0102,0.0724,0.0052
1458,0.0594,0.0093,0.0575,0.0040
1459,0.0594,0.0093,0.0575,0.0040
1460,0.0594,0.0093,0.0575,0.0040
1461,0.0581,0.0095,0.0582,0.0040
1462,0.0451,0.0131,0.0695,0.0103
1463,0.0571,0.0098,0.0595,0.0042
1464,0.0565,0.0099,0.0609,0.0048
1465,0.0560,0.0099,0.0625,0.0055
1466,0.0556,0.0099,0.0638,0.0059
1467,0.0439,0.0153,0.0750,0.0099
1468,0.0623,0.0102,0.0724,0.0052
1469,0.0553,0.0113,0.0663,0.0053
1470,0.0555,0.0128,0.0674,0.0047
1471,0.0559,0.0148,0.0685,0.0042
1472,0.0566,0.0173,0.0694,0.0041
1473,0.0443,0.0129,0.0709,0.0107
1474,0.0616,0.0089,0.0575,0.0117
1475,0.0610,0.0090,0.0579,0.0108
1476,0.0607,0.0090,0.0579,0.0100
1477,0.0605,0.0090,0.0577,0.0091
1478,0.0472,0.0127,0.0664,0.0118
1479,0.0456,0.0187,0.0749,0.0097
1480,0.0603,0.0091,0.0572,0.0074
1481,0.0601,0.0092,0.0571,0.0065
1482,0.0600,0.0092,0.0570,0.0056
1483,0.0598,0.0093,0.0571,0.0048
1484,0.0464,0.0131,0.0674,0.0098
1485,0.0565,0.0099,0.0609,0.0048
1486,0.0592,0.0093,0.0578,0.0042
1487,0.0590,0.0094,0.0583,0.0046
1488,0.0589,0.0094,0.0589,0.0053
1489,0.0459,0.0140,0.0722,0.0122
1490,0.0623,0.0102,0.0724,0.0052
1491,0.0586,0.0101,0.0608,0.0069
1492,0.0584,0.0113,0.0620,0.0081
1493,0.0584,0.0133,0.0633,0.0098
1494,0.0584,0.0163,0.0645,0.0118
1495,0.0468,0.0237,0.0767,0.0144
1496,0.0584,0.0247,0.0660,0.0148
1497,0.0560,0.0099,0.0625,0.0055
1498,0.0594,0.0093,0.0575,0.0040
1499,0.0594,0.0093,0.0575,0.0040
1500,0.0462,0.0131,0.0681,0.0098
1501,0.0623,0.0102,0.0724,0.0052
1502,0.0594,0.0093,0.0575,0.0040
1503,0.0594,0.0093,0.0575,0.0040
1504,0.0594,0.0093,0.0575,0.0040
1505,0.0594,0.0093,0.0575,0.0040
1506,0.0462,0.0131,0.0681,0.0098
1507,0.0594,0.0093,0.0575,0.0040
1508,0.0594,0.0093,0.0575,0.0040
1509,0.0556,0.0099,0.0638,0.0059
1510,0.0594,0.0093,0.0575,0.0040
1511,0.0462,0.0131,0.0681,0.0098
1512,0.0560,0.0281,0.0661,0.0053
1513,0.0594,0.0093,0.0575,0.0040
1514,0.0594,0.0093,0.0575,0.0040
1515,0.0594,0.0093,0.0575,0.0040
1516,0.0594,0.0093,0.0575,0.0040
1517,0.0462,0.0131,0.0681,0.0098
1518,0.0594,0.0093,0.0575,0.0040
1519,0.0594,0.0093,0.0575,0.0040
1520,0.0594,0.0093,0.0575,0.0040
1521,0.0554,0.0103,0.0651,0.0057
1522,0.0462,0.0131,0.0681,0.0098
1523,0.0623,0.0102,0.0724,0.0052
1524,0.0594,0.0093,0.0575,0.0040
1525,0.0594,0.0093,0.0575,0.0040
1526,0.0594,0.0093,0.0575,0.0040
1527,0.0594,0.0093,0.0575,0.0040
1528,0.0462,0.0131,0.0681,0.0098
1529,0.0594,0.0093,0.0575,0.0040
1530,0.0594,0.0093,0.0575,0.0040
1531,0.0594,0.0093,0.0575,0.0040
1532,0.0594,0.0093,0.0575,0.0040
1533,0.0446,0.0173,0.0759,0.0096
1534,0.0456,0.0187,0.0749,0.0097
1535,0.0594,0.0093,0.0575,0.0040
1536,0.0594,0.0093,0.0575,0.0040
1537,0.0594,0.0093,0.0575,0.0040
1538,0.0594,0.0093,0.0575,0.0040
1539,0.0462,0.0131,0.0681,0.0098
1540,0.1237,0.0089,0.0607,0.0076
1541,0.1128,0.0089,0.0601,0.0070
1542,0.1028,0.0088,0.0595,0.0064
1543,0.0937,0.0088,0.0589,0.0058
1544,0.0439,0.0153,0.0750,0.0099
1545,0.0573,0.0151,0.0690,0.0044
1546,0.0623,0.0102,0.0724,0.0052
1547,0.0555,0.0128,0.0674,0.0047
1548,0.0785,0.0089,0.0579,0.0049
1549,0.0726,0.0089,0.0575,0.0046
1550,0.0678,0.0090,0.0572,0.0043
1551,0.0498,0.0128,0.0654,0.0094
1552,0.0613,0.0092,0.0572,0.0040
1553,0.0581,0.0095,0.0582,0.0040
1554,0.0571,0.0098,0.0595,0.0042
1555,0.0565,0.0099,0.0609,0.0048
1556,0.0434,0.0130,0.0731,0.0106
1557,0.0623,0.0102,0.0724,0.0052
1558,0.0556,0.0099,0.0638,0.0059
1559,0.0559,0.0148,0.0685,0.0042
1560,0.0554,0.0103,0.0651,0.0057
1561,0.0553,0.0113,0.0663,0.0053
1562,0.0457,0.0197,0.0767,0.0094
1563,0.0559,0.0148,0.0685,0.0042
1564,0.0566,0.0173,0.0694,0.0041
1565,0.0616,0.0089,0.0575,0.0117
1566,0.0610,0.0090,0.0579,0.0108
1567,0.0478,0.0122,0.0660,0.0131
1568,0.0623,0.0102,0.0724,0.0052
1569,0.0478,0.0122,0.0660,0.0131
1570,0.0478,0.0122,0.0660,0.0131
1571,0.0478,0.0122,0.0660,0.0131
1572,0.0478,0.0122,0.0660,0.0131
1573,0.0478,0.0122,0.0660,0.0131
1574,0.0496,0.0120,0.0573,0.0048
1575,0.0496,0.0120,0.0573,0.0048
1576,0.0621,0.0117,0.0609,0.0113
1577,0.0467,0.0151,0.0553,0.0046
1578,0.0420,0.0286,0.0601,0.0097
1579,0.0623,0.0102,0.0724,0.0052
1580,0.0579,0.0125,0.0557,0.0112
1581,0.0419,0.0252,0.0515,0.0045
1582,0.0405,0.0298,0.0503,0.0051
1583,0.0522,0.0247,0.0481,0.0112
1584,0.0450,0.0406,0.0594,0.0097
1585,0.0410,0.0392,0.0492,0.0052
1586,0.0496,0.0382,0.0443,0.0115
1587,0.0441,0.0431,0.0497,0.0044
1588,0.0461,0.0447,0.0501,0.0042
1589,0.0410,0.0320,0.0596,0.0101
1590,0.0456,0.0187,0.0749,0.0097
1591,0.0588,0.0404,0.0537,0.0133
1592,0.0577,0.0371,0.0539,0.0125
1593,0.0661,0.0218,0.0547,0.0186
1594,0.0556,0.0285,0.0551,0.0106
1595,0.0494,0.0381,0.0603,0.0115
1596,0.0648,0.0125,0.0585,0.0158
1597,0.0527,0.0172,0.0572,0.0068
1598,0.0519,0.0151,0.0575,0.0055
1599,0.0631,0.0114,0.0605,0.0119
1600,0.0446,0.0251,0.0612,0.0094
1601,0.0623,0.0102,0.0724,0.0052
1602,0.0419,0.0252,0.0515,0.0045
1603,0.0617,0.0120,0.0607,0.0120
1604,0.0487,0.0116,0.0567,0.0069
1605,0.0484,0.0120,0.0560,0.0080
1606,0.0432,0.0289,0.0614,0.0109
1607,0.0482,0.0152,0.0548,0.0097
1608,0.0484,0.0192,0.0541,0.0102
1609,0.0608,0.0121,0.0552,0.0189
1610,0.0492,0.0320,0.0531,0.0117
1611,0.0466,0.0532,0.0624,0.0143
1612,0.0623,0.0102,0.0724,0.0052
1613,0.0614,0.0284,0.0509,0.0192
1614,0.0405,0.0298,0.0503,0.0051
1615,0.0496,0.0120,0.0573,0.0048
1616,0.0621,0.0117,0.0609,0.0113
1617,0.0440,0.0243,0.0612,0.0094
1618,0.0496,0.0120,0.0573,0.0048
1619,0.0621,0.0117,0.0609,0.0113
1620,0.0496,0.0120,0.0573,0.0048
1621,0.0496,0.0120,0.0573,0.0048
1622,0.0440,0.0243,0.0612,0.0094
1623,0.0623,0.0102,0.0724,0.0052
1624,0.0496,0.0120,0.0573,0.0048
1625,0.0496,0.0120,0.0573,0.0048
1626,0.0522,0.0247,0.0481,0.0112
1627,0.0496,0.0120,0.0573,0.0048
1628,0.0440,0.0243,0.0612,0.0094
1629,0.0621,0.0117,0.0609,0.0113
1630,0.0496,0.0120,0.0573,0.0048
1631,0.0496,0.0120,0.0573,0.0048
1632,0.0621,0.0117,0.0609,0.0113
1633,0.0440,0.0243,0.0612,0.0094
1634,0.0571,0.0310,0.0658,0.0054
1635,0.0496,0.0120,0.0573,0.0048
1636,0.0621,0.0117,0.0609,0.0113
1637,0.0496,0.0120,0.0573,0.0048
1638,0.0401,0.0366,0.0493,0.0056
1639,0.0440,0.0243,0.0612,0.0094
1640,0.0496,0.0120,0.0573,0.0048
1641,0.0496,0.0120,0.0573,0.0048
1642,0.0621,0.0117,0.0609,0.0113
1643,0.0496,0.0120,0.0573,0.0048
1644,0.0440,0.0243,0.0612,0.0094
1645,0.0456,0.0187,0.0749,0.0097
1646,0.0621,0.0117,0.0609,0.0113
1647,0.0496,0.0120,0.0573,0.0048
1648,0.0496,0.0120,0.0573,0.0048
1649,0.0621,0.0117,0.0609,0.0113
1650,0.0472,0.0421,0.0596,0.0094
1651,0.0496,0.0120,0.0573,0.0048
1652,0.0621,0.0117,0.0609,0.0113
1653,0.0496,0.0120,0.0573,0.0048
1654,0.0496,0.0120,0.0573,0.0048
1655,0.0440,0.0243,0.0612,0.0094
1656,0.0560,0.0200,0.0675,0.0045
1657,0.0623,0.0102,0.0724,0.0052
1658,0.0965,0.0308,0.0805,0.0092
1659,0.0891,0.0284,0.0784,0.0086
1660,0.0964,0.0331,0.0801,0.0120
1661,0.0767,0.0229,0.0740,0.0075
1662,0.0450,0.0406,0.0594,0.0097
1663,0.0496,0.0382,0.0443,0.0115
1664,0.0671,0.0170,0.0692,0.0066
1665,0.0630,0.0141,0.0668,0.0062
1666,0.0700,0.0191,0.0686,0.0114
1667,0.0502,0.0173,0.0640,0.0098
1668,0.0623,0.0102,0.0724,0.0052
1669,0.0528,0.0104,0.0596,0.0051
1670,0.0599,0.0113,0.0583,0.0113
1671,0.0440,0.0196,0.0533,0.0043
1672,0.0419,0.0252,0.0515,0.0045
1673,0.0418,0.0371,0.0591,0.0102
1674,0.0399,0.0336,0.0496,0.0055
1675,0.0441,0.0431,0.0497,0.0044
1676,0.0508,0.0302,0.0462,0.0114
1677,0.0410,0.0392,0.0492,0.0052
1678,0.0495,0.0435,0.0600,0.0093
1679,0.0623,0.0102,0.0724,0.0052
1680,0.0498,0.0411,0.0440,0.0114
1681,0.0461,0.0447,0.0501,0.0042
1682,0.0588,0.0404,0.0537,0.0133
1683,0.0666,0.0276,0.0534,0.0189
1684,0.0525,0.0442,0.0598,0.0128
1685,0.0525,0.0442,0.0598,0.0128
1686,0.0525,0.0442,0.0598,0.0128
1687,0.0525,0.0442,0.0598,0.0128
1688,0.0525,0.0442,0.0598,0.0128
1689,0.0525,0.0442,0.0598,0.0128
1690,0.0623,0.0102,0.0724,0.0052
1691,0.0498,0.0101,0.0530,0.0045
1692,0.0498,0.0101,0.0530,0.0045
1693,0.0607,0.0135,0.0554,0.0112
1694,0.0474,0.0108,0.0513,0.0043
1695,0.0431,0.0207,0.0581,0.0097
1696,0.0576,0.0112,0.0509,0.0112
1697,0.0430,0.0167,0.0486,0.0046
1698,0.0414,0.0196,0.0481,0.0052
1699,0.0530,0.0169,0.0446,0.0113
1700,0.0429,0.0266,0.0590,0.0097
1701,0.0456,0.0187,0.0749,0.0097
1702,0.0401,0.0253,0.0483,0.0054
1703,0.0499,0.0257,0.0426,0.0116
1704,0.0421,0.0277,0.0493,0.0045
1705,0.0436,0.0286,0.0499,0.0042
1706,0.0417,0.0224,0.0580,0.0101
1707,0.0560,0.0284,0.0499,0.0133
1708,0.0553,0.0256,0.0501,0.0126
1709,0.0631,0.0151,0.0496,0.0184
1710,0.0539,0.0193,0.0510,0.0108
1711,0.0496,0.0274,0.0577,0.0117
1712,0.0623,0.0102,0.0724,0.0052
1713,0.0624,0.0116,0.0531,0.0159
1714,0.0519,0.0115,0.0528,0.0071
1715,0.0513,0.0105,0.0531,0.0058
1716,0.0613,0.0127,0.0550,0.0120
1717,0.0457,0.0188,0.0585,0.0094
1718,0.0430,0.0167,0.0486,0.0046
1719,0.0604,0.0139,0.0553,0.0117
1720,0.0492,0.0104,0.0525,0.0065
1721,0.0491,0.0105,0.0520,0.0076
1722,0.0448,0.0218,0.0595,0.0109
1723,0.0623,0.0102,0.0724,0.0052
1724,0.0491,0.0120,0.0511,0.0094
1725,0.0493,0.0145,0.0507,0.0099
1726,0.0601,0.0122,0.0503,0.0185
1727,0.0501,0.0245,0.0505,0.0114
1728,0.0481,0.0422,0.0613,0.0141
1729,0.0608,0.0231,0.0468,0.0186
1730,0.0414,0.0196,0.0481,0.0052
1731,0.0498,0.0101,0.0530,0.0045
1732,0.0607,0.0135,0.0554,0.0112
1733,0.0452,0.0185,0.0586,0.0094
1734,0.0623,0.0102,0.0724,0.0052
1735,0.0498,0.0101,0.0530,0.0045
1736,0.0607,0.0135,0.0554,0.0112
1737,0.0498,0.0101,0.0530,0.0045
1738,0.0498,0.0101,0.0530,0.0045
1739,0.0452,0.0185,0.0586,0.0094
1740,0.0498,0.0101,0.0530,0.0045
1741,0.0498,0.0101,0.0530,0.0045
1742,0.0530,0.0169,0.0446,0.0113
1743,0.0498,0.0101,0.0530,0.0045
1744,0.0452,0.0185,0.0586,0.0094
1745,0.0623,0.0102,0.0724,0.0052
1746,0.0607,0.0135,0.0554,0.0112
1747,0.0498,0.0101,0.0530,0.0045
1748,0.0498,0.0101,0.0530,0.0045
1749,0.0607,0.0135,0.0554,0.0112
1750,0.0452,0.0185,0.0586,0.0094
1751,0.0498,0.0101,0.0530,0.0045
1752,0.0607,0.0135,0.0554,0.0112
1753,0.0498,0.0101,0.0530,0.0045
1754,0.0399,0.0238,0.0480,0.0057
1755,0.0452,0.0185,0.0586,0.0094
1756,0.0553,0.0361,0.0735,0.0097
1757,0.0498,0.0101,0.0530,0.0045
1758,0.0498,0.0101,0.0530,0.0045
1759,0.0607,0.0135,0.0554,0.0112
1760,0.0498,0.0101,0.0530,0.0045
1761,0.0452,0.0185,0.0586,0.0094
1762,0.0607,0.0135,0.0554,0.0112
1763,0.0498,0.0101,0.0530,0.0045
1764,0.0498,0.0101,0.0530,0.0045
1765,0.0607,0.0135,0.0554,0.0112
1766,0.0445,0.0273,0.0594,0.0094
1767,0.0556,0.0243,0.0666,0.0049
1768,0.0623,0.0102,0.0724,0.0052
1769,0.0498,0.0101,0.0530,0.0045
1770,0.0607,0.0135,0.0554,0.0112
1771,0.0498,0.0101,0.0530,0.0045
1772,0.0498,0.0101,0.0530,0.0045
1773,0.0452,0.0185,0.0586,0.0094
1774,0.0958,0.0287,0.0730,0.0088
1775,0.0878,0.0270,0.0712,0.0081
1776,0.0963,0.0307,0.0725,0.0119
1777,0.0746,0.0230,0.0673,0.0071
1778,0.0429,0.0266,0.0590,0.0097
1779,0.0623,0.0102,0.0724,0.0052
1780,0.0499,0.0257,0.0426,0.0116
1781,0.0648,0.0185,0.0631,0.0061
1782,0.0610,0.0161,0.0610,0.0057
1783,0.0677,0.0204,0.0623,0.0113
1784,0.0508,0.0155,0.0605,0.0096
1785,0.0523,0.0105,0.0549,0.0048
1786,0.0591,0.0120,0.0531,0.0112
1787,0.0451,0.0132,0.0499,0.0042
1788,0.0430,0.0167,0.0486,0.0046
1789,0.0410,0.0249,0.0582,0.0103
1790,0.0623,0.0102,0.0724,0.0052
1791,0.0403,0.0219,0.0479,0.0057
1792,0.0421,0.0277,0.0493,0.0045
1793,0.0517,0.0204,0.0433,0.0114
1794,0.0401,0.0253,0.0483,0.0054
1795,0.0464,0.0282,0.0599,0.0093
1796,0.0496,0.0275,0.0427,0.0115
1797,0.0436,0.0286,0.0499,0.0042
1798,0.0560,0.0284,0.0499,0.0133
1799,0.0634,0.0189,0.0486,0.0188
1800,0.0519,0.0319,0.0573,0.0130
1801,0.0623,0.0102,0.0724,0.0052
1802,0.0519,0.0319,0.0573,0.0130
1803,0.0519,0.0319,0.0573,0.0130
1804,0.0519,0.0319,0.0573,0.0130
1805,0.0519,0.0319,0.0573,0.0130
1806,0.0519,0.0319,0.0573,0.0130
1807,0.0473,0.0111,0.0448,0.0041
1808,0.0473,0.0111,0.0448,0.0041
1809,0.0560,0.0144,0.0440,0.0112
1810,0.0462,0.0104,0.0442,0.0041
1811,0.0445,0.0151,0.0554,0.0098
1812,0.0456,0.0187,0.0749,0.0097
1813,0.0545,0.0124,0.0413,0.0112
1814,0.0440,0.0100,0.0445,0.0048
1815,0.0428,0.0100,0.0453,0.0056
1816,0.0532,0.0111,0.0391,0.0114
1817,0.0413,0.0132,0.0594,0.0097
1818,0.0403,0.0095,0.0480,0.0055
1819,0.0508,0.0120,0.0410,0.0118
1820,0.0404,0.0105,0.0500,0.0045
1821,0.0411,0.0117,0.0509,0.0042
1822,0.0432,0.0147,0.0562,0.0103
1823,0.1130,0.0329,0.0959,0.0097
1824,0.0490,0.0130,0.0434,0.0130
1825,0.0488,0.0120,0.0437,0.0125
1826,0.0573,0.0110,0.0402,0.0177
1827,0.0484,0.0100,0.0440,0.0110
1828,0.0478,0.0163,0.0538,0.0120
1829,0.0570,0.0134,0.0424,0.0159
1830,0.0478,0.0095,0.0446,0.0075
1831,0.0477,0.0100,0.0448,0.0063
1832,0.0564,0.0141,0.0437,0.0122
1833,0.0462,0.0152,0.0544,0.0095
1834,0.1057,0.0308,0.0936,0.0092
1835,0.0440,0.0100,0.0445,0.0048
1836,0.0559,0.0145,0.0439,0.0115
1837,0.0472,0.0116,0.0447,0.0058
1838,0.0473,0.0115,0.0446,0.0068
1839,0.0463,0.0166,0.0572,0.0108
1840,0.0475,0.0113,0.0449,0.0085
1841,0.0478,0.0120,0.0454,0.0091
1842,0.0558,0.0128,0.0408,0.0174
1843,0.0484,0.0175,0.0468,0.0108
1844,0.0486,0.0291,0.0608,0.0136
1845,0.0990,0.0286,0.0913,0.0086
1846,0.0562,0.0186,0.0399,0.0173
1847,0.0428,0.0100,0.0453,0.0056
1848,0.0473,0.0111,0.0448,0.0041
1849,0.0560,0.0144,0.0440,0.0112
1850,0.0461,0.0153,0.0547,0.0094
1851,0.0473,0.0111,0.0448,0.0041
1852,0.0560,0.0144,0.0440,0.0112
1853,0.0473,0.0111,0.0448,0.0041
1854,0.0473,0.0111,0.0448,0.0041
1855,0.0461,0.0153,0.0547,0.0094
1856,0.0929,0.0260,0.0888,0.0081
1857,0.0473,0.0111,0.0448,0.0041
1858,0.0473,0.0111,0.0448,0.0041
1859,0.0532,0.0111,0.0391,0.0114
1860,0.0473,0.0111,0.0448,0.0041
1861,0.0461,0.0153,0.0547,0.0094
1862,0.0560,0.0144,0.0440,0.0112
1863,0.0473,0.0111,0.0448,0.0041
1864,0.0473,0.0111,0.0448,0.0041
1865,0.0560,0.0144,0.0440,0.0112
1866,0.0461,0.0153,0.0547,0.0094
1867,0.0526,0.0346,0.0732,0.0100
1868,0.0473,0.0111,0.0448,0.0041
1869,0.0560,0.0144,0.0440,0.0112
1870,0.0473,0.0111,0.0448,0.0041
1871,0.0408,0.0096,0.0470,0.0059
1872,0.0461,0.0153,0.0547,0.0094
1873,0.0473,0.0111,0.0448,0.0041
1874,0.0473,0.0111,0.0448,0.0041
1875,0.0560,0.0144,0.0440,0.0112
1876,0.0473,0.0111,0.0448,0.0041
1877,0.0461,0.0153,0.0547,0.0094
1878,0.0560,0.0281,0.0661,0.0053
1879,0.0605,0.0358,0.0659,0.0046
1880,0.0560,0.0144,0.0440,0.0112
1881,0.0473,0.0111,0.0448,0.0041
1882,0.0473,0.0111,0.0448,0.0041
1883,0.0560,0.0144,0.0440,0.0112
1884,0.0419,0.0137,0.0602,0.0094
1885,0.0473,0.0111,0.0448,0.0041
1886,0.0560,0.0144,0.0440,0.0112
1887,0.0473,0.0111,0.0448,0.0041
1888,0.0473,0.0111,0.0448,0.0041
1889,0.0461,0.0153,0.0547,0.0094
1890,0.0822,0.0203,0.0838,0.0071
1891,0.0993,0.0202,0.0566,0.0079
1892,0.0893,0.0196,0.0555,0.0073
1893,0.1014,0.0219,0.0558,0.0118
1894,0.0725,0.0181,0.0530,0.0062
1895,0.0413,0.0132,0.0594,0.0097
1896,0.0508,0.0120,0.0410,0.0118
1897,0.0603,0.0161,0.0503,0.0053
1898,0.0559,0.0151,0.0490,0.0050
1899,0.0640,0.0178,0.0486,0.0112
1900,0.0493,0.0159,0.0542,0.0093
1901,0.0775,0.0174,0.0814,0.0067
1902,0.0486,0.0119,0.0456,0.0042
1903,0.0551,0.0133,0.0426,0.0112
1904,0.0451,0.0100,0.0442,0.0043
1905,0.0440,0.0100,0.0445,0.0048
1906,0.0414,0.0136,0.0578,0.0103
1907,0.0417,0.0099,0.0461,0.0060
1908,0.0404,0.0105,0.0500,0.0045
1909,0.0525,0.0115,0.0394,0.0116
1910,0.0403,0.0095,0.0480,0.0055
1911,0.0429,0.0148,0.0609,0.0092
1912,0.0732,0.0146,0.0790,0.0063
1913,0.0502,0.0122,0.0419,0.0116
1914,0.0411,0.0117,0.0509,0.0042
1915,0.0490,0.0130,0.0434,0.0130
1916,0.0574,0.0113,0.0398,0.0181
1917,0.0487,0.0174,0.0534,0.0132
1918,0.0487,0.0174,0.0534,0.0132
1919,0.0487,0.0174,0.0534,0.0132
1920,0.0487,0.0174,0.0534,0.0132
1921,0.0487,0.0174,0.0534,0.0132
1922,0.0487,0.0174,0.0534,0.0132
1923,0.0519,0.0137,0.0775,0.0099
1924,0.0435,0.0096,0.0405,0.0040
1925,0.0435,0.0096,0.0405,0.0040
1926,0.0536,0.0115,0.0368,0.0112
1927,0.0429,0.0095,0.0412,0.0041
1928,0.0437,0.0147,0.0555,0.0100
1929,0.0513,0.0110,0.0360,0.0112
1930,0.0425,0.0095,0.0440,0.0050
1931,0.0422,0.0092,0.0456,0.0058
1932,0.0515,0.0108,0.0377,0.0114
1933,0.0414,0.0138,0.0613,0.0096
1934,0.0656,0.0105,0.0745,0.0055
1935,0.0406,0.0086,0.0498,0.0055
1936,0.0508,0.0107,0.0423,0.0118
1937,0.0404,0.0111,0.0522,0.0045
1938,0.0407,0.0133,0.0533,0.0042
1939,0.0430,0.0142,0.0569,0.0104
1940,0.0449,0.0094,0.0410,0.0124
1941,0.0445,0.0093,0.0413,0.0120
1942,0.0564,0.0109,0.0360,0.0169
1943,0.0441,0.0090,0.0412,0.0107
1944,0.0446,0.0148,0.0529,0.0121
1945,0.0595,0.0116,0.0706,0.0048
1946,0.0558,0.0121,0.0362,0.0155
1947,0.0439,0.0089,0.0405,0.0077
1948,0.0438,0.0091,0.0404,0.0064
1949,0.0544,0.0117,0.0367,0.0123
1950,0.0443,0.0149,0.0535,0.0096
1951,0.0425,0.0095,0.0440,0.0050
1952,0.0532,0.0115,0.0367,0.0113
1953,0.0433,0.0098,0.0410,0.0052
1954,0.0434,0.0099,0.0414,0.0061
1955,0.0446,0.0162,0.0579,0.0109
1956,0.0573,0.0151,0.0690,0.0044
1957,0.0434,0.0106,0.0432,0.0077
1958,0.0435,0.0118,0.0445,0.0084
1959,0.0517,0.0112,0.0361,0.0163
1960,0.0437,0.0168,0.0473,0.0105
1961,0.0455,0.0261,0.0627,0.0132
1962,0.0514,0.0189,0.0383,0.0165
1963,0.0422,0.0092,0.0456,0.0058
1964,0.0435,0.0096,0.0405,0.0040
1965,0.0536,0.0115,0.0368,0.0112
1966,0.0443,0.0150,0.0540,0.0095
1967,0.0560,0.0200,0.0675,0.0045
1968,0.0435,0.0096,0.0405,0.0040
1969,0.0536,0.0115,0.0368,0.0112
1970,0.0435,0.0096,0.0405,0.0040
1971,0.0435,0.0096,0.0405,0.0040
1972,0.0443,0.0150,0.0540,0.0095
1973,0.0435,0.0096,0.0405,0.0040
1974,0.0435,0.0096,0.0405,0.0040
1975,0.0515,0.0108,0.0377,0.0114
1976,0.0435,0.0096,0.0405,0.0040
1977,0.0443,0.0150,0.0540,0.0095
1978,0.0475,0.0308,0.0730,0.0106
1979,0.0536,0.0115,0.0368,0.0112
1980,0.0435,0.0096,0.0405,0.0040
1981,0.0435,0.0096,0.0405,0.0040
1982,0.0536,0.0115,0.0368,0.0112
1983,0.0443,0.0150,0.0540,0.0095
1984,0.0435,0.0096,0.0405,0.0040
1985,0.0536,0.0115,0.0368,0.0112
1986,0.0435,0.0096,0.0405,0.0040
1987,0.0411,0.0084,0.0485,0.0060
1988,0.0443,0.0150,0.0540,0.0095
1989,0.0526,0.0346,0.0732,0.0100
1990,0.0560,0.0281,0.0661,0.0053
1991,0.0435,0.0096,0.0405,0.0040
1992,0.0435,0.0096,0.0405,0.0040
1993,0.0536,0.0115,0.0368,0.0112
1994,0.0435,0.0096,0.0405,0.0040
1995,0.0443,0.0150,0.0540,0.0095
1996,0.0536,0.0115,0.0368,0.0112
1997,0.0435,0.0096,0.0405,0.0040
1998,0.0435,0.0096,0.0405,0.0040
1999,0.0536,0.0115,0.0368,0.0112
2000,0.0416,0.0151,0.0623,0.0093
2001,0.0625,0.0377,0.0663,0.0042
2002,0.0435,0.0096,0.0405,0.0040
2003,0.0536,0.0115,0.0368,0.0112
2004,0.0435,0.0096,0.0405,0.0040
2005,0.0435,0.0096,0.0405,0.0040
2006,0.0443,0.0150,0.0540,0.0095
2007,0.1094,0.0118,0.0447,0.0074
2008,0.0978,0.0117,0.0441,0.0067
2009,0.1129,0.0136,0.0435,0.0117
2010,0.0774,0.0113,0.0427,0.0056
2011,0.0414,0.0138,0.0613,0.0096
2012,0.0571,0.0310,0.0658,0.0054
2013,0.0508,0.0107,0.0423,0.0118
2014,0.0613,0.0108,0.0415,0.0048
2015,0.0551,0.0105,0.0410,0.0045
2016,0.0663,0.0127,0.0390,0.0112
2017,0.0459,0.0150,0.0514,0.0091
2018,0.0447,0.0097,0.0403,0.0040
2019,0.0520,0.0112,0.0363,0.0112
2020,0.0427,0.0096,0.0425,0.0044
2021,0.0425,0.0095,0.0440,0.0050
2022,0.0419,0.0131,0.0593,0.0103
2023,0.0586,0.0336,0.0658,0.0050
2024,0.0416,0.0088,0.0471,0.0061
2025,0.0404,0.0111,0.0522,0.0045
2026,0.0515,0.0108,0.0392,0.0117
2027,0.0406,0.0086,0.0498,0.0055
2028,0.0422,0.0170,0.0631,0.0092
2029,0.0504,0.0108,0.0437,0.0116
2030,0.0407,0.0133,0.0533,0.0042
2031,0.0449,0.0094,0.0410,0.0124
2032,0.0568,0.0107,0.0362,0.0171
2033,0.0449,0.0146,0.0525,0.0132
2034,0.0581,0.0376,0.0738,0.0095
2035,0.0449,0.0146,0.0525,0.0132
2036,0.0449,0.0146,0.0525,0.0132
2037,0.0449,0.0146,0.0525,0.0132
2038,0.0449,0.0146,0.0525,0.0132
2039,0.0449,0.0146,0.0525,0.0132
2040,0.0423,0.0090,0.0400,0.0040
2041,0.0423,0.0090,0.0400,0.0040
2042,0.0542,0.0106,0.0350,0.0112
2043,0.0416,0.0093,0.0412,0.0041
2044,0.0427,0.0147,0.0564,0.0100
2045,0.0625,0.0377,0.0663,0.0042
2046,0.0506,0.0105,0.0351,0.0112
2047,0.0414,0.0096,0.0448,0.0051
2048,0.0413,0.0093,0.0467,0.0059
2049,0.0505,0.0109,0.0385,0.0115
2050,0.0414,0.0136,0.0626,0.0096
2051,0.0405,0.0084,0.0513,0.0055
2052,0.0504,0.0106,0.0437,0.0119
2053,0.0404,0.0111,0.0537,0.0044
2054,0.0407,0.0135,0.0548,0.0042
2055,0.0424,0.0141,0.0580,0.0104
2056,0.0647,0.0394,0.0666,0.0041
2057,0.0448,0.0091,0.0411,0.0121
2058,0.0441,0.0092,0.0416,0.0117
2059,0.0582,0.0107,0.0358,0.0164
2060,0.0435,0.0090,0.0413,0.0105
2061,0.0433,0.0148,0.0534,0.0120
2062,0.0573,0.0112,0.0349,0.0153
2063,0.0431,0.0087,0.0400,0.0077
2064,0.0429,0.0088,0.0399,0.0065
2065,0.0554,0.0107,0.0350,0.0123
2066,0.0431,0.0149,0.0540,0.0096
2067,0.0717,0.0378,0.0687,0.0120
2068,0.0414,0.0096,0.0448,0.0051
2069,0.0537,0.0105,0.0350,0.0113
2070,0.0420,0.0093,0.0408,0.0050
2071,0.0419,0.0095,0.0415,0.0059
2072,0.0432,0.0164,0.0592,0.0109
2073,0.0417,0.0107,0.0439,0.0074
2074,0.0416,0.0122,0.0456,0.0081
2075,0.0513,0.0111,0.0359,0.0158
2076,0.0416,0.0175,0.0488,0.0104
2077,0.0435,0.0262,0.0645,0.0130
2078,0.0704,0.0343,0.0690,0.0110
2079,0.0504,0.0198,0.0395,0.0162
2080,0.0413,0.0093,0.0467,0.0059
2081,0.0423,0.0090,0.0400,0.0040
2082,0.0542,0.0106,0.0350,0.0112
2083,0.0431,0.0150,0.0547,0.0095
2084,0.0423,0.0090,0.0400,0.0040
2085,0.0542,0.0106,0.0350,0.0112
2086,0.0423,0.0090,0.0400,0.0040
2087,0.0423,0.0090,0.0400,0.0040
2088,0.0431,0.0150,0.0547,0.0095
2089,0.0535,0.0402,0.0727,0.0133
2090,0.0423,0.0090,0.0400,0.0040
2091,0.0423,0.0090,0.0400,0.0040
2092,0.0505,0.0109,0.0385,0.0115
2093,0.0423,0.0090,0.0400,0.0040
2094,0.0431,0.0150,0.0547,0.0095
2095,0.0542,0.0106,0.0350,0.0112
2096,0.0423,0.0090,0.0400,0.0040
2097,0.0423,0.0090,0.0400,0.0040
2098,0.0542,0.0106,0.0350,0.0112
2099,0.0431,0.0150,0.0547,0.0095
Highest RMSE Cases
Vdc  Max RMSE=  0.1237 at Case 1540; 976 > 0.05
Idc  Max RMSE=  0.0532 at Case 1611; 1 > 0.05
Vd   Max RMSE=  0.1085 at Case 727; 1241 > 0.05
Vq   Max RMSE=  0.0194 at Case 679; 0 > 0.05
Total Error Summary
Vdc  RMSE=  0.0522
Idc  RMSE=  0.0185
Vd   RMSE=  0.0553
Vq   RMSE=  0.0093
