Read Model from: ./ucf7s2nd/
Export Model to: ./ucf7s2nd/ucf7s2nd_fhf.json
idx_in [0, 1, 2, 3, 4, 5, 6]
idx_out [7, 8, 9, 10]
make_mimo_block stable2nd
H1s[0][0]  Real Poles: [-68.55875254 -68.55875254] Freqs [Hz]: [6.377038327939705]
H1s[0][1]  Real Poles: [-71.66112065 -71.66112065] Freqs [Hz]: [7.87933451959362]
H1s[0][2]  Real Poles: [-89.24500868 -89.24500868] Freqs [Hz]: [3.1983171912513875]
H1s[0][3]  Real Poles: [-71.43290937 -71.43290937] Freqs [Hz]: [5.029575399585352]
H1s[1][0]  Real Poles: [-94.46764998 -94.46764998] Freqs [Hz]: [8.404983251761688]
H1s[1][1]  Real Poles: [-96.24693431 -96.24693431] Freqs [Hz]: [8.095637849893484]
H1s[1][2]  Real Poles: [-67.48338044 -67.48338044] Freqs [Hz]: [8.804721327999728]
H1s[1][3]  Real Poles: [-90.22107199 -90.22107199] Freqs [Hz]: [4.0222146812745105]
H1s[2][0]  Real Poles: [-91.51359573 -91.51359573] Freqs [Hz]: [4.542171659176616]
H1s[2][1]  Real Poles: [-88.51921186 -88.51921186] Freqs [Hz]: [8.265296540299909]
H1s[2][2]  Real Poles: [-86.91727519 -86.91727519] Freqs [Hz]: [6.507522022556111]
H1s[2][3]  Real Poles: [-91.34932756 -91.34932756] Freqs [Hz]: [8.318948315096613]
H1s[3][0]  Real Poles: [-86.69206947 -86.69206947] Freqs [Hz]: [5.759483576544417]
H1s[3][1]  Real Poles: [-97.82271478 -97.82271478] Freqs [Hz]: [6.6954985207120234]
H1s[3][2]  Real Poles: [-86.51221991 -86.51221991] Freqs [Hz]: [4.610101842960979]
H1s[3][3]  Real Poles: [-100.33583606 -100.33583606] Freqs [Hz]: [6.740516851196876]
model_folder = ./ucf7s2nd/
model_root = ucf7s2nd
data_path = d:/data/ucf3/ucf7.hdf5
idx_in [0, 1, 2, 3, 4, 5, 6]
idx_out [7, 8, 9, 10]
read 3600 dataframes
dt=0.010000 data_len=401 n_io=11 n_case=3600
['G', 'Ud', 'Uq', 'Vd', 'Vq', 'GVrms', 'Ctrl'] ['Vdc', 'Idc', 'Id', 'Iq'] (3600, 401, 11)
make_mimo_block stable2nd
Idx,Vdc,Idc,Id,Iq
#,RMSE,RMSE,RMSE,RMSE
Total,0.0064,0.0349,0.0448,0.0119
0,0.0037,0.0234,0.0479,0.0032
1,0.0037,0.0234,0.0479,0.0032
2,0.0046,0.0596,0.0715,0.0045
3,0.0036,0.0202,0.0356,0.0031
4,0.0039,0.0230,0.0511,0.0036
5,0.0039,0.0230,0.0511,0.0036
6,0.0039,0.0230,0.0511,0.0036
7,0.0038,0.0242,0.0524,0.0034
8,0.0038,0.0242,0.0524,0.0034
9,0.0050,0.0344,0.0615,0.0036
10,0.0068,0.0549,0.0764,0.0044
11,0.0080,0.0695,0.0852,0.0049
12,0.0079,0.0754,0.0875,0.0051
13,0.0065,0.0719,0.0834,0.0049
14,0.0036,0.0202,0.0356,0.0031
15,0.0048,0.0624,0.0761,0.0046
16,0.0049,0.0525,0.0693,0.0043
17,0.0083,0.0452,0.0655,0.0045
18,0.0140,0.0507,0.0721,0.0051
19,0.0050,0.0344,0.0615,0.0036
20,0.0041,0.0510,0.0524,0.0521
21,0.0050,0.0557,0.0633,0.0467
22,0.0060,0.0505,0.0665,0.0393
23,0.0058,0.0406,0.0630,0.0311
24,0.0050,0.0306,0.0561,0.0228
25,0.0036,0.0202,0.0356,0.0031
26,0.0041,0.0272,0.0500,0.0161
27,0.0037,0.0259,0.0491,0.0119
28,0.0036,0.0243,0.0493,0.0085
29,0.0036,0.0222,0.0492,0.0056
30,0.0037,0.0229,0.0510,0.0039
31,0.0068,0.0549,0.0764,0.0044
32,0.0043,0.0231,0.0496,0.0053
33,0.0049,0.0228,0.0466,0.0079
34,0.0054,0.0245,0.0455,0.0106
35,0.0058,0.0272,0.0453,0.0140
36,0.0036,0.0211,0.0381,0.0032
37,0.0061,0.0292,0.0455,0.0179
38,0.0057,0.0308,0.0498,0.0236
39,0.0053,0.0361,0.0554,0.0310
40,0.0056,0.0413,0.0579,0.0391
41,0.0074,0.0434,0.0561,0.0466
42,0.0117,0.0510,0.0535,0.0532
43,0.0080,0.0695,0.0852,0.0049
44,0.0039,0.0230,0.0511,0.0036
45,0.0039,0.0230,0.0511,0.0036
46,0.0039,0.0230,0.0511,0.0036
47,0.0036,0.0211,0.0381,0.0032
48,0.0039,0.0230,0.0511,0.0036
49,0.0039,0.0230,0.0511,0.0036
50,0.0039,0.0230,0.0511,0.0036
51,0.0039,0.0230,0.0511,0.0036
52,0.0039,0.0230,0.0511,0.0036
53,0.0039,0.0230,0.0511,0.0036
54,0.0039,0.0230,0.0511,0.0036
55,0.0079,0.0754,0.0875,0.0051
56,0.0039,0.0230,0.0511,0.0036
57,0.0039,0.0230,0.0511,0.0036
58,0.0051,0.0296,0.0466,0.0037
59,0.0039,0.0230,0.0511,0.0036
60,0.0039,0.0230,0.0511,0.0036
61,0.0039,0.0230,0.0511,0.0036
62,0.0039,0.0230,0.0511,0.0036
63,0.0039,0.0230,0.0511,0.0036
64,0.0039,0.0230,0.0511,0.0036
65,0.0039,0.0230,0.0511,0.0036
66,0.0039,0.0230,0.0511,0.0036
67,0.0065,0.0719,0.0834,0.0049
68,0.0039,0.0230,0.0511,0.0036
69,0.0070,0.0481,0.0598,0.0045
70,0.0039,0.0230,0.0511,0.0036
71,0.0039,0.0230,0.0511,0.0036
72,0.0039,0.0230,0.0511,0.0036
73,0.0039,0.0230,0.0511,0.0036
74,0.0039,0.0230,0.0511,0.0036
75,0.0039,0.0230,0.0511,0.0036
76,0.0039,0.0230,0.0511,0.0036
77,0.0039,0.0230,0.0511,0.0036
78,0.0039,0.0230,0.0511,0.0036
79,0.0048,0.0624,0.0761,0.0046
80,0.0080,0.0608,0.0669,0.0049
81,0.0039,0.0230,0.0511,0.0036
82,0.0039,0.0230,0.0511,0.0036
83,0.0039,0.0230,0.0511,0.0036
84,0.0039,0.0230,0.0511,0.0036
85,0.0039,0.0230,0.0511,0.0036
86,0.0143,0.0280,0.0607,0.0066
87,0.0116,0.0312,0.0616,0.0069
88,0.0096,0.0357,0.0638,0.0071
89,0.0078,0.0391,0.0656,0.0071
90,0.0065,0.0719,0.0834,0.0049
91,0.0077,0.0644,0.0677,0.0048
92,0.0049,0.0525,0.0693,0.0043
93,0.0056,0.0389,0.0656,0.0066
94,0.0049,0.0343,0.0630,0.0060
95,0.0045,0.0295,0.0595,0.0054
96,0.0043,0.0257,0.0562,0.0047
97,0.0041,0.0234,0.0535,0.0041
98,0.0038,0.0242,0.0524,0.0034
99,0.0050,0.0344,0.0615,0.0036
100,0.0068,0.0549,0.0764,0.0044
101,0.0080,0.0695,0.0852,0.0049
102,0.0063,0.0601,0.0640,0.0046
103,0.0079,0.0754,0.0875,0.0051
104,0.0083,0.0452,0.0655,0.0045
105,0.0065,0.0719,0.0834,0.0049
106,0.0048,0.0624,0.0761,0.0046
107,0.0049,0.0525,0.0693,0.0043
108,0.0083,0.0452,0.0655,0.0045
109,0.0140,0.0507,0.0721,0.0051
110,0.0041,0.0510,0.0524,0.0521
111,0.0050,0.0557,0.0633,0.0467
112,0.0060,0.0505,0.0665,0.0393
113,0.0051,0.0510,0.0662,0.0042
114,0.0046,0.0507,0.0575,0.0042
115,0.0037,0.0196,0.0378,0.0035
116,0.0037,0.0196,0.0378,0.0035
117,0.0037,0.0196,0.0378,0.0035
118,0.0036,0.0210,0.0412,0.0031
119,0.0036,0.0210,0.0412,0.0031
120,0.0052,0.0307,0.0509,0.0035
121,0.0072,0.0502,0.0650,0.0043
122,0.0083,0.0637,0.0727,0.0047
123,0.0081,0.0676,0.0735,0.0048
124,0.0067,0.0632,0.0692,0.0047
125,0.0047,0.0420,0.0524,0.0038
126,0.0049,0.0538,0.0620,0.0044
127,0.0045,0.0440,0.0553,0.0040
128,0.0073,0.0383,0.0509,0.0044
129,0.0126,0.0479,0.0566,0.0061
130,0.0052,0.0307,0.0509,0.0035
131,0.0040,0.0454,0.0424,0.0405
132,0.0049,0.0511,0.0531,0.0363
133,0.0059,0.0472,0.0571,0.0307
134,0.0059,0.0382,0.0546,0.0242
135,0.0050,0.0280,0.0466,0.0172
136,0.0078,0.0403,0.0517,0.0046
137,0.0041,0.0253,0.0406,0.0121
138,0.0037,0.0243,0.0384,0.0090
139,0.0035,0.0231,0.0372,0.0067
140,0.0035,0.0207,0.0371,0.0049
141,0.0036,0.0201,0.0378,0.0037
142,0.0072,0.0502,0.0650,0.0043
143,0.0040,0.0202,0.0365,0.0047
144,0.0043,0.0207,0.0346,0.0063
145,0.0047,0.0230,0.0340,0.0082
146,0.0049,0.0253,0.0353,0.0104
147,0.0133,0.0533,0.0606,0.0065
148,0.0050,0.0265,0.0357,0.0129
149,0.0049,0.0275,0.0395,0.0170
150,0.0045,0.0318,0.0451,0.0233
151,0.0050,0.0361,0.0464,0.0298
152,0.0067,0.0377,0.0450,0.0359
153,0.0110,0.0480,0.0455,0.0410
154,0.0083,0.0637,0.0727,0.0047
155,0.0037,0.0196,0.0378,0.0035
156,0.0037,0.0196,0.0378,0.0035
157,0.0037,0.0196,0.0378,0.0035
158,0.0051,0.0296,0.0466,0.0037
159,0.0037,0.0196,0.0378,0.0035
160,0.0037,0.0196,0.0378,0.0035
161,0.0037,0.0196,0.0378,0.0035
162,0.0037,0.0196,0.0378,0.0035
163,0.0037,0.0196,0.0378,0.0035
164,0.0037,0.0196,0.0378,0.0035
165,0.0037,0.0196,0.0378,0.0035
166,0.0081,0.0676,0.0735,0.0048
167,0.0037,0.0196,0.0378,0.0035
168,0.0037,0.0196,0.0378,0.0035
169,0.0040,0.0431,0.0400,0.0409
170,0.0037,0.0196,0.0378,0.0035
171,0.0037,0.0196,0.0378,0.0035
172,0.0037,0.0196,0.0378,0.0035
173,0.0037,0.0196,0.0378,0.0035
174,0.0037,0.0196,0.0378,0.0035
175,0.0037,0.0196,0.0378,0.0035
176,0.0037,0.0196,0.0378,0.0035
177,0.0037,0.0196,0.0378,0.0035
178,0.0067,0.0632,0.0692,0.0047
179,0.0037,0.0196,0.0378,0.0035
180,0.0048,0.0480,0.0486,0.0367
181,0.0037,0.0196,0.0378,0.0035
182,0.0037,0.0196,0.0378,0.0035
183,0.0037,0.0196,0.0378,0.0035
184,0.0037,0.0196,0.0378,0.0035
185,0.0037,0.0196,0.0378,0.0035
186,0.0037,0.0196,0.0378,0.0035
187,0.0037,0.0196,0.0378,0.0035
188,0.0037,0.0196,0.0378,0.0035
189,0.0037,0.0196,0.0378,0.0035
190,0.0049,0.0538,0.0620,0.0044
191,0.0059,0.0444,0.0520,0.0311
192,0.0037,0.0196,0.0378,0.0035
193,0.0037,0.0196,0.0378,0.0035
194,0.0037,0.0196,0.0378,0.0035
195,0.0037,0.0196,0.0378,0.0035
196,0.0037,0.0196,0.0378,0.0035
197,0.0140,0.0267,0.0464,0.0077
198,0.0114,0.0276,0.0456,0.0080
199,0.0093,0.0309,0.0470,0.0081
200,0.0076,0.0344,0.0491,0.0080
201,0.0067,0.0632,0.0692,0.0047
202,0.0058,0.0363,0.0498,0.0248
203,0.0045,0.0440,0.0553,0.0040
204,0.0054,0.0329,0.0494,0.0072
205,0.0047,0.0287,0.0474,0.0065
206,0.0043,0.0246,0.0447,0.0057
207,0.0041,0.0207,0.0415,0.0049
208,0.0038,0.0192,0.0394,0.0040
209,0.0036,0.0210,0.0412,0.0031
210,0.0052,0.0307,0.0509,0.0035
211,0.0072,0.0502,0.0650,0.0043
212,0.0083,0.0637,0.0727,0.0047
213,0.0050,0.0277,0.0425,0.0179
214,0.0081,0.0676,0.0735,0.0048
215,0.0073,0.0383,0.0509,0.0044
216,0.0067,0.0632,0.0692,0.0047
217,0.0049,0.0538,0.0620,0.0044
218,0.0045,0.0440,0.0553,0.0040
219,0.0073,0.0383,0.0509,0.0044
220,0.0126,0.0479,0.0566,0.0061
221,0.0040,0.0454,0.0424,0.0405
222,0.0049,0.0511,0.0531,0.0363
223,0.0059,0.0472,0.0571,0.0307
224,0.0088,0.0463,0.0647,0.0045
225,0.0042,0.0263,0.0369,0.0128
226,0.0034,0.0170,0.0215,0.0029
227,0.0034,0.0170,0.0215,0.0029
228,0.0034,0.0170,0.0215,0.0029
229,0.0037,0.0153,0.0231,0.0028
230,0.0037,0.0153,0.0231,0.0028
231,0.0057,0.0209,0.0301,0.0035
232,0.0078,0.0362,0.0404,0.0041
233,0.0089,0.0470,0.0464,0.0043
234,0.0087,0.0501,0.0467,0.0044
235,0.0071,0.0461,0.0427,0.0044
236,0.0037,0.0259,0.0357,0.0097
237,0.0051,0.0364,0.0365,0.0040
238,0.0041,0.0286,0.0340,0.0035
239,0.0064,0.0333,0.0383,0.0037
240,0.0108,0.0563,0.0540,0.0062
241,0.0057,0.0209,0.0301,0.0035
242,0.0039,0.0364,0.0257,0.0189
243,0.0047,0.0407,0.0326,0.0167
244,0.0060,0.0380,0.0362,0.0139
245,0.0059,0.0295,0.0338,0.0108
246,0.0052,0.0232,0.0290,0.0083
247,0.0035,0.0245,0.0343,0.0070
248,0.0042,0.0231,0.0236,0.0078
249,0.0037,0.0239,0.0216,0.0077
250,0.0035,0.0234,0.0209,0.0072
251,0.0035,0.0205,0.0209,0.0057
252,0.0034,0.0186,0.0214,0.0039
253,0.0078,0.0362,0.0404,0.0041
254,0.0035,0.0179,0.0221,0.0039
255,0.0036,0.0197,0.0226,0.0057
256,0.0037,0.0224,0.0239,0.0074
257,0.0037,0.0242,0.0250,0.0084
258,0.0035,0.0216,0.0345,0.0050
259,0.0037,0.0237,0.0248,0.0081
260,0.0037,0.0223,0.0257,0.0081
261,0.0037,0.0236,0.0274,0.0101
262,0.0038,0.0267,0.0285,0.0132
263,0.0053,0.0297,0.0311,0.0164
264,0.0098,0.0450,0.0406,0.0186
265,0.0089,0.0470,0.0464,0.0043
266,0.0034,0.0170,0.0215,0.0029
267,0.0034,0.0170,0.0215,0.0029
268,0.0034,0.0170,0.0215,0.0029
269,0.0035,0.0206,0.0352,0.0034
270,0.0034,0.0170,0.0215,0.0029
271,0.0034,0.0170,0.0215,0.0029
272,0.0034,0.0170,0.0215,0.0029
273,0.0034,0.0170,0.0215,0.0029
274,0.0034,0.0170,0.0215,0.0029
275,0.0034,0.0170,0.0215,0.0029
276,0.0034,0.0170,0.0215,0.0029
277,0.0087,0.0501,0.0467,0.0044
278,0.0034,0.0170,0.0215,0.0029
279,0.0034,0.0170,0.0215,0.0029
280,0.0070,0.0481,0.0598,0.0045
281,0.0034,0.0170,0.0215,0.0029
282,0.0034,0.0170,0.0215,0.0029
283,0.0034,0.0170,0.0215,0.0029
284,0.0034,0.0170,0.0215,0.0029
285,0.0034,0.0170,0.0215,0.0029
286,0.0034,0.0170,0.0215,0.0029
287,0.0034,0.0170,0.0215,0.0029
288,0.0034,0.0170,0.0215,0.0029
289,0.0071,0.0461,0.0427,0.0044
290,0.0034,0.0170,0.0215,0.0029
291,0.0038,0.0205,0.0347,0.0045
292,0.0034,0.0170,0.0215,0.0029
293,0.0034,0.0170,0.0215,0.0029
294,0.0034,0.0170,0.0215,0.0029
295,0.0034,0.0170,0.0215,0.0029
296,0.0034,0.0170,0.0215,0.0029
297,0.0034,0.0170,0.0215,0.0029
298,0.0034,0.0170,0.0215,0.0029
299,0.0034,0.0170,0.0215,0.0029
300,0.0034,0.0170,0.0215,0.0029
301,0.0051,0.0364,0.0365,0.0040
302,0.0041,0.0210,0.0336,0.0063
303,0.0034,0.0170,0.0215,0.0029
304,0.0034,0.0170,0.0215,0.0029
305,0.0034,0.0170,0.0215,0.0029
306,0.0034,0.0170,0.0215,0.0029
307,0.0034,0.0170,0.0215,0.0029
308,0.0135,0.0304,0.0405,0.0095
309,0.0109,0.0264,0.0334,0.0096
310,0.0089,0.0264,0.0305,0.0095
311,0.0073,0.0282,0.0300,0.0090
312,0.0071,0.0461,0.0427,0.0044
313,0.0045,0.0233,0.0332,0.0084
314,0.0041,0.0286,0.0340,0.0035
315,0.0052,0.0258,0.0290,0.0074
316,0.0046,0.0220,0.0274,0.0065
317,0.0042,0.0175,0.0249,0.0054
318,0.0039,0.0150,0.0228,0.0044
319,0.0036,0.0153,0.0221,0.0034
320,0.0037,0.0153,0.0231,0.0028
321,0.0057,0.0209,0.0301,0.0035
322,0.0078,0.0362,0.0404,0.0041
323,0.0089,0.0470,0.0464,0.0043
324,0.0047,0.0257,0.0348,0.0104
325,0.0087,0.0501,0.0467,0.0044
326,0.0064,0.0333,0.0383,0.0037
327,0.0071,0.0461,0.0427,0.0044
328,0.0051,0.0364,0.0365,0.0040
329,0.0041,0.0286,0.0340,0.0035
330,0.0064,0.0333,0.0383,0.0037
331,0.0108,0.0563,0.0540,0.0062
332,0.0039,0.0364,0.0257,0.0189
333,0.0047,0.0407,0.0326,0.0167
334,0.0060,0.0380,0.0362,0.0139
335,0.0146,0.0549,0.0735,0.0055
336,0.0049,0.0264,0.0349,0.0127
337,0.0034,0.0212,0.0265,0.0026
338,0.0034,0.0212,0.0265,0.0026
339,0.0034,0.0212,0.0265,0.0026
340,0.0039,0.0172,0.0234,0.0028
341,0.0039,0.0172,0.0234,0.0028
342,0.0063,0.0141,0.0214,0.0034
343,0.0082,0.0213,0.0241,0.0037
344,0.0093,0.0295,0.0275,0.0037
345,0.0091,0.0335,0.0280,0.0039
346,0.0074,0.0303,0.0261,0.0039
347,0.0048,0.0275,0.0384,0.0166
348,0.0053,0.0243,0.0258,0.0038
349,0.0041,0.0231,0.0316,0.0033
350,0.0060,0.0369,0.0447,0.0032
351,0.0102,0.0638,0.0649,0.0054
352,0.0063,0.0141,0.0214,0.0034
353,0.0039,0.0317,0.0213,0.0130
354,0.0048,0.0332,0.0196,0.0098
355,0.0062,0.0299,0.0212,0.0088
356,0.0061,0.0240,0.0197,0.0092
357,0.0054,0.0224,0.0190,0.0100
358,0.0045,0.0314,0.0432,0.0224
359,0.0044,0.0250,0.0195,0.0112
360,0.0038,0.0272,0.0211,0.0112
361,0.0036,0.0274,0.0230,0.0097
362,0.0035,0.0251,0.0244,0.0073
363,0.0035,0.0224,0.0252,0.0044
364,0.0082,0.0213,0.0241,0.0037
365,0.0034,0.0222,0.0288,0.0047
366,0.0033,0.0237,0.0305,0.0078
367,0.0033,0.0259,0.0319,0.0105
368,0.0033,0.0274,0.0326,0.0123
369,0.0050,0.0355,0.0446,0.0288
370,0.0034,0.0268,0.0316,0.0125
371,0.0036,0.0237,0.0290,0.0112
372,0.0036,0.0234,0.0289,0.0100
373,0.0035,0.0256,0.0306,0.0095
374,0.0047,0.0310,0.0367,0.0100
375,0.0091,0.0503,0.0502,0.0117
376,0.0093,0.0295,0.0275,0.0037
377,0.0034,0.0212,0.0265,0.0026
378,0.0034,0.0212,0.0265,0.0026
379,0.0034,0.0212,0.0265,0.0026
380,0.0070,0.0379,0.0445,0.0347
381,0.0034,0.0212,0.0265,0.0026
382,0.0034,0.0212,0.0265,0.0026
383,0.0034,0.0212,0.0265,0.0026
384,0.0034,0.0212,0.0265,0.0026
385,0.0034,0.0212,0.0265,0.0026
386,0.0034,0.0212,0.0265,0.0026
387,0.0034,0.0212,0.0265,0.0026
388,0.0091,0.0335,0.0280,0.0039
389,0.0034,0.0212,0.0265,0.0026
390,0.0034,0.0212,0.0265,0.0026
391,0.0115,0.0500,0.0478,0.0398
392,0.0034,0.0212,0.0265,0.0026
393,0.0034,0.0212,0.0265,0.0026
394,0.0034,0.0212,0.0265,0.0026
395,0.0034,0.0212,0.0265,0.0026
396,0.0034,0.0212,0.0265,0.0026
397,0.0034,0.0212,0.0265,0.0026
398,0.0034,0.0212,0.0265,0.0026
399,0.0034,0.0212,0.0265,0.0026
400,0.0074,0.0303,0.0261,0.0039
401,0.0034,0.0212,0.0265,0.0026
402,0.0080,0.0608,0.0669,0.0049
403,0.0034,0.0212,0.0265,0.0026
404,0.0034,0.0212,0.0265,0.0026
405,0.0034,0.0212,0.0265,0.0026
406,0.0034,0.0212,0.0265,0.0026
407,0.0034,0.0212,0.0265,0.0026
408,0.0034,0.0212,0.0265,0.0026
409,0.0034,0.0212,0.0265,0.0026
410,0.0034,0.0212,0.0265,0.0026
411,0.0034,0.0212,0.0265,0.0026
412,0.0053,0.0243,0.0258,0.0038
413,0.0036,0.0202,0.0356,0.0031
414,0.0034,0.0212,0.0265,0.0026
415,0.0034,0.0212,0.0265,0.0026
416,0.0034,0.0212,0.0265,0.0026
417,0.0034,0.0212,0.0265,0.0026
418,0.0034,0.0212,0.0265,0.0026
419,0.0134,0.0369,0.0566,0.0103
420,0.0108,0.0293,0.0470,0.0102
421,0.0088,0.0271,0.0407,0.0097
422,0.0072,0.0265,0.0360,0.0090
423,0.0074,0.0303,0.0261,0.0039
424,0.0036,0.0202,0.0356,0.0031
425,0.0041,0.0231,0.0316,0.0033
426,0.0052,0.0229,0.0308,0.0070
427,0.0045,0.0200,0.0291,0.0059
428,0.0042,0.0166,0.0269,0.0047
429,0.0039,0.0167,0.0266,0.0038
430,0.0036,0.0194,0.0268,0.0030
431,0.0039,0.0172,0.0234,0.0028
432,0.0063,0.0141,0.0214,0.0034
433,0.0082,0.0213,0.0241,0.0037
434,0.0093,0.0295,0.0275,0.0037
435,0.0036,0.0202,0.0356,0.0031
436,0.0091,0.0335,0.0280,0.0039
437,0.0060,0.0369,0.0447,0.0032
438,0.0074,0.0303,0.0261,0.0039
439,0.0053,0.0243,0.0258,0.0038
440,0.0041,0.0231,0.0316,0.0033
441,0.0060,0.0369,0.0447,0.0032
442,0.0102,0.0638,0.0649,0.0054
443,0.0039,0.0317,0.0213,0.0130
444,0.0048,0.0332,0.0196,0.0098
445,0.0062,0.0299,0.0212,0.0088
446,0.0050,0.0335,0.0571,0.0039
447,0.0036,0.0202,0.0356,0.0031
448,0.0034,0.0256,0.0337,0.0026
449,0.0034,0.0256,0.0337,0.0026
450,0.0034,0.0256,0.0337,0.0026
451,0.0041,0.0193,0.0274,0.0028
452,0.0041,0.0193,0.0274,0.0028
453,0.0065,0.0143,0.0235,0.0033
454,0.0083,0.0168,0.0231,0.0034
455,0.0095,0.0237,0.0243,0.0035
456,0.0092,0.0275,0.0247,0.0036
457,0.0075,0.0245,0.0249,0.0037
458,0.0036,0.0202,0.0356,0.0031
459,0.0054,0.0218,0.0277,0.0036
460,0.0041,0.0251,0.0368,0.0033
461,0.0059,0.0408,0.0506,0.0031
462,0.0100,0.0671,0.0712,0.0052
463,0.0065,0.0143,0.0235,0.0033
464,0.0039,0.0317,0.0247,0.0174
465,0.0049,0.0312,0.0187,0.0135
466,0.0063,0.0278,0.0188,0.0121
467,0.0063,0.0242,0.0190,0.0127
468,0.0056,0.0249,0.0201,0.0131
469,0.0036,0.0202,0.0356,0.0031
470,0.0046,0.0277,0.0224,0.0136
471,0.0039,0.0301,0.0252,0.0130
472,0.0036,0.0307,0.0281,0.0111
473,0.0035,0.0279,0.0295,0.0082
474,0.0035,0.0267,0.0318,0.0048
475,0.0083,0.0168,0.0231,0.0034
476,0.0034,0.0270,0.0362,0.0052
477,0.0033,0.0272,0.0372,0.0089
478,0.0033,0.0288,0.0382,0.0121
479,0.0033,0.0302,0.0385,0.0144
480,0.0036,0.0202,0.0356,0.0031
481,0.0034,0.0291,0.0370,0.0149
482,0.0037,0.0273,0.0353,0.0142
483,0.0036,0.0266,0.0351,0.0133
484,0.0034,0.0272,0.0357,0.0125
485,0.0044,0.0338,0.0425,0.0132
486,0.0089,0.0543,0.0570,0.0156
487,0.0095,0.0237,0.0243,0.0035
488,0.0034,0.0256,0.0337,0.0026
489,0.0034,0.0256,0.0337,0.0026
490,0.0034,0.0256,0.0337,0.0026
491,0.0036,0.0202,0.0356,0.0031
492,0.0034,0.0256,0.0337,0.0026
493,0.0034,0.0256,0.0337,0.0026
494,0.0034,0.0256,0.0337,0.0026
495,0.0034,0.0256,0.0337,0.0026
496,0.0034,0.0256,0.0337,0.0026
497,0.0034,0.0256,0.0337,0.0026
498,0.0034,0.0256,0.0337,0.0026
499,0.0092,0.0275,0.0247,0.0036
500,0.0034,0.0256,0.0337,0.0026
501,0.0034,0.0256,0.0337,0.0026
502,0.0036,0.0202,0.0356,0.0031
503,0.0034,0.0256,0.0337,0.0026
504,0.0034,0.0256,0.0337,0.0026
505,0.0034,0.0256,0.0337,0.0026
506,0.0034,0.0256,0.0337,0.0026
507,0.0034,0.0256,0.0337,0.0026
508,0.0034,0.0256,0.0337,0.0026
509,0.0034,0.0256,0.0337,0.0026
510,0.0034,0.0256,0.0337,0.0026
511,0.0075,0.0245,0.0249,0.0037
512,0.0034,0.0256,0.0337,0.0026
513,0.0036,0.0202,0.0356,0.0031
514,0.0034,0.0256,0.0337,0.0026
515,0.0034,0.0256,0.0337,0.0026
516,0.0034,0.0256,0.0337,0.0026
517,0.0034,0.0256,0.0337,0.0026
518,0.0034,0.0256,0.0337,0.0026
519,0.0034,0.0256,0.0337,0.0026
520,0.0034,0.0256,0.0337,0.0026
521,0.0034,0.0256,0.0337,0.0026
522,0.0034,0.0256,0.0337,0.0026
523,0.0054,0.0218,0.0277,0.0036
524,0.0077,0.0644,0.0677,0.0048
525,0.0034,0.0256,0.0337,0.0026
526,0.0034,0.0256,0.0337,0.0026
527,0.0034,0.0256,0.0337,0.0026
528,0.0034,0.0256,0.0337,0.0026
529,0.0034,0.0256,0.0337,0.0026
530,0.0133,0.0395,0.0652,0.0105
531,0.0107,0.0315,0.0550,0.0102
532,0.0088,0.0282,0.0478,0.0096
533,0.0072,0.0269,0.0422,0.0088
534,0.0075,0.0245,0.0249,0.0037
535,0.0036,0.0202,0.0356,0.0031
536,0.0041,0.0251,0.0368,0.0033
537,0.0051,0.0229,0.0358,0.0067
538,0.0045,0.0200,0.0333,0.0056
539,0.0042,0.0175,0.0319,0.0045
540,0.0039,0.0184,0.0317,0.0036
541,0.0036,0.0223,0.0327,0.0028
542,0.0041,0.0193,0.0274,0.0028
543,0.0065,0.0143,0.0235,0.0033
544,0.0083,0.0168,0.0231,0.0034
545,0.0095,0.0237,0.0243,0.0035
546,0.0036,0.0202,0.0356,0.0031
547,0.0092,0.0275,0.0247,0.0036
548,0.0059,0.0408,0.0506,0.0031
549,0.0075,0.0245,0.0249,0.0037
550,0.0054,0.0218,0.0277,0.0036
551,0.0041,0.0251,0.0368,0.0033
552,0.0059,0.0408,0.0506,0.0031
553,0.0100,0.0671,0.0712,0.0052
554,0.0039,0.0317,0.0247,0.0174
555,0.0049,0.0312,0.0187,0.0135
556,0.0063,0.0278,0.0188,0.0121
557,0.0041,0.0485,0.0494,0.0527
558,0.0036,0.0202,0.0356,0.0031
559,0.0036,0.0202,0.0356,0.0031
560,0.0036,0.0202,0.0356,0.0031
561,0.0036,0.0202,0.0356,0.0031
562,0.0036,0.0202,0.0356,0.0031
563,0.0036,0.0202,0.0356,0.0031
564,0.0036,0.0202,0.0356,0.0031
565,0.0036,0.0202,0.0356,0.0031
566,0.0063,0.0601,0.0640,0.0046
567,0.0036,0.0202,0.0356,0.0031
568,0.0049,0.0527,0.0587,0.0472
569,0.0036,0.0202,0.0356,0.0031
570,0.0036,0.0202,0.0356,0.0031
571,0.0036,0.0202,0.0356,0.0031
572,0.0036,0.0202,0.0356,0.0031
573,0.0036,0.0202,0.0356,0.0031
574,0.0036,0.0202,0.0356,0.0031
575,0.0036,0.0202,0.0356,0.0031
576,0.0036,0.0202,0.0356,0.0031
577,0.0036,0.0202,0.0356,0.0031
578,0.0046,0.0507,0.0575,0.0042
579,0.0059,0.0487,0.0623,0.0401
580,0.0036,0.0202,0.0356,0.0031
581,0.0036,0.0202,0.0356,0.0031
582,0.0036,0.0202,0.0356,0.0031
583,0.0036,0.0202,0.0356,0.0031
584,0.0036,0.0202,0.0356,0.0031
585,0.0116,0.0278,0.0445,0.0067
586,0.0094,0.0315,0.0434,0.0070
587,0.0077,0.0352,0.0446,0.0070
588,0.0065,0.0384,0.0464,0.0068
589,0.0063,0.0601,0.0640,0.0046
590,0.0058,0.0391,0.0589,0.0319
591,0.0047,0.0420,0.0524,0.0038
592,0.0049,0.0353,0.0461,0.0059
593,0.0044,0.0297,0.0436,0.0053
594,0.0041,0.0254,0.0413,0.0046
595,0.0039,0.0207,0.0383,0.0039
596,0.0037,0.0191,0.0364,0.0033
597,0.0036,0.0211,0.0381,0.0032
598,0.0051,0.0296,0.0466,0.0037
599,0.0070,0.0481,0.0598,0.0045
600,0.0080,0.0608,0.0669,0.0049
601,0.0050,0.0303,0.0521,0.0237
602,0.0077,0.0644,0.0677,0.0048
603,0.0078,0.0403,0.0517,0.0046
604,0.0063,0.0601,0.0640,0.0046
605,0.0046,0.0507,0.0575,0.0042
606,0.0047,0.0420,0.0524,0.0038
607,0.0078,0.0403,0.0517,0.0046
608,0.0133,0.0533,0.0606,0.0065
609,0.0040,0.0431,0.0400,0.0409
610,0.0048,0.0480,0.0486,0.0367
611,0.0059,0.0444,0.0520,0.0311
612,0.0037,0.0234,0.0479,0.0032
613,0.0041,0.0278,0.0463,0.0169
614,0.0034,0.0190,0.0242,0.0027
615,0.0034,0.0190,0.0242,0.0027
616,0.0034,0.0190,0.0242,0.0027
617,0.0037,0.0167,0.0237,0.0030
618,0.0037,0.0167,0.0237,0.0030
619,0.0056,0.0192,0.0270,0.0037
620,0.0075,0.0329,0.0353,0.0042
621,0.0086,0.0428,0.0404,0.0043
622,0.0082,0.0458,0.0408,0.0044
623,0.0067,0.0419,0.0379,0.0042
624,0.0037,0.0270,0.0456,0.0127
625,0.0048,0.0331,0.0344,0.0038
626,0.0043,0.0287,0.0361,0.0033
627,0.0069,0.0391,0.0454,0.0040
628,0.0116,0.0643,0.0634,0.0071
629,0.0056,0.0192,0.0270,0.0037
630,0.0040,0.0343,0.0259,0.0192
631,0.0046,0.0372,0.0285,0.0170
632,0.0059,0.0344,0.0308,0.0141
633,0.0059,0.0274,0.0289,0.0113
634,0.0052,0.0236,0.0257,0.0090
635,0.0036,0.0254,0.0457,0.0091
636,0.0042,0.0255,0.0225,0.0082
637,0.0038,0.0269,0.0223,0.0080
638,0.0035,0.0261,0.0226,0.0071
639,0.0035,0.0230,0.0228,0.0054
640,0.0035,0.0207,0.0236,0.0035
641,0.0075,0.0329,0.0353,0.0042
642,0.0035,0.0196,0.0256,0.0043
643,0.0035,0.0213,0.0270,0.0065
644,0.0036,0.0239,0.0286,0.0084
645,0.0037,0.0258,0.0296,0.0095
646,0.0036,0.0230,0.0459,0.0059
647,0.0036,0.0247,0.0286,0.0094
648,0.0036,0.0231,0.0284,0.0091
649,0.0036,0.0237,0.0291,0.0102
650,0.0040,0.0269,0.0306,0.0127
651,0.0057,0.0310,0.0350,0.0157
652,0.0105,0.0491,0.0471,0.0181
653,0.0086,0.0428,0.0404,0.0043
654,0.0034,0.0190,0.0242,0.0027
655,0.0034,0.0190,0.0242,0.0027
656,0.0034,0.0190,0.0242,0.0027
657,0.0036,0.0233,0.0475,0.0039
658,0.0034,0.0190,0.0242,0.0027
659,0.0034,0.0190,0.0242,0.0027
660,0.0034,0.0190,0.0242,0.0027
661,0.0034,0.0190,0.0242,0.0027
662,0.0034,0.0190,0.0242,0.0027
663,0.0034,0.0190,0.0242,0.0027
664,0.0034,0.0190,0.0242,0.0027
665,0.0082,0.0458,0.0408,0.0044
666,0.0034,0.0190,0.0242,0.0027
667,0.0034,0.0190,0.0242,0.0027
668,0.0066,0.0532,0.0716,0.0047
669,0.0034,0.0190,0.0242,0.0027
670,0.0034,0.0190,0.0242,0.0027
671,0.0034,0.0190,0.0242,0.0027
672,0.0034,0.0190,0.0242,0.0027
673,0.0034,0.0190,0.0242,0.0027
674,0.0034,0.0190,0.0242,0.0027
675,0.0034,0.0190,0.0242,0.0027
676,0.0034,0.0190,0.0242,0.0027
677,0.0067,0.0419,0.0379,0.0042
678,0.0034,0.0190,0.0242,0.0027
679,0.0041,0.0234,0.0467,0.0049
680,0.0034,0.0190,0.0242,0.0027
681,0.0034,0.0190,0.0242,0.0027
682,0.0034,0.0190,0.0242,0.0027
683,0.0034,0.0190,0.0242,0.0027
684,0.0034,0.0190,0.0242,0.0027
685,0.0034,0.0190,0.0242,0.0027
686,0.0034,0.0190,0.0242,0.0027
687,0.0034,0.0190,0.0242,0.0027
688,0.0034,0.0190,0.0242,0.0027
689,0.0048,0.0331,0.0344,0.0038
690,0.0046,0.0231,0.0444,0.0075
691,0.0034,0.0190,0.0242,0.0027
692,0.0034,0.0190,0.0242,0.0027
693,0.0034,0.0190,0.0242,0.0027
694,0.0034,0.0190,0.0242,0.0027
695,0.0034,0.0190,0.0242,0.0027
696,0.0113,0.0269,0.0419,0.0083
697,0.0092,0.0261,0.0344,0.0083
698,0.0076,0.0281,0.0308,0.0080
699,0.0064,0.0304,0.0292,0.0076
700,0.0067,0.0419,0.0379,0.0042
701,0.0051,0.0246,0.0437,0.0103
702,0.0043,0.0287,0.0361,0.0033
703,0.0048,0.0264,0.0270,0.0061
704,0.0044,0.0217,0.0255,0.0054
705,0.0041,0.0167,0.0235,0.0044
706,0.0038,0.0142,0.0226,0.0036
707,0.0036,0.0160,0.0231,0.0030
708,0.0037,0.0167,0.0237,0.0030
709,0.0056,0.0192,0.0270,0.0037
710,0.0075,0.0329,0.0353,0.0042
711,0.0086,0.0428,0.0404,0.0043
712,0.0055,0.0272,0.0435,0.0136
713,0.0082,0.0458,0.0408,0.0044
714,0.0069,0.0391,0.0454,0.0040
715,0.0067,0.0419,0.0379,0.0042
716,0.0048,0.0331,0.0344,0.0038
717,0.0043,0.0287,0.0361,0.0033
718,0.0069,0.0391,0.0454,0.0040
719,0.0116,0.0643,0.0634,0.0071
720,0.0040,0.0343,0.0259,0.0192
721,0.0046,0.0372,0.0285,0.0170
722,0.0059,0.0344,0.0308,0.0141
723,0.0038,0.0243,0.0487,0.0033
724,0.0058,0.0289,0.0438,0.0174
725,0.0034,0.0249,0.0339,0.0026
726,0.0034,0.0249,0.0339,0.0026
727,0.0034,0.0249,0.0339,0.0026
728,0.0039,0.0205,0.0297,0.0029
729,0.0039,0.0205,0.0297,0.0029
730,0.0061,0.0143,0.0241,0.0035
731,0.0078,0.0185,0.0236,0.0037
732,0.0088,0.0258,0.0252,0.0037
733,0.0085,0.0294,0.0258,0.0038
734,0.0069,0.0264,0.0262,0.0038
735,0.0055,0.0304,0.0480,0.0229
736,0.0049,0.0225,0.0300,0.0035
737,0.0042,0.0269,0.0397,0.0031
738,0.0066,0.0451,0.0554,0.0035
739,0.0110,0.0742,0.0772,0.0065
740,0.0061,0.0143,0.0241,0.0035
741,0.0040,0.0320,0.0275,0.0144
742,0.0047,0.0305,0.0201,0.0110
743,0.0061,0.0276,0.0198,0.0099
744,0.0060,0.0243,0.0199,0.0103
745,0.0054,0.0256,0.0213,0.0110
746,0.0053,0.0356,0.0533,0.0300
747,0.0045,0.0293,0.0241,0.0118
748,0.0038,0.0318,0.0271,0.0116
749,0.0036,0.0318,0.0294,0.0098
750,0.0035,0.0290,0.0311,0.0072
751,0.0035,0.0265,0.0325,0.0043
752,0.0078,0.0185,0.0236,0.0037
753,0.0034,0.0255,0.0364,0.0052
754,0.0033,0.0267,0.0381,0.0086
755,0.0033,0.0286,0.0395,0.0117
756,0.0033,0.0300,0.0400,0.0137
757,0.0056,0.0411,0.0559,0.0380
758,0.0033,0.0292,0.0387,0.0141
759,0.0035,0.0263,0.0362,0.0132
760,0.0035,0.0252,0.0355,0.0120
761,0.0035,0.0272,0.0371,0.0113
762,0.0051,0.0337,0.0439,0.0119
763,0.0098,0.0554,0.0587,0.0141
764,0.0088,0.0258,0.0252,0.0037
765,0.0034,0.0249,0.0339,0.0026
766,0.0034,0.0249,0.0339,0.0026
767,0.0034,0.0249,0.0339,0.0026
768,0.0077,0.0431,0.0543,0.0454
769,0.0034,0.0249,0.0339,0.0026
770,0.0034,0.0249,0.0339,0.0026
771,0.0034,0.0249,0.0339,0.0026
772,0.0034,0.0249,0.0339,0.0026
773,0.0034,0.0249,0.0339,0.0026
774,0.0034,0.0249,0.0339,0.0026
775,0.0034,0.0249,0.0339,0.0026
776,0.0085,0.0294,0.0258,0.0038
777,0.0034,0.0249,0.0339,0.0026
778,0.0034,0.0249,0.0339,0.0026
779,0.0121,0.0523,0.0542,0.0520
780,0.0034,0.0249,0.0339,0.0026
781,0.0034,0.0249,0.0339,0.0026
782,0.0034,0.0249,0.0339,0.0026
783,0.0034,0.0249,0.0339,0.0026
784,0.0034,0.0249,0.0339,0.0026
785,0.0034,0.0249,0.0339,0.0026
786,0.0034,0.0249,0.0339,0.0026
787,0.0034,0.0249,0.0339,0.0026
788,0.0069,0.0264,0.0262,0.0038
789,0.0034,0.0249,0.0339,0.0026
790,0.0077,0.0675,0.0800,0.0050
791,0.0034,0.0249,0.0339,0.0026
792,0.0034,0.0249,0.0339,0.0026
793,0.0034,0.0249,0.0339,0.0026
794,0.0034,0.0249,0.0339,0.0026
795,0.0034,0.0249,0.0339,0.0026
796,0.0034,0.0249,0.0339,0.0026
797,0.0034,0.0249,0.0339,0.0026
798,0.0034,0.0249,0.0339,0.0026
799,0.0034,0.0249,0.0339,0.0026
800,0.0049,0.0225,0.0300,0.0035
801,0.0037,0.0234,0.0479,0.0032
802,0.0034,0.0249,0.0339,0.0026
803,0.0034,0.0249,0.0339,0.0026
804,0.0034,0.0249,0.0339,0.0026
805,0.0034,0.0249,0.0339,0.0026
806,0.0034,0.0249,0.0339,0.0026
807,0.0112,0.0309,0.0581,0.0089
808,0.0091,0.0265,0.0483,0.0087
809,0.0076,0.0261,0.0416,0.0082
810,0.0064,0.0267,0.0369,0.0076
811,0.0069,0.0264,0.0262,0.0038
812,0.0037,0.0234,0.0479,0.0032
813,0.0042,0.0269,0.0397,0.0031
814,0.0048,0.0221,0.0315,0.0059
815,0.0044,0.0186,0.0306,0.0049
816,0.0041,0.0155,0.0296,0.0039
817,0.0038,0.0169,0.0310,0.0032
818,0.0036,0.0217,0.0330,0.0027
819,0.0039,0.0205,0.0297,0.0029
820,0.0061,0.0143,0.0241,0.0035
821,0.0078,0.0185,0.0236,0.0037
822,0.0088,0.0258,0.0252,0.0037
823,0.0037,0.0234,0.0479,0.0032
824,0.0085,0.0294,0.0258,0.0038
825,0.0066,0.0451,0.0554,0.0035
826,0.0069,0.0264,0.0262,0.0038
827,0.0049,0.0225,0.0300,0.0035
828,0.0042,0.0269,0.0397,0.0031
829,0.0066,0.0451,0.0554,0.0035
830,0.0110,0.0742,0.0772,0.0065
831,0.0040,0.0320,0.0275,0.0144
832,0.0047,0.0305,0.0201,0.0110
833,0.0061,0.0276,0.0198,0.0099
834,0.0038,0.0243,0.0487,0.0033
835,0.0037,0.0234,0.0479,0.0032
836,0.0035,0.0292,0.0415,0.0026
837,0.0035,0.0292,0.0415,0.0026
838,0.0035,0.0292,0.0415,0.0026
839,0.0041,0.0241,0.0358,0.0029
840,0.0041,0.0241,0.0358,0.0029
841,0.0063,0.0165,0.0288,0.0034
842,0.0080,0.0158,0.0262,0.0035
843,0.0090,0.0204,0.0254,0.0035
844,0.0086,0.0239,0.0260,0.0035
845,0.0070,0.0221,0.0286,0.0036
846,0.0037,0.0234,0.0479,0.0032
847,0.0049,0.0219,0.0344,0.0034
848,0.0042,0.0305,0.0462,0.0031
849,0.0065,0.0495,0.0619,0.0034
850,0.0108,0.0779,0.0839,0.0062
851,0.0063,0.0165,0.0288,0.0034
852,0.0040,0.0334,0.0325,0.0189
853,0.0047,0.0297,0.0231,0.0151
854,0.0062,0.0271,0.0214,0.0136
855,0.0062,0.0261,0.0229,0.0139
856,0.0056,0.0287,0.0253,0.0140
857,0.0037,0.0234,0.0479,0.0032
858,0.0046,0.0328,0.0291,0.0144
859,0.0039,0.0360,0.0333,0.0137
860,0.0037,0.0357,0.0359,0.0114
861,0.0036,0.0326,0.0375,0.0083
862,0.0035,0.0310,0.0397,0.0047
863,0.0080,0.0158,0.0262,0.0035
864,0.0034,0.0305,0.0443,0.0057
865,0.0033,0.0304,0.0453,0.0097
866,0.0033,0.0321,0.0465,0.0133
867,0.0033,0.0340,0.0473,0.0158
868,0.0037,0.0234,0.0479,0.0032
869,0.0034,0.0322,0.0450,0.0166
870,0.0036,0.0297,0.0426,0.0162
871,0.0035,0.0288,0.0425,0.0155
872,0.0034,0.0302,0.0438,0.0150
873,0.0048,0.0371,0.0505,0.0158
874,0.0096,0.0598,0.0658,0.0186
875,0.0090,0.0204,0.0254,0.0035
876,0.0035,0.0292,0.0415,0.0026
877,0.0035,0.0292,0.0415,0.0026
878,0.0035,0.0292,0.0415,0.0026
879,0.0037,0.0234,0.0479,0.0032
880,0.0035,0.0292,0.0415,0.0026
881,0.0035,0.0292,0.0415,0.0026
882,0.0035,0.0292,0.0415,0.0026
883,0.0035,0.0292,0.0415,0.0026
884,0.0035,0.0292,0.0415,0.0026
885,0.0035,0.0292,0.0415,0.0026
886,0.0035,0.0292,0.0415,0.0026
887,0.0086,0.0239,0.0260,0.0035
888,0.0035,0.0292,0.0415,0.0026
889,0.0035,0.0292,0.0415,0.0026
890,0.0037,0.0234,0.0479,0.0032
891,0.0035,0.0292,0.0415,0.0026
892,0.0035,0.0292,0.0415,0.0026
893,0.0035,0.0292,0.0415,0.0026
894,0.0035,0.0292,0.0415,0.0026
895,0.0035,0.0292,0.0415,0.0026
896,0.0035,0.0292,0.0415,0.0026
897,0.0035,0.0292,0.0415,0.0026
898,0.0035,0.0292,0.0415,0.0026
899,0.0070,0.0221,0.0286,0.0036
900,0.0035,0.0292,0.0415,0.0026
901,0.0037,0.0234,0.0479,0.0032
902,0.0035,0.0292,0.0415,0.0026
903,0.0035,0.0292,0.0415,0.0026
904,0.0035,0.0292,0.0415,0.0026
905,0.0035,0.0292,0.0415,0.0026
906,0.0035,0.0292,0.0415,0.0026
907,0.0035,0.0292,0.0415,0.0026
908,0.0035,0.0292,0.0415,0.0026
909,0.0035,0.0292,0.0415,0.0026
910,0.0035,0.0292,0.0415,0.0026
911,0.0049,0.0219,0.0344,0.0034
912,0.0075,0.0727,0.0819,0.0051
913,0.0035,0.0292,0.0415,0.0026
914,0.0035,0.0292,0.0415,0.0026
915,0.0035,0.0292,0.0415,0.0026
916,0.0035,0.0292,0.0415,0.0026
917,0.0035,0.0292,0.0415,0.0026
918,0.0112,0.0327,0.0662,0.0090
919,0.0091,0.0278,0.0562,0.0087
920,0.0076,0.0263,0.0488,0.0082
921,0.0064,0.0262,0.0437,0.0075
922,0.0070,0.0221,0.0286,0.0036
923,0.0037,0.0234,0.0479,0.0032
924,0.0042,0.0305,0.0462,0.0031
925,0.0048,0.0216,0.0374,0.0057
926,0.0044,0.0186,0.0360,0.0047
927,0.0041,0.0170,0.0362,0.0039
928,0.0038,0.0198,0.0376,0.0031
929,0.0036,0.0250,0.0397,0.0026
930,0.0041,0.0241,0.0358,0.0029
931,0.0063,0.0165,0.0288,0.0034
932,0.0080,0.0158,0.0262,0.0035
933,0.0090,0.0204,0.0254,0.0035
934,0.0037,0.0234,0.0479,0.0032
935,0.0086,0.0239,0.0260,0.0035
936,0.0065,0.0495,0.0619,0.0034
937,0.0070,0.0221,0.0286,0.0036
938,0.0049,0.0219,0.0344,0.0034
939,0.0042,0.0305,0.0462,0.0031
940,0.0065,0.0495,0.0619,0.0034
941,0.0108,0.0779,0.0839,0.0062
942,0.0040,0.0334,0.0325,0.0189
943,0.0047,0.0297,0.0231,0.0151
944,0.0062,0.0271,0.0214,0.0136
945,0.0050,0.0335,0.0571,0.0039
946,0.0037,0.0234,0.0479,0.0032
947,0.0036,0.0248,0.0466,0.0032
948,0.0036,0.0248,0.0466,0.0032
949,0.0036,0.0248,0.0466,0.0032
950,0.0037,0.0255,0.0473,0.0036
951,0.0037,0.0255,0.0473,0.0036
952,0.0049,0.0345,0.0548,0.0042
953,0.0065,0.0537,0.0685,0.0050
954,0.0075,0.0669,0.0761,0.0053
955,0.0072,0.0719,0.0782,0.0053
956,0.0058,0.0680,0.0745,0.0048
957,0.0037,0.0234,0.0479,0.0032
958,0.0044,0.0586,0.0685,0.0044
959,0.0053,0.0507,0.0644,0.0040
960,0.0092,0.0481,0.0650,0.0046
961,0.0151,0.0592,0.0759,0.0059
962,0.0049,0.0345,0.0548,0.0042
963,0.0041,0.0479,0.0482,0.0537
964,0.0048,0.0517,0.0559,0.0481
965,0.0058,0.0480,0.0592,0.0411
966,0.0057,0.0392,0.0562,0.0331
967,0.0050,0.0310,0.0499,0.0249
968,0.0037,0.0234,0.0479,0.0032
969,0.0042,0.0287,0.0448,0.0182
970,0.0037,0.0281,0.0442,0.0138
971,0.0036,0.0266,0.0446,0.0100
972,0.0035,0.0245,0.0445,0.0066
973,0.0035,0.0247,0.0462,0.0042
974,0.0065,0.0537,0.0685,0.0050
975,0.0039,0.0247,0.0458,0.0047
976,0.0043,0.0239,0.0439,0.0073
977,0.0047,0.0251,0.0437,0.0102
978,0.0052,0.0272,0.0438,0.0134
979,0.0037,0.0234,0.0479,0.0032
980,0.0056,0.0287,0.0440,0.0171
981,0.0053,0.0307,0.0477,0.0224
982,0.0051,0.0366,0.0527,0.0295
983,0.0056,0.0417,0.0550,0.0372
984,0.0078,0.0435,0.0543,0.0446
985,0.0124,0.0533,0.0560,0.0512
986,0.0075,0.0669,0.0761,0.0053
987,0.0036,0.0248,0.0466,0.0032
988,0.0036,0.0248,0.0466,0.0032
989,0.0036,0.0248,0.0466,0.0032
990,0.0037,0.0234,0.0479,0.0032
991,0.0036,0.0248,0.0466,0.0032
992,0.0036,0.0248,0.0466,0.0032
993,0.0036,0.0248,0.0466,0.0032
994,0.0036,0.0248,0.0466,0.0032
995,0.0036,0.0248,0.0466,0.0032
996,0.0036,0.0248,0.0466,0.0032
997,0.0036,0.0248,0.0466,0.0032
998,0.0072,0.0719,0.0782,0.0053
999,0.0036,0.0248,0.0466,0.0032
1000,0.0036,0.0248,0.0466,0.0032
1001,0.0037,0.0234,0.0479,0.0032
1002,0.0036,0.0248,0.0466,0.0032
1003,0.0036,0.0248,0.0466,0.0032
1004,0.0036,0.0248,0.0466,0.0032
1005,0.0036,0.0248,0.0466,0.0032
1006,0.0036,0.0248,0.0466,0.0032
1007,0.0036,0.0248,0.0466,0.0032
1008,0.0036,0.0248,0.0466,0.0032
1009,0.0036,0.0248,0.0466,0.0032
1010,0.0058,0.0680,0.0745,0.0048
1011,0.0036,0.0248,0.0466,0.0032
1012,0.0037,0.0234,0.0479,0.0032
1013,0.0036,0.0248,0.0466,0.0032
1014,0.0036,0.0248,0.0466,0.0032
1015,0.0036,0.0248,0.0466,0.0032
1016,0.0036,0.0248,0.0466,0.0032
1017,0.0036,0.0248,0.0466,0.0032
1018,0.0036,0.0248,0.0466,0.0032
1019,0.0036,0.0248,0.0466,0.0032
1020,0.0036,0.0248,0.0466,0.0032
1021,0.0036,0.0248,0.0466,0.0032
1022,0.0044,0.0586,0.0685,0.0044
1023,0.0037,0.0234,0.0479,0.0032
1024,0.0036,0.0248,0.0466,0.0032
1025,0.0036,0.0248,0.0466,0.0032
1026,0.0036,0.0248,0.0466,0.0032
1027,0.0036,0.0248,0.0466,0.0032
1028,0.0036,0.0248,0.0466,0.0032
1029,0.0098,0.0382,0.0551,0.0049
1030,0.0081,0.0444,0.0564,0.0050
1031,0.0069,0.0488,0.0590,0.0050
1032,0.0059,0.0509,0.0607,0.0048
1033,0.0058,0.0680,0.0745,0.0048
1034,0.0061,0.0689,0.0781,0.0048
1035,0.0053,0.0507,0.0644,0.0040
1036,0.0047,0.0471,0.0602,0.0042
1037,0.0043,0.0401,0.0570,0.0037
1038,0.0040,0.0339,0.0537,0.0033
1039,0.0038,0.0288,0.0506,0.0031
1040,0.0037,0.0254,0.0481,0.0030
1041,0.0037,0.0255,0.0473,0.0036
1042,0.0049,0.0345,0.0548,0.0042
1043,0.0065,0.0537,0.0685,0.0050
1044,0.0075,0.0669,0.0761,0.0053
1045,0.0037,0.0234,0.0479,0.0032
1046,0.0072,0.0719,0.0782,0.0053
1047,0.0092,0.0481,0.0650,0.0046
1048,0.0058,0.0680,0.0745,0.0048
1049,0.0044,0.0586,0.0685,0.0044
1050,0.0053,0.0507,0.0644,0.0040
1051,0.0092,0.0481,0.0650,0.0046
1052,0.0151,0.0592,0.0759,0.0059
1053,0.0041,0.0479,0.0482,0.0537
1054,0.0048,0.0517,0.0559,0.0481
1055,0.0058,0.0480,0.0592,0.0411
1056,0.0066,0.0532,0.0716,0.0047
1057,0.0037,0.0234,0.0479,0.0032
1058,0.0035,0.0212,0.0353,0.0030
1059,0.0035,0.0212,0.0353,0.0030
1060,0.0035,0.0212,0.0353,0.0030
1061,0.0036,0.0223,0.0372,0.0034
1062,0.0036,0.0223,0.0372,0.0034
1063,0.0050,0.0302,0.0443,0.0041
1064,0.0068,0.0477,0.0564,0.0049
1065,0.0077,0.0597,0.0628,0.0050
1066,0.0074,0.0630,0.0637,0.0049
1067,0.0059,0.0585,0.0604,0.0046
1068,0.0037,0.0234,0.0479,0.0032
1069,0.0044,0.0493,0.0548,0.0041
1070,0.0049,0.0418,0.0518,0.0038
1071,0.0083,0.0428,0.0541,0.0048
1072,0.0139,0.0581,0.0653,0.0070
1073,0.0050,0.0302,0.0443,0.0041
1074,0.0041,0.0423,0.0393,0.0418
1075,0.0046,0.0462,0.0456,0.0374
1076,0.0057,0.0431,0.0487,0.0319
1077,0.0058,0.0360,0.0469,0.0258
1078,0.0050,0.0283,0.0403,0.0189
1079,0.0037,0.0234,0.0479,0.0032
1080,0.0042,0.0275,0.0356,0.0138
1081,0.0038,0.0270,0.0349,0.0105
1082,0.0036,0.0256,0.0340,0.0075
1083,0.0035,0.0227,0.0341,0.0052
1084,0.0035,0.0218,0.0348,0.0034
1085,0.0068,0.0477,0.0564,0.0049
1086,0.0037,0.0212,0.0349,0.0045
1087,0.0039,0.0214,0.0344,0.0065
1088,0.0043,0.0230,0.0345,0.0086
1089,0.0045,0.0256,0.0360,0.0106
1090,0.0037,0.0234,0.0479,0.0032
1091,0.0047,0.0260,0.0358,0.0127
1092,0.0046,0.0277,0.0388,0.0164
1093,0.0044,0.0324,0.0432,0.0220
1094,0.0051,0.0362,0.0444,0.0281
1095,0.0072,0.0384,0.0454,0.0340
1096,0.0118,0.0513,0.0510,0.0391
1097,0.0077,0.0597,0.0628,0.0050
1098,0.0035,0.0212,0.0353,0.0030
1099,0.0035,0.0212,0.0353,0.0030
1100,0.0035,0.0212,0.0353,0.0030
1101,0.0037,0.0234,0.0479,0.0032
1102,0.0035,0.0212,0.0353,0.0030
1103,0.0035,0.0212,0.0353,0.0030
1104,0.0035,0.0212,0.0353,0.0030
1105,0.0035,0.0212,0.0353,0.0030
1106,0.0035,0.0212,0.0353,0.0030
1107,0.0035,0.0212,0.0353,0.0030
1108,0.0035,0.0212,0.0353,0.0030
1109,0.0074,0.0630,0.0637,0.0049
1110,0.0035,0.0212,0.0353,0.0030
1111,0.0035,0.0212,0.0353,0.0030
1112,0.0037,0.0234,0.0479,0.0032
1113,0.0035,0.0212,0.0353,0.0030
1114,0.0035,0.0212,0.0353,0.0030
1115,0.0035,0.0212,0.0353,0.0030
1116,0.0035,0.0212,0.0353,0.0030
1117,0.0035,0.0212,0.0353,0.0030
1118,0.0035,0.0212,0.0353,0.0030
1119,0.0035,0.0212,0.0353,0.0030
1120,0.0035,0.0212,0.0353,0.0030
1121,0.0059,0.0585,0.0604,0.0046
1122,0.0035,0.0212,0.0353,0.0030
1123,0.0037,0.0234,0.0479,0.0032
1124,0.0035,0.0212,0.0353,0.0030
1125,0.0035,0.0212,0.0353,0.0030
1126,0.0035,0.0212,0.0353,0.0030
1127,0.0035,0.0212,0.0353,0.0030
1128,0.0035,0.0212,0.0353,0.0030
1129,0.0035,0.0212,0.0353,0.0030
1130,0.0035,0.0212,0.0353,0.0030
1131,0.0035,0.0212,0.0353,0.0030
1132,0.0035,0.0212,0.0353,0.0030
1133,0.0044,0.0493,0.0548,0.0041
1134,0.0037,0.0234,0.0479,0.0032
1135,0.0035,0.0212,0.0353,0.0030
1136,0.0035,0.0212,0.0353,0.0030
1137,0.0035,0.0212,0.0353,0.0030
1138,0.0035,0.0212,0.0353,0.0030
1139,0.0035,0.0212,0.0353,0.0030
1140,0.0098,0.0335,0.0435,0.0056
1141,0.0081,0.0392,0.0429,0.0057
1142,0.0069,0.0429,0.0443,0.0056
1143,0.0060,0.0456,0.0462,0.0053
1144,0.0059,0.0585,0.0604,0.0046
1145,0.0037,0.0234,0.0479,0.0032
1146,0.0049,0.0418,0.0518,0.0038
1147,0.0047,0.0405,0.0453,0.0045
1148,0.0043,0.0336,0.0425,0.0040
1149,0.0040,0.0285,0.0401,0.0035
1150,0.0038,0.0230,0.0375,0.0031
1151,0.0036,0.0205,0.0358,0.0029
1152,0.0036,0.0223,0.0372,0.0034
1153,0.0050,0.0302,0.0443,0.0041
1154,0.0068,0.0477,0.0564,0.0049
1155,0.0077,0.0597,0.0628,0.0050
1156,0.0046,0.0596,0.0715,0.0045
1157,0.0074,0.0630,0.0637,0.0049
1158,0.0083,0.0428,0.0541,0.0048
1159,0.0059,0.0585,0.0604,0.0046
1160,0.0044,0.0493,0.0548,0.0041
1161,0.0049,0.0418,0.0518,0.0038
1162,0.0083,0.0428,0.0541,0.0048
1163,0.0139,0.0581,0.0653,0.0070
1164,0.0041,0.0423,0.0393,0.0418
1165,0.0046,0.0462,0.0456,0.0374
1166,0.0057,0.0431,0.0487,0.0319
1167,0.0077,0.0675,0.0800,0.0050
1168,0.0037,0.0234,0.0479,0.0032
1169,0.0034,0.0197,0.0280,0.0027
1170,0.0034,0.0197,0.0280,0.0027
1171,0.0034,0.0197,0.0280,0.0027
1172,0.0037,0.0180,0.0267,0.0032
1173,0.0037,0.0180,0.0267,0.0032
1174,0.0055,0.0192,0.0269,0.0040
1175,0.0073,0.0310,0.0323,0.0044
1176,0.0082,0.0405,0.0368,0.0044
1177,0.0078,0.0432,0.0373,0.0043
1178,0.0062,0.0391,0.0355,0.0041
1179,0.0037,0.0234,0.0479,0.0032
1180,0.0045,0.0314,0.0348,0.0036
1181,0.0045,0.0301,0.0403,0.0032
1182,0.0075,0.0439,0.0526,0.0043
1183,0.0123,0.0703,0.0720,0.0077
1184,0.0055,0.0192,0.0269,0.0040
1185,0.0040,0.0340,0.0287,0.0199
1186,0.0045,0.0348,0.0268,0.0175
1187,0.0058,0.0327,0.0283,0.0147
1188,0.0058,0.0267,0.0267,0.0118
1189,0.0052,0.0249,0.0251,0.0096
1190,0.0037,0.0234,0.0479,0.0032
1191,0.0042,0.0275,0.0243,0.0086
1192,0.0038,0.0289,0.0252,0.0080
1193,0.0036,0.0277,0.0261,0.0069
1194,0.0035,0.0242,0.0263,0.0050
1195,0.0035,0.0218,0.0273,0.0031
1196,0.0073,0.0310,0.0323,0.0044
1197,0.0034,0.0201,0.0298,0.0048
1198,0.0035,0.0213,0.0313,0.0072
1199,0.0036,0.0237,0.0331,0.0093
1200,0.0036,0.0260,0.0343,0.0106
1201,0.0037,0.0234,0.0479,0.0032
1202,0.0036,0.0246,0.0327,0.0105
1203,0.0036,0.0235,0.0320,0.0100
1204,0.0036,0.0241,0.0321,0.0107
1205,0.0041,0.0274,0.0339,0.0128
1206,0.0061,0.0321,0.0394,0.0155
1207,0.0109,0.0516,0.0531,0.0181
1208,0.0082,0.0405,0.0368,0.0044
1209,0.0034,0.0197,0.0280,0.0027
1210,0.0034,0.0197,0.0280,0.0027
1211,0.0034,0.0197,0.0280,0.0027
1212,0.0037,0.0234,0.0479,0.0032
1213,0.0034,0.0197,0.0280,0.0027
1214,0.0034,0.0197,0.0280,0.0027
1215,0.0034,0.0197,0.0280,0.0027
1216,0.0034,0.0197,0.0280,0.0027
1217,0.0034,0.0197,0.0280,0.0027
1218,0.0034,0.0197,0.0280,0.0027
1219,0.0034,0.0197,0.0280,0.0027
1220,0.0078,0.0432,0.0373,0.0043
1221,0.0034,0.0197,0.0280,0.0027
1222,0.0034,0.0197,0.0280,0.0027
1223,0.0117,0.0312,0.0571,0.0058
1224,0.0034,0.0197,0.0280,0.0027
1225,0.0034,0.0197,0.0280,0.0027
1226,0.0034,0.0197,0.0280,0.0027
1227,0.0034,0.0197,0.0280,0.0027
1228,0.0034,0.0197,0.0280,0.0027
1229,0.0034,0.0197,0.0280,0.0027
1230,0.0034,0.0197,0.0280,0.0027
1231,0.0034,0.0197,0.0280,0.0027
1232,0.0062,0.0391,0.0355,0.0041
1233,0.0034,0.0197,0.0280,0.0027
1234,0.0095,0.0359,0.0578,0.0060
1235,0.0034,0.0197,0.0280,0.0027
1236,0.0034,0.0197,0.0280,0.0027
1237,0.0034,0.0197,0.0280,0.0027
1238,0.0034,0.0197,0.0280,0.0027
1239,0.0034,0.0197,0.0280,0.0027
1240,0.0034,0.0197,0.0280,0.0027
1241,0.0034,0.0197,0.0280,0.0027
1242,0.0034,0.0197,0.0280,0.0027
1243,0.0034,0.0197,0.0280,0.0027
1244,0.0045,0.0314,0.0348,0.0036
1245,0.0079,0.0406,0.0601,0.0062
1246,0.0034,0.0197,0.0280,0.0027
1247,0.0034,0.0197,0.0280,0.0027
1248,0.0034,0.0197,0.0280,0.0027
1249,0.0034,0.0197,0.0280,0.0027
1250,0.0034,0.0197,0.0280,0.0027
1251,0.0097,0.0276,0.0414,0.0068
1252,0.0080,0.0305,0.0342,0.0067
1253,0.0068,0.0337,0.0306,0.0064
1254,0.0060,0.0359,0.0291,0.0059
1255,0.0062,0.0391,0.0355,0.0041
1256,0.0066,0.0437,0.0619,0.0060
1257,0.0045,0.0301,0.0403,0.0032
1258,0.0048,0.0297,0.0265,0.0046
1259,0.0044,0.0238,0.0250,0.0040
1260,0.0041,0.0172,0.0239,0.0034
1261,0.0038,0.0142,0.0239,0.0029
1262,0.0036,0.0163,0.0260,0.0026
1263,0.0037,0.0180,0.0267,0.0032
1264,0.0055,0.0192,0.0269,0.0040
1265,0.0073,0.0310,0.0323,0.0044
1266,0.0082,0.0405,0.0368,0.0044
1267,0.0061,0.0689,0.0781,0.0048
1268,0.0078,0.0432,0.0373,0.0043
1269,0.0075,0.0439,0.0526,0.0043
1270,0.0062,0.0391,0.0355,0.0041
1271,0.0045,0.0314,0.0348,0.0036
1272,0.0045,0.0301,0.0403,0.0032
1273,0.0075,0.0439,0.0526,0.0043
1274,0.0123,0.0703,0.0720,0.0077
1275,0.0040,0.0340,0.0287,0.0199
1276,0.0045,0.0348,0.0268,0.0175
1277,0.0058,0.0327,0.0283,0.0147
1278,0.0075,0.0727,0.0819,0.0051
1279,0.0051,0.0510,0.0662,0.0042
1280,0.0035,0.0265,0.0399,0.0027
1281,0.0035,0.0265,0.0399,0.0027
1282,0.0035,0.0265,0.0399,0.0027
1283,0.0039,0.0230,0.0359,0.0032
1284,0.0039,0.0230,0.0359,0.0032
1285,0.0059,0.0155,0.0286,0.0037
1286,0.0075,0.0174,0.0259,0.0038
1287,0.0084,0.0235,0.0260,0.0038
1288,0.0080,0.0268,0.0267,0.0037
1289,0.0064,0.0241,0.0293,0.0036
1290,0.0049,0.0416,0.0616,0.0054
1291,0.0045,0.0225,0.0357,0.0033
1292,0.0044,0.0311,0.0479,0.0030
1293,0.0072,0.0513,0.0648,0.0039
1294,0.0117,0.0816,0.0873,0.0074
1295,0.0059,0.0155,0.0286,0.0037
1296,0.0041,0.0336,0.0343,0.0153
1297,0.0046,0.0296,0.0241,0.0119
1298,0.0060,0.0271,0.0224,0.0107
1299,0.0060,0.0258,0.0235,0.0109
1300,0.0054,0.0284,0.0260,0.0114
1301,0.0044,0.0357,0.0586,0.0049
1302,0.0045,0.0327,0.0298,0.0120
1303,0.0039,0.0351,0.0335,0.0116
1304,0.0037,0.0347,0.0358,0.0097
1305,0.0036,0.0316,0.0373,0.0069
1306,0.0035,0.0284,0.0386,0.0038
1307,0.0075,0.0174,0.0259,0.0038
1308,0.0034,0.0267,0.0425,0.0057
1309,0.0033,0.0278,0.0443,0.0094
1310,0.0033,0.0295,0.0456,0.0126
1311,0.0033,0.0310,0.0463,0.0148
1312,0.0042,0.0305,0.0555,0.0043
1313,0.0033,0.0299,0.0446,0.0154
1314,0.0034,0.0271,0.0419,0.0146
1315,0.0034,0.0259,0.0411,0.0135
1316,0.0036,0.0282,0.0430,0.0130
1317,0.0055,0.0353,0.0502,0.0137
1318,0.0104,0.0584,0.0659,0.0163
1319,0.0084,0.0235,0.0260,0.0038
1320,0.0035,0.0265,0.0399,0.0027
1321,0.0035,0.0265,0.0399,0.0027
1322,0.0035,0.0265,0.0399,0.0027
1323,0.0040,0.0261,0.0522,0.0038
1324,0.0035,0.0265,0.0399,0.0027
1325,0.0035,0.0265,0.0399,0.0027
1326,0.0035,0.0265,0.0399,0.0027
1327,0.0035,0.0265,0.0399,0.0027
1328,0.0035,0.0265,0.0399,0.0027
1329,0.0035,0.0265,0.0399,0.0027
1330,0.0035,0.0265,0.0399,0.0027
1331,0.0080,0.0268,0.0267,0.0037
1332,0.0035,0.0265,0.0399,0.0027
1333,0.0035,0.0265,0.0399,0.0027
1334,0.0038,0.0235,0.0495,0.0034
1335,0.0035,0.0265,0.0399,0.0027
1336,0.0035,0.0265,0.0399,0.0027
1337,0.0035,0.0265,0.0399,0.0027
1338,0.0035,0.0265,0.0399,0.0027
1339,0.0035,0.0265,0.0399,0.0027
1340,0.0035,0.0265,0.0399,0.0027
1341,0.0035,0.0265,0.0399,0.0027
1342,0.0035,0.0265,0.0399,0.0027
1343,0.0064,0.0241,0.0293,0.0036
1344,0.0035,0.0265,0.0399,0.0027
1345,0.0038,0.0243,0.0487,0.0033
1346,0.0035,0.0265,0.0399,0.0027
1347,0.0035,0.0265,0.0399,0.0027
1348,0.0035,0.0265,0.0399,0.0027
1349,0.0035,0.0265,0.0399,0.0027
1350,0.0035,0.0265,0.0399,0.0027
1351,0.0035,0.0265,0.0399,0.0027
1352,0.0035,0.0265,0.0399,0.0027
1353,0.0035,0.0265,0.0399,0.0027
1354,0.0035,0.0265,0.0399,0.0027
1355,0.0045,0.0225,0.0357,0.0033
1356,0.0050,0.0335,0.0571,0.0039
1357,0.0035,0.0265,0.0399,0.0027
1358,0.0035,0.0265,0.0399,0.0027
1359,0.0035,0.0265,0.0399,0.0027
1360,0.0035,0.0265,0.0399,0.0027
1361,0.0035,0.0265,0.0399,0.0027
1362,0.0096,0.0269,0.0565,0.0072
1363,0.0080,0.0272,0.0470,0.0070
1364,0.0068,0.0286,0.0404,0.0065
1365,0.0060,0.0296,0.0359,0.0059
1366,0.0064,0.0241,0.0293,0.0036
1367,0.0066,0.0532,0.0716,0.0047
1368,0.0044,0.0311,0.0479,0.0030
1369,0.0048,0.0231,0.0317,0.0045
1370,0.0044,0.0182,0.0316,0.0038
1371,0.0041,0.0145,0.0323,0.0032
1372,0.0039,0.0159,0.0343,0.0027
1373,0.0036,0.0219,0.0378,0.0025
1374,0.0039,0.0230,0.0359,0.0032
1375,0.0059,0.0155,0.0286,0.0037
1376,0.0075,0.0174,0.0259,0.0038
1377,0.0084,0.0235,0.0260,0.0038
1378,0.0077,0.0675,0.0800,0.0050
1379,0.0080,0.0268,0.0267,0.0037
1380,0.0072,0.0513,0.0648,0.0039
1381,0.0064,0.0241,0.0293,0.0036
1382,0.0045,0.0225,0.0357,0.0033
1383,0.0044,0.0311,0.0479,0.0030
1384,0.0072,0.0513,0.0648,0.0039
1385,0.0117,0.0816,0.0873,0.0074
1386,0.0041,0.0336,0.0343,0.0153
1387,0.0046,0.0296,0.0241,0.0119
1388,0.0060,0.0271,0.0224,0.0107
1389,0.0061,0.0689,0.0781,0.0048
1390,0.0075,0.0727,0.0819,0.0051
1391,0.0035,0.0309,0.0476,0.0026
1392,0.0035,0.0309,0.0476,0.0026
1393,0.0035,0.0309,0.0476,0.0026
1394,0.0040,0.0263,0.0421,0.0031
1395,0.0040,0.0263,0.0421,0.0031
1396,0.0061,0.0191,0.0351,0.0035
1397,0.0076,0.0162,0.0309,0.0036
1398,0.0086,0.0189,0.0290,0.0035
1399,0.0081,0.0220,0.0297,0.0034
1400,0.0064,0.0212,0.0340,0.0035
1401,0.0088,0.0463,0.0647,0.0045
1402,0.0046,0.0234,0.0416,0.0032
1403,0.0044,0.0352,0.0548,0.0029
1404,0.0071,0.0563,0.0719,0.0038
1405,0.0115,0.0857,0.0945,0.0071
1406,0.0061,0.0191,0.0351,0.0035
1407,0.0040,0.0361,0.0402,0.0198
1408,0.0046,0.0301,0.0293,0.0160
1409,0.0061,0.0280,0.0267,0.0144
1410,0.0061,0.0288,0.0288,0.0145
1411,0.0055,0.0327,0.0320,0.0146
1412,0.0061,0.0689,0.0781,0.0048
1413,0.0046,0.0363,0.0355,0.0145
1414,0.0040,0.0391,0.0397,0.0136
1415,0.0037,0.0385,0.0422,0.0112
1416,0.0036,0.0350,0.0438,0.0079
1417,0.0035,0.0330,0.0459,0.0043
1418,0.0076,0.0162,0.0309,0.0036
1419,0.0034,0.0317,0.0504,0.0063
1420,0.0033,0.0316,0.0515,0.0105
1421,0.0033,0.0328,0.0524,0.0142
1422,0.0033,0.0351,0.0535,0.0169
1423,0.0046,0.0596,0.0715,0.0045
1424,0.0033,0.0335,0.0516,0.0180
1425,0.0035,0.0313,0.0492,0.0178
1426,0.0034,0.0299,0.0487,0.0172
1427,0.0035,0.0314,0.0501,0.0169
1428,0.0052,0.0388,0.0571,0.0178
1429,0.0102,0.0630,0.0732,0.0209
1430,0.0086,0.0189,0.0290,0.0035
1431,0.0035,0.0309,0.0476,0.0026
1432,0.0035,0.0309,0.0476,0.0026
1433,0.0035,0.0309,0.0476,0.0026
1434,0.0051,0.0510,0.0662,0.0042
1435,0.0035,0.0309,0.0476,0.0026
1436,0.0035,0.0309,0.0476,0.0026
1437,0.0035,0.0309,0.0476,0.0026
1438,0.0035,0.0309,0.0476,0.0026
1439,0.0035,0.0309,0.0476,0.0026
1440,0.0035,0.0309,0.0476,0.0026
1441,0.0035,0.0309,0.0476,0.0026
1442,0.0081,0.0220,0.0297,0.0034
1443,0.0035,0.0309,0.0476,0.0026
1444,0.0035,0.0309,0.0476,0.0026
1445,0.0088,0.0463,0.0647,0.0045
1446,0.0035,0.0309,0.0476,0.0026
1447,0.0035,0.0309,0.0476,0.0026
1448,0.0035,0.0309,0.0476,0.0026
1449,0.0035,0.0309,0.0476,0.0026
1450,0.0035,0.0309,0.0476,0.0026
1451,0.0035,0.0309,0.0476,0.0026
1452,0.0035,0.0309,0.0476,0.0026
1453,0.0035,0.0309,0.0476,0.0026
1454,0.0064,0.0212,0.0340,0.0035
1455,0.0035,0.0309,0.0476,0.0026
1456,0.0146,0.0549,0.0735,0.0055
1457,0.0035,0.0309,0.0476,0.0026
1458,0.0035,0.0309,0.0476,0.0026
1459,0.0035,0.0309,0.0476,0.0026
1460,0.0035,0.0309,0.0476,0.0026
1461,0.0035,0.0309,0.0476,0.0026
1462,0.0035,0.0309,0.0476,0.0026
1463,0.0035,0.0309,0.0476,0.0026
1464,0.0035,0.0309,0.0476,0.0026
1465,0.0035,0.0309,0.0476,0.0026
1466,0.0046,0.0234,0.0416,0.0032
1467,0.0041,0.0485,0.0494,0.0527
1468,0.0035,0.0309,0.0476,0.0026
1469,0.0035,0.0309,0.0476,0.0026
1470,0.0035,0.0309,0.0476,0.0026
1471,0.0035,0.0309,0.0476,0.0026
1472,0.0035,0.0309,0.0476,0.0026
1473,0.0096,0.0276,0.0645,0.0073
1474,0.0080,0.0267,0.0546,0.0069
1475,0.0068,0.0271,0.0479,0.0065
1476,0.0060,0.0275,0.0429,0.0059
1477,0.0064,0.0212,0.0340,0.0035
1478,0.0049,0.0527,0.0587,0.0472
1479,0.0044,0.0352,0.0548,0.0029
1480,0.0048,0.0215,0.0382,0.0044
1481,0.0045,0.0175,0.0377,0.0037
1482,0.0042,0.0155,0.0389,0.0031
1483,0.0039,0.0192,0.0417,0.0027
1484,0.0036,0.0261,0.0454,0.0025
1485,0.0040,0.0263,0.0421,0.0031
1486,0.0061,0.0191,0.0351,0.0035
1487,0.0076,0.0162,0.0309,0.0036
1488,0.0086,0.0189,0.0290,0.0035
1489,0.0059,0.0487,0.0623,0.0401
1490,0.0081,0.0220,0.0297,0.0034
1491,0.0071,0.0563,0.0719,0.0038
1492,0.0064,0.0212,0.0340,0.0035
1493,0.0046,0.0234,0.0416,0.0032
1494,0.0044,0.0352,0.0548,0.0029
1495,0.0071,0.0563,0.0719,0.0038
1496,0.0115,0.0857,0.0945,0.0071
1497,0.0040,0.0361,0.0402,0.0198
1498,0.0046,0.0301,0.0293,0.0160
1499,0.0061,0.0280,0.0267,0.0144
1500,0.0064,0.0341,0.0571,0.0042
1501,0.0064,0.0341,0.0571,0.0042
1502,0.0065,0.0731,0.0815,0.0057
1503,0.0241,0.0463,0.0642,0.0552
1504,0.0040,0.0312,0.0439,0.0024
1505,0.0039,0.0260,0.0389,0.0027
1506,0.0040,0.0312,0.0439,0.0024
1507,0.0068,0.0154,0.0296,0.0033
1508,0.0041,0.0400,0.0530,0.0023
1509,0.0040,0.0312,0.0439,0.0024
1510,0.0040,0.0312,0.0439,0.0024
1511,0.0039,0.0260,0.0389,0.0027
1512,0.0040,0.0312,0.0439,0.0024
1513,0.0041,0.0400,0.0530,0.0023
1514,0.0197,0.0398,0.0573,0.0481
1515,0.0039,0.0260,0.0389,0.0027
1516,0.0040,0.0312,0.0439,0.0024
1517,0.0040,0.0312,0.0439,0.0024
1518,0.0039,0.0260,0.0389,0.0027
1519,0.0051,0.0253,0.0483,0.0029
1520,0.0040,0.0312,0.0439,0.0024
1521,0.0039,0.0260,0.0389,0.0027
1522,0.0040,0.0312,0.0439,0.0024
1523,0.0040,0.0312,0.0439,0.0024
1524,0.0041,0.0400,0.0530,0.0023
1525,0.0171,0.0535,0.0672,0.0438
1526,0.0112,0.0280,0.0626,0.0079
1527,0.0094,0.0242,0.0525,0.0075
1528,0.0082,0.0282,0.0457,0.0067
1529,0.0071,0.0219,0.0394,0.0064
1530,0.0069,0.0197,0.0402,0.0032
1531,0.0045,0.0267,0.0409,0.0031
1532,0.0058,0.0161,0.0339,0.0049
1533,0.0053,0.0127,0.0329,0.0041
1534,0.0049,0.0161,0.0344,0.0032
1535,0.0047,0.0280,0.0458,0.0031
1536,0.0155,0.0745,0.0864,0.0417
1537,0.0043,0.0263,0.0412,0.0024
1538,0.0041,0.0214,0.0337,0.0031
1539,0.0061,0.0187,0.0311,0.0032
1540,0.0078,0.0136,0.0268,0.0034
1541,0.0088,0.0199,0.0342,0.0035
1542,0.0084,0.0163,0.0253,0.0034
1543,0.0070,0.0485,0.0648,0.0032
1544,0.0068,0.0249,0.0281,0.0035
1545,0.0050,0.0178,0.0366,0.0030
1546,0.0047,0.0395,0.0612,0.0027
1547,0.0144,0.0910,0.1047,0.0418
1548,0.0069,0.0407,0.0542,0.0030
1549,0.0112,0.0755,0.0854,0.0060
1550,0.0045,0.0275,0.0373,0.0210
1551,0.0052,0.0296,0.0229,0.0119
1552,0.0072,0.0243,0.0345,0.0199
1553,0.0181,0.0472,0.0738,0.0148
1554,0.0136,0.0321,0.0558,0.0186
1555,0.0129,0.0348,0.0456,0.0227
1556,0.0123,0.0494,0.0475,0.0220
1557,0.0119,0.0615,0.0569,0.0204
1558,0.0063,0.0295,0.0441,0.0039
1559,0.0037,0.0263,0.0466,0.0033
1560,0.0037,0.0263,0.0466,0.0033
1561,0.0037,0.0234,0.0479,0.0032
1562,0.0038,0.0269,0.0469,0.0031
1563,0.0039,0.0347,0.0507,0.0032
1564,0.0050,0.0336,0.0572,0.0039
1565,0.0067,0.0481,0.0666,0.0041
1566,0.0078,0.0604,0.0740,0.0044
1567,0.0076,0.0727,0.0819,0.0051
1568,0.0061,0.0586,0.0726,0.0040
1569,0.0063,0.0295,0.0441,0.0039
1570,0.0047,0.0538,0.0681,0.0041
1571,0.0051,0.0509,0.0662,0.0042
1572,0.0094,0.0491,0.0688,0.0047
1573,0.0154,0.0617,0.0814,0.0057
1574,0.0051,0.0358,0.0551,0.0032
1575,0.0042,0.0441,0.0488,0.0524
1576,0.0052,0.0457,0.0552,0.0465
1577,0.0059,0.0485,0.0622,0.0401
1578,0.0062,0.0355,0.0549,0.0314
1579,0.0058,0.0381,0.0511,0.0245
1580,0.0063,0.0295,0.0441,0.0039
1581,0.0041,0.0277,0.0464,0.0170
1582,0.0038,0.0326,0.0440,0.0134
1583,0.0036,0.0304,0.0445,0.0099
1584,0.0036,0.0230,0.0457,0.0059
1585,0.0036,0.0353,0.0507,0.0048
1586,0.0067,0.0481,0.0666,0.0041
1587,0.0041,0.0234,0.0467,0.0049
1588,0.0048,0.0282,0.0443,0.0083
1589,0.0052,0.0309,0.0443,0.0115
1590,0.0060,0.0439,0.0507,0.0162
1591,0.0056,0.0312,0.0469,0.0045
1592,0.0061,0.0360,0.0445,0.0186
1593,0.0058,0.0361,0.0476,0.0236
1594,0.0052,0.0357,0.0534,0.0301
1595,0.0060,0.0430,0.0548,0.0378
1596,0.0084,0.0574,0.0617,0.0458
1597,0.0121,0.0521,0.0542,0.0520
1598,0.0078,0.0604,0.0740,0.0044
1599,0.0037,0.0263,0.0466,0.0033
1600,0.0037,0.0234,0.0479,0.0032
1601,0.0038,0.0342,0.0512,0.0035
1602,0.0057,0.0356,0.0463,0.0046
1603,0.0037,0.0263,0.0466,0.0033
1604,0.0037,0.0234,0.0479,0.0032
1605,0.0037,0.0263,0.0466,0.0033
1606,0.0037,0.0263,0.0466,0.0033
1607,0.0038,0.0342,0.0512,0.0035
1608,0.0037,0.0263,0.0466,0.0033
1609,0.0037,0.0263,0.0466,0.0033
1610,0.0076,0.0727,0.0819,0.0051
1611,0.0037,0.0263,0.0466,0.0033
1612,0.0038,0.0342,0.0512,0.0035
1613,0.0065,0.0628,0.0731,0.0048
1614,0.0061,0.0412,0.0563,0.0054
1615,0.0037,0.0234,0.0479,0.0032
1616,0.0037,0.0263,0.0466,0.0033
1617,0.0037,0.0263,0.0466,0.0033
1618,0.0037,0.0234,0.0479,0.0032
1619,0.0038,0.0342,0.0512,0.0035
1620,0.0037,0.0263,0.0466,0.0033
1621,0.0037,0.0234,0.0479,0.0032
1622,0.0037,0.0263,0.0466,0.0033
1623,0.0061,0.0615,0.0729,0.0043
1624,0.0038,0.0342,0.0512,0.0035
1625,0.0077,0.0588,0.0695,0.0062
1626,0.0037,0.0263,0.0466,0.0033
1627,0.0037,0.0263,0.0466,0.0033
1628,0.0037,0.0234,0.0479,0.0032
1629,0.0037,0.0263,0.0466,0.0033
1630,0.0038,0.0342,0.0512,0.0035
1631,0.0037,0.0234,0.0479,0.0032
1632,0.0037,0.0263,0.0466,0.0033
1633,0.0037,0.0263,0.0466,0.0033
1634,0.0037,0.0234,0.0479,0.0032
1635,0.0047,0.0533,0.0700,0.0040
1636,0.0088,0.0715,0.0768,0.0066
1637,0.0037,0.0263,0.0466,0.0033
1638,0.0037,0.0234,0.0479,0.0032
1639,0.0037,0.0263,0.0466,0.0033
1640,0.0037,0.0263,0.0466,0.0033
1641,0.0038,0.0342,0.0512,0.0035
1642,0.0117,0.0309,0.0600,0.0057
1643,0.0094,0.0341,0.0588,0.0060
1644,0.0079,0.0406,0.0601,0.0061
1645,0.0065,0.0399,0.0599,0.0061
1646,0.0061,0.0586,0.0726,0.0040
1647,0.0088,0.0751,0.0778,0.0065
1648,0.0051,0.0509,0.0662,0.0042
1649,0.0049,0.0372,0.0582,0.0057
1650,0.0044,0.0316,0.0554,0.0052
1651,0.0042,0.0304,0.0555,0.0043
1652,0.0039,0.0291,0.0524,0.0044
1653,0.0038,0.0247,0.0479,0.0036
1654,0.0037,0.0243,0.0488,0.0034
1655,0.0050,0.0316,0.0534,0.0034
1656,0.0067,0.0481,0.0666,0.0041
1657,0.0078,0.0574,0.0725,0.0040
1658,0.0078,0.0657,0.0695,0.0060
1659,0.0076,0.0648,0.0760,0.0045
1660,0.0094,0.0491,0.0688,0.0047
1661,0.0061,0.0690,0.0782,0.0048
1662,0.0047,0.0538,0.0681,0.0041
1663,0.0057,0.0517,0.0705,0.0043
1664,0.0088,0.0462,0.0645,0.0045
1665,0.0154,0.0617,0.0814,0.0057
1666,0.0042,0.0441,0.0488,0.0524
1667,0.0049,0.0527,0.0586,0.0472
1668,0.0067,0.0420,0.0584,0.0395
1669,0.0066,0.0635,0.0668,0.0054
1670,0.0193,0.0535,0.0765,0.0547
1671,0.0163,0.0407,0.0609,0.0473
1672,0.0150,0.0511,0.0622,0.0421
1673,0.0150,0.0714,0.0767,0.0390
1674,0.0149,0.0877,0.0936,0.0381
1675,0.0036,0.0248,0.0359,0.0032
1676,0.0036,0.0248,0.0359,0.0032
1677,0.0036,0.0203,0.0357,0.0031
1678,0.0037,0.0252,0.0373,0.0029
1679,0.0038,0.0340,0.0433,0.0030
1680,0.0063,0.0528,0.0580,0.0045
1681,0.0051,0.0296,0.0465,0.0037
1682,0.0071,0.0430,0.0552,0.0039
1683,0.0081,0.0536,0.0612,0.0042
1684,0.0077,0.0644,0.0677,0.0048
1685,0.0063,0.0500,0.0604,0.0036
1686,0.0046,0.0450,0.0550,0.0037
1687,0.0047,0.0420,0.0524,0.0038
1688,0.0082,0.0454,0.0577,0.0051
1689,0.0139,0.0613,0.0696,0.0069
1690,0.0053,0.0332,0.0466,0.0030
1691,0.0084,0.0414,0.0494,0.0044
1692,0.0041,0.0392,0.0410,0.0414
1693,0.0051,0.0405,0.0456,0.0366
1694,0.0059,0.0445,0.0522,0.0312
1695,0.0063,0.0325,0.0462,0.0249
1696,0.0059,0.0368,0.0439,0.0202
1697,0.0042,0.0263,0.0369,0.0128
1698,0.0039,0.0321,0.0353,0.0112
1699,0.0036,0.0307,0.0344,0.0087
1700,0.0035,0.0217,0.0345,0.0050
1701,0.0035,0.0354,0.0423,0.0049
1702,0.0129,0.0367,0.0454,0.0055
1703,0.0071,0.0430,0.0552,0.0039
1704,0.0038,0.0205,0.0347,0.0045
1705,0.0042,0.0279,0.0355,0.0072
1706,0.0047,0.0311,0.0364,0.0097
1707,0.0051,0.0444,0.0466,0.0137
1708,0.0051,0.0346,0.0379,0.0143
1709,0.0050,0.0343,0.0400,0.0177
1710,0.0045,0.0313,0.0433,0.0224
1711,0.0053,0.0387,0.0455,0.0288
1712,0.0076,0.0553,0.0568,0.0357
1713,0.0062,0.0415,0.0537,0.0054
1714,0.0115,0.0501,0.0478,0.0398
1715,0.0081,0.0536,0.0612,0.0042
1716,0.0036,0.0248,0.0359,0.0032
1717,0.0036,0.0203,0.0357,0.0031
1718,0.0036,0.0340,0.0428,0.0035
1719,0.0036,0.0248,0.0359,0.0032
1720,0.0036,0.0203,0.0357,0.0031
1721,0.0036,0.0248,0.0359,0.0032
1722,0.0036,0.0248,0.0359,0.0032
1723,0.0036,0.0340,0.0428,0.0035
1724,0.0091,0.0510,0.0647,0.0047
1725,0.0065,0.0517,0.0481,0.0454
1726,0.0036,0.0248,0.0359,0.0032
1727,0.0036,0.0248,0.0359,0.0032
1728,0.0077,0.0644,0.0677,0.0048
1729,0.0036,0.0248,0.0359,0.0032
1730,0.0036,0.0340,0.0428,0.0035
1731,0.0036,0.0203,0.0357,0.0031
1732,0.0036,0.0248,0.0359,0.0032
1733,0.0036,0.0248,0.0359,0.0032
1734,0.0036,0.0203,0.0357,0.0031
1735,0.0036,0.0340,0.0428,0.0035
1736,0.0077,0.0571,0.0584,0.0413
1737,0.0036,0.0248,0.0359,0.0032
1738,0.0036,0.0203,0.0357,0.0031
1739,0.0036,0.0248,0.0359,0.0032
1740,0.0063,0.0525,0.0593,0.0040
1741,0.0036,0.0340,0.0428,0.0035
1742,0.0036,0.0248,0.0359,0.0032
1743,0.0036,0.0248,0.0359,0.0032
1744,0.0036,0.0203,0.0357,0.0031
1745,0.0036,0.0248,0.0359,0.0032
1746,0.0036,0.0340,0.0428,0.0035
1747,0.0086,0.0527,0.0617,0.0356
1748,0.0036,0.0203,0.0357,0.0031
1749,0.0036,0.0248,0.0359,0.0032
1750,0.0036,0.0248,0.0359,0.0032
1751,0.0036,0.0203,0.0357,0.0031
1752,0.0046,0.0454,0.0587,0.0036
1753,0.0036,0.0248,0.0359,0.0032
1754,0.0036,0.0203,0.0357,0.0031
1755,0.0036,0.0248,0.0359,0.0032
1756,0.0036,0.0248,0.0359,0.0032
1757,0.0036,0.0340,0.0428,0.0035
1758,0.0085,0.0438,0.0593,0.0289
1759,0.0115,0.0276,0.0478,0.0067
1760,0.0093,0.0293,0.0444,0.0070
1761,0.0078,0.0352,0.0446,0.0070
1762,0.0064,0.0339,0.0437,0.0070
1763,0.0063,0.0500,0.0604,0.0036
1764,0.0047,0.0420,0.0524,0.0038
1765,0.0049,0.0304,0.0422,0.0063
1766,0.0044,0.0252,0.0398,0.0057
1767,0.0041,0.0254,0.0413,0.0046
1768,0.0038,0.0264,0.0407,0.0048
1769,0.0078,0.0342,0.0508,0.0208
1770,0.0037,0.0221,0.0358,0.0036
1771,0.0036,0.0212,0.0381,0.0032
1772,0.0052,0.0280,0.0434,0.0032
1773,0.0071,0.0430,0.0552,0.0039
1774,0.0081,0.0510,0.0607,0.0038
1775,0.0078,0.0563,0.0620,0.0042
1776,0.0082,0.0454,0.0577,0.0051
1777,0.0063,0.0600,0.0640,0.0046
1778,0.0046,0.0450,0.0550,0.0037
1779,0.0050,0.0460,0.0604,0.0043
1780,0.0064,0.0282,0.0461,0.0156
1781,0.0078,0.0404,0.0518,0.0046
1782,0.0139,0.0613,0.0696,0.0069
1783,0.0041,0.0392,0.0410,0.0414
1784,0.0048,0.0478,0.0485,0.0367
1785,0.0067,0.0381,0.0499,0.0318
1786,0.0190,0.0539,0.0770,0.0452
1787,0.0159,0.0387,0.0590,0.0376
1788,0.0145,0.0466,0.0558,0.0323
1789,0.0144,0.0650,0.0674,0.0293
1790,0.0144,0.0813,0.0837,0.0287
1791,0.0059,0.0280,0.0447,0.0117
1792,0.0034,0.0263,0.0305,0.0027
1793,0.0034,0.0263,0.0305,0.0027
1794,0.0034,0.0189,0.0242,0.0027
1795,0.0038,0.0236,0.0288,0.0025
1796,0.0039,0.0345,0.0401,0.0024
1797,0.0056,0.0192,0.0270,0.0037
1798,0.0076,0.0286,0.0329,0.0037
1799,0.0086,0.0365,0.0367,0.0038
1800,0.0082,0.0458,0.0408,0.0044
1801,0.0067,0.0344,0.0431,0.0032
1802,0.0058,0.0281,0.0427,0.0084
1803,0.0048,0.0285,0.0368,0.0032
1804,0.0043,0.0287,0.0361,0.0033
1805,0.0071,0.0490,0.0568,0.0047
1806,0.0119,0.0752,0.0752,0.0081
1807,0.0058,0.0287,0.0368,0.0027
1808,0.0039,0.0317,0.0322,0.0233
1809,0.0049,0.0302,0.0290,0.0199
1810,0.0059,0.0345,0.0309,0.0142
1811,0.0063,0.0251,0.0281,0.0142
1812,0.0060,0.0352,0.0355,0.0163
1813,0.0059,0.0283,0.0432,0.0063
1814,0.0042,0.0256,0.0225,0.0083
1815,0.0040,0.0343,0.0274,0.0112
1816,0.0037,0.0334,0.0283,0.0097
1817,0.0035,0.0230,0.0228,0.0054
1818,0.0035,0.0387,0.0411,0.0057
1819,0.0076,0.0286,0.0329,0.0037
1820,0.0035,0.0198,0.0257,0.0043
1821,0.0035,0.0299,0.0346,0.0071
1822,0.0037,0.0327,0.0370,0.0097
1823,0.0038,0.0462,0.0499,0.0133
1824,0.0062,0.0348,0.0434,0.0051
1825,0.0038,0.0342,0.0367,0.0119
1826,0.0037,0.0316,0.0355,0.0118
1827,0.0036,0.0236,0.0291,0.0102
1828,0.0041,0.0330,0.0378,0.0143
1829,0.0062,0.0533,0.0569,0.0205
1830,0.0104,0.0492,0.0472,0.0180
1831,0.0086,0.0365,0.0367,0.0038
1832,0.0034,0.0263,0.0305,0.0027
1833,0.0034,0.0189,0.0242,0.0027
1834,0.0035,0.0367,0.0420,0.0030
1835,0.0140,0.0432,0.0618,0.0050
1836,0.0077,0.0588,0.0695,0.0062
1837,0.0034,0.0263,0.0305,0.0027
1838,0.0034,0.0189,0.0242,0.0027
1839,0.0034,0.0263,0.0305,0.0027
1840,0.0034,0.0263,0.0305,0.0027
1841,0.0035,0.0367,0.0420,0.0030
1842,0.0034,0.0263,0.0305,0.0027
1843,0.0034,0.0263,0.0305,0.0027
1844,0.0082,0.0458,0.0408,0.0044
1845,0.0034,0.0263,0.0305,0.0027
1846,0.0035,0.0367,0.0420,0.0030
1847,0.0065,0.0290,0.0426,0.0042
1848,0.0034,0.0189,0.0242,0.0027
1849,0.0034,0.0263,0.0305,0.0027
1850,0.0034,0.0263,0.0305,0.0027
1851,0.0034,0.0189,0.0242,0.0027
1852,0.0035,0.0367,0.0420,0.0030
1853,0.0034,0.0263,0.0305,0.0027
1854,0.0034,0.0189,0.0242,0.0027
1855,0.0034,0.0263,0.0305,0.0027
1856,0.0066,0.0345,0.0362,0.0036
1857,0.0035,0.0367,0.0420,0.0030
1858,0.0066,0.0281,0.0410,0.0057
1859,0.0034,0.0263,0.0305,0.0027
1860,0.0034,0.0263,0.0305,0.0027
1861,0.0034,0.0189,0.0242,0.0027
1862,0.0034,0.0263,0.0305,0.0027
1863,0.0035,0.0367,0.0420,0.0030
1864,0.0034,0.0189,0.0242,0.0027
1865,0.0034,0.0263,0.0305,0.0027
1866,0.0034,0.0263,0.0305,0.0027
1867,0.0034,0.0189,0.0242,0.0027
1868,0.0047,0.0335,0.0470,0.0029
1869,0.0068,0.0280,0.0398,0.0078
1870,0.0034,0.0263,0.0305,0.0027
1871,0.0034,0.0189,0.0242,0.0027
1872,0.0034,0.0263,0.0305,0.0027
1873,0.0034,0.0263,0.0305,0.0027
1874,0.0035,0.0367,0.0420,0.0030
1875,0.0112,0.0273,0.0459,0.0084
1876,0.0091,0.0242,0.0366,0.0085
1877,0.0076,0.0280,0.0308,0.0080
1878,0.0063,0.0255,0.0272,0.0080
1879,0.0067,0.0344,0.0431,0.0032
1880,0.0069,0.0346,0.0416,0.0105
1881,0.0043,0.0287,0.0361,0.0033
1882,0.0049,0.0209,0.0237,0.0066
1883,0.0044,0.0168,0.0229,0.0059
1884,0.0041,0.0166,0.0235,0.0044
1885,0.0038,0.0257,0.0349,0.0046
1886,0.0036,0.0220,0.0280,0.0033
1887,0.0037,0.0167,0.0237,0.0030
1888,0.0057,0.0201,0.0276,0.0031
1889,0.0076,0.0286,0.0329,0.0037
1890,0.0086,0.0362,0.0412,0.0034
1891,0.0066,0.0299,0.0412,0.0152
1892,0.0083,0.0379,0.0371,0.0039
1893,0.0071,0.0490,0.0568,0.0047
1894,0.0066,0.0416,0.0377,0.0042
1895,0.0048,0.0285,0.0368,0.0032
1896,0.0044,0.0429,0.0560,0.0035
1897,0.0069,0.0392,0.0455,0.0040
1898,0.0119,0.0752,0.0752,0.0081
1899,0.0039,0.0317,0.0322,0.0233
1900,0.0046,0.0372,0.0285,0.0170
1901,0.0066,0.0307,0.0365,0.0206
1902,0.0063,0.0336,0.0457,0.0213
1903,0.0191,0.0551,0.0782,0.0288
1904,0.0148,0.0368,0.0590,0.0238
1905,0.0135,0.0379,0.0485,0.0205
1906,0.0134,0.0544,0.0532,0.0191
1907,0.0133,0.0699,0.0665,0.0177
1908,0.0035,0.0322,0.0416,0.0024
1909,0.0035,0.0322,0.0416,0.0024
1910,0.0034,0.0250,0.0340,0.0026
1911,0.0040,0.0280,0.0370,0.0025
1912,0.0041,0.0383,0.0484,0.0022
1913,0.0060,0.0419,0.0510,0.0290
1914,0.0061,0.0143,0.0242,0.0035
1915,0.0080,0.0169,0.0262,0.0033
1916,0.0089,0.0202,0.0256,0.0034
1917,0.0085,0.0295,0.0257,0.0038
1918,0.0069,0.0254,0.0421,0.0030
1919,0.0049,0.0217,0.0377,0.0030
1920,0.0042,0.0269,0.0397,0.0031
1921,0.0067,0.0560,0.0681,0.0040
1922,0.0110,0.0860,0.0899,0.0076
1923,0.0063,0.0292,0.0404,0.0027
1924,0.0064,0.0471,0.0517,0.0363
1925,0.0039,0.0316,0.0364,0.0217
1926,0.0049,0.0253,0.0256,0.0175
1927,0.0061,0.0277,0.0199,0.0099
1928,0.0064,0.0248,0.0239,0.0151
1929,0.0061,0.0387,0.0381,0.0193
1930,0.0045,0.0293,0.0242,0.0118
1931,0.0040,0.0392,0.0345,0.0145
1932,0.0037,0.0388,0.0368,0.0122
1933,0.0035,0.0291,0.0311,0.0072
1934,0.0036,0.0433,0.0509,0.0063
1935,0.0082,0.0444,0.0481,0.0395
1936,0.0080,0.0169,0.0262,0.0033
1937,0.0034,0.0255,0.0364,0.0052
1938,0.0034,0.0348,0.0463,0.0091
1939,0.0033,0.0371,0.0482,0.0128
1940,0.0034,0.0493,0.0603,0.0171
1941,0.0034,0.0379,0.0472,0.0164
1942,0.0035,0.0352,0.0447,0.0160
1943,0.0035,0.0254,0.0356,0.0120
1944,0.0036,0.0355,0.0462,0.0148
1945,0.0055,0.0569,0.0668,0.0209
1946,0.0061,0.0455,0.0645,0.0055
1947,0.0114,0.0444,0.0438,0.0462
1948,0.0098,0.0552,0.0586,0.0141
1949,0.0089,0.0202,0.0256,0.0034
1950,0.0035,0.0322,0.0416,0.0024
1951,0.0034,0.0250,0.0340,0.0026
1952,0.0035,0.0420,0.0526,0.0025
1953,0.0035,0.0322,0.0416,0.0024
1954,0.0034,0.0250,0.0340,0.0026
1955,0.0035,0.0322,0.0416,0.0024
1956,0.0035,0.0322,0.0416,0.0024
1957,0.0035,0.0420,0.0526,0.0025
1958,0.0088,0.0715,0.0768,0.0066
1959,0.0035,0.0322,0.0416,0.0024
1960,0.0035,0.0322,0.0416,0.0024
1961,0.0085,0.0295,0.0257,0.0038
1962,0.0035,0.0322,0.0416,0.0024
1963,0.0035,0.0420,0.0526,0.0025
1964,0.0034,0.0250,0.0340,0.0026
1965,0.0035,0.0322,0.0416,0.0024
1966,0.0035,0.0322,0.0416,0.0024
1967,0.0034,0.0250,0.0340,0.0026
1968,0.0035,0.0420,0.0526,0.0025
1969,0.0063,0.0295,0.0441,0.0039
1970,0.0035,0.0322,0.0416,0.0024
1971,0.0034,0.0250,0.0340,0.0026
1972,0.0035,0.0322,0.0416,0.0024
1973,0.0069,0.0207,0.0302,0.0033
1974,0.0035,0.0420,0.0526,0.0025
1975,0.0035,0.0322,0.0416,0.0024
1976,0.0035,0.0322,0.0416,0.0024
1977,0.0034,0.0250,0.0340,0.0026
1978,0.0035,0.0322,0.0416,0.0024
1979,0.0035,0.0420,0.0526,0.0025
1980,0.0063,0.0295,0.0441,0.0039
1981,0.0034,0.0250,0.0340,0.0026
1982,0.0035,0.0322,0.0416,0.0024
1983,0.0035,0.0322,0.0416,0.0024
1984,0.0034,0.0250,0.0340,0.0026
1985,0.0048,0.0312,0.0508,0.0027
1986,0.0035,0.0322,0.0416,0.0024
1987,0.0034,0.0250,0.0340,0.0026
1988,0.0035,0.0322,0.0416,0.0024
1989,0.0035,0.0322,0.0416,0.0024
1990,0.0035,0.0420,0.0526,0.0025
1991,0.0064,0.0344,0.0435,0.0042
1992,0.0111,0.0319,0.0620,0.0091
1993,0.0090,0.0252,0.0512,0.0090
1994,0.0076,0.0260,0.0415,0.0082
1995,0.0063,0.0219,0.0374,0.0081
1996,0.0069,0.0254,0.0421,0.0030
1997,0.0042,0.0269,0.0397,0.0031
1998,0.0049,0.0172,0.0320,0.0064
1999,0.0044,0.0149,0.0316,0.0055
2000,0.0041,0.0155,0.0297,0.0039
2001,0.0039,0.0300,0.0456,0.0040
2002,0.0063,0.0295,0.0441,0.0039
2003,0.0036,0.0276,0.0394,0.0028
2004,0.0039,0.0207,0.0298,0.0029
2005,0.0062,0.0188,0.0291,0.0031
2006,0.0080,0.0169,0.0262,0.0033
2007,0.0090,0.0248,0.0360,0.0032
2008,0.0085,0.0221,0.0267,0.0034
2009,0.0067,0.0560,0.0681,0.0040
2010,0.0069,0.0264,0.0263,0.0038
2011,0.0049,0.0217,0.0377,0.0030
2012,0.0042,0.0458,0.0639,0.0029
2013,0.0063,0.0295,0.0441,0.0039
2014,0.0066,0.0450,0.0554,0.0034
2015,0.0110,0.0860,0.0899,0.0076
2016,0.0039,0.0316,0.0364,0.0217
2017,0.0047,0.0304,0.0201,0.0110
2018,0.0067,0.0287,0.0347,0.0209
2019,0.0202,0.0564,0.0795,0.0218
2020,0.0138,0.0363,0.0599,0.0219
2021,0.0124,0.0331,0.0482,0.0247
2022,0.0125,0.0468,0.0470,0.0252
2023,0.0124,0.0606,0.0565,0.0233
2024,0.0063,0.0295,0.0441,0.0039
2025,0.0035,0.0359,0.0488,0.0023
2026,0.0035,0.0359,0.0488,0.0023
2027,0.0035,0.0292,0.0414,0.0026
2028,0.0042,0.0310,0.0431,0.0024
2029,0.0043,0.0408,0.0538,0.0022
2030,0.0063,0.0167,0.0289,0.0034
2031,0.0081,0.0164,0.0302,0.0032
2032,0.0091,0.0156,0.0279,0.0032
2033,0.0086,0.0240,0.0260,0.0035
2034,0.0069,0.0255,0.0466,0.0029
2035,0.0063,0.0295,0.0441,0.0039
2036,0.0049,0.0231,0.0428,0.0029
2037,0.0042,0.0304,0.0461,0.0031
2038,0.0066,0.0602,0.0743,0.0038
2039,0.0109,0.0904,0.0970,0.0073
2040,0.0065,0.0320,0.0453,0.0027
2041,0.0039,0.0343,0.0415,0.0256
2042,0.0049,0.0259,0.0296,0.0210
2043,0.0062,0.0270,0.0214,0.0136
2044,0.0065,0.0275,0.0279,0.0182
2045,0.0062,0.0422,0.0424,0.0218
2046,0.0064,0.0344,0.0435,0.0042
2047,0.0046,0.0328,0.0292,0.0144
2048,0.0042,0.0425,0.0403,0.0164
2049,0.0038,0.0422,0.0430,0.0137
2050,0.0036,0.0326,0.0375,0.0083
2051,0.0036,0.0469,0.0573,0.0067
2052,0.0081,0.0164,0.0302,0.0032
2053,0.0034,0.0305,0.0442,0.0057
2054,0.0034,0.0381,0.0532,0.0102
2055,0.0033,0.0402,0.0550,0.0144
2056,0.0033,0.0522,0.0665,0.0191
2057,0.0066,0.0586,0.0585,0.0576
2058,0.0063,0.0295,0.0441,0.0039
2059,0.0034,0.0406,0.0533,0.0189
2060,0.0036,0.0382,0.0509,0.0189
2061,0.0035,0.0290,0.0426,0.0156
2062,0.0035,0.0386,0.0527,0.0184
2063,0.0052,0.0601,0.0729,0.0245
2064,0.0096,0.0600,0.0659,0.0186
2065,0.0091,0.0156,0.0279,0.0032
2066,0.0035,0.0359,0.0488,0.0023
2067,0.0035,0.0292,0.0414,0.0026
2068,0.0035,0.0452,0.0592,0.0024
2069,0.0063,0.0295,0.0441,0.0039
2070,0.0035,0.0359,0.0488,0.0023
2071,0.0035,0.0292,0.0414,0.0026
2072,0.0035,0.0359,0.0488,0.0023
2073,0.0035,0.0359,0.0488,0.0023
2074,0.0035,0.0452,0.0592,0.0024
2075,0.0035,0.0359,0.0488,0.0023
2076,0.0035,0.0359,0.0488,0.0023
2077,0.0086,0.0240,0.0260,0.0035
2078,0.0035,0.0359,0.0488,0.0023
2079,0.0035,0.0452,0.0592,0.0024
2080,0.0088,0.0751,0.0778,0.0065
2081,0.0035,0.0292,0.0414,0.0026
2082,0.0035,0.0359,0.0488,0.0023
2083,0.0035,0.0359,0.0488,0.0023
2084,0.0035,0.0292,0.0414,0.0026
2085,0.0035,0.0452,0.0592,0.0024
2086,0.0035,0.0359,0.0488,0.0023
2087,0.0035,0.0292,0.0414,0.0026
2088,0.0035,0.0359,0.0488,0.0023
2089,0.0069,0.0180,0.0343,0.0032
2090,0.0035,0.0452,0.0592,0.0024
2091,0.0063,0.0295,0.0441,0.0039
2092,0.0035,0.0359,0.0488,0.0023
2093,0.0035,0.0359,0.0488,0.0023
2094,0.0035,0.0292,0.0414,0.0026
2095,0.0035,0.0359,0.0488,0.0023
2096,0.0035,0.0452,0.0592,0.0024
2097,0.0035,0.0292,0.0414,0.0026
2098,0.0035,0.0359,0.0488,0.0023
2099,0.0035,0.0359,0.0488,0.0023
2100,0.0035,0.0292,0.0414,0.0026
2101,0.0049,0.0338,0.0560,0.0026
2102,0.0064,0.0344,0.0435,0.0042
2103,0.0035,0.0359,0.0488,0.0023
2104,0.0035,0.0292,0.0414,0.0026
2105,0.0035,0.0359,0.0488,0.0023
2106,0.0035,0.0359,0.0488,0.0023
2107,0.0035,0.0452,0.0592,0.0024
2108,0.0111,0.0338,0.0701,0.0093
2109,0.0090,0.0269,0.0593,0.0090
2110,0.0076,0.0262,0.0487,0.0082
2111,0.0063,0.0219,0.0450,0.0079
2112,0.0069,0.0255,0.0466,0.0029
2113,0.0063,0.0295,0.0441,0.0039
2114,0.0042,0.0304,0.0461,0.0031
2115,0.0049,0.0173,0.0391,0.0062
2116,0.0045,0.0156,0.0378,0.0052
2117,0.0041,0.0169,0.0361,0.0038
2118,0.0039,0.0325,0.0520,0.0038
2119,0.0036,0.0310,0.0463,0.0027
2120,0.0041,0.0241,0.0358,0.0029
2121,0.0064,0.0218,0.0343,0.0030
2122,0.0081,0.0164,0.0302,0.0032
2123,0.0091,0.0229,0.0390,0.0030
2124,0.0063,0.0295,0.0441,0.0039
2125,0.0087,0.0172,0.0291,0.0032
2126,0.0066,0.0602,0.0743,0.0038
2127,0.0069,0.0220,0.0286,0.0036
2128,0.0049,0.0231,0.0428,0.0029
2129,0.0042,0.0501,0.0701,0.0028
2130,0.0065,0.0494,0.0618,0.0034
2131,0.0109,0.0904,0.0970,0.0073
2132,0.0039,0.0343,0.0415,0.0256
2133,0.0047,0.0297,0.0231,0.0151
2134,0.0067,0.0310,0.0381,0.0239
2135,0.0063,0.0295,0.0441,0.0039
2136,0.0207,0.0575,0.0808,0.0216
2137,0.0136,0.0363,0.0600,0.0234
2138,0.0119,0.0317,0.0492,0.0286
2139,0.0121,0.0433,0.0458,0.0300
2140,0.0120,0.0573,0.0532,0.0280
2141,0.0039,0.0253,0.0490,0.0038
2142,0.0039,0.0253,0.0490,0.0038
2143,0.0039,0.0229,0.0511,0.0036
2144,0.0039,0.0257,0.0485,0.0034
2145,0.0040,0.0331,0.0505,0.0036
2146,0.0063,0.0295,0.0441,0.0039
2147,0.0051,0.0343,0.0615,0.0036
2148,0.0069,0.0489,0.0703,0.0038
2149,0.0081,0.0617,0.0779,0.0042
2150,0.0079,0.0754,0.0875,0.0051
2151,0.0064,0.0593,0.0747,0.0040
2152,0.0049,0.0555,0.0711,0.0042
2153,0.0049,0.0524,0.0691,0.0043
2154,0.0089,0.0467,0.0678,0.0046
2155,0.0148,0.0561,0.0784,0.0052
2156,0.0052,0.0350,0.0563,0.0033
2157,0.0064,0.0344,0.0435,0.0042
2158,0.0042,0.0447,0.0496,0.0515
2159,0.0054,0.0474,0.0578,0.0456
2160,0.0060,0.0506,0.0665,0.0393
2161,0.0063,0.0358,0.0578,0.0305
2162,0.0058,0.0363,0.0516,0.0234
2163,0.0041,0.0271,0.0500,0.0161
2164,0.0038,0.0306,0.0454,0.0126
2165,0.0036,0.0285,0.0462,0.0094
2166,0.0037,0.0222,0.0491,0.0056
2167,0.0037,0.0335,0.0507,0.0050
2168,0.0078,0.0634,0.0693,0.0522
2169,0.0063,0.0295,0.0441,0.0039
2170,0.0069,0.0489,0.0703,0.0038
2171,0.0043,0.0232,0.0496,0.0053
2172,0.0051,0.0275,0.0453,0.0086
2173,0.0056,0.0305,0.0444,0.0117
2174,0.0064,0.0438,0.0483,0.0161
2175,0.0064,0.0363,0.0439,0.0188
2176,0.0060,0.0363,0.0477,0.0240
2177,0.0053,0.0361,0.0555,0.0310
2178,0.0060,0.0428,0.0551,0.0386
2179,0.0082,0.0566,0.0597,0.0464
2180,0.0063,0.0295,0.0441,0.0039
2181,0.0117,0.0509,0.0534,0.0532
2182,0.0081,0.0617,0.0779,0.0042
2183,0.0039,0.0253,0.0490,0.0038
2184,0.0039,0.0229,0.0511,0.0036
2185,0.0040,0.0328,0.0512,0.0042
2186,0.0039,0.0253,0.0490,0.0038
2187,0.0039,0.0229,0.0511,0.0036
2188,0.0039,0.0253,0.0490,0.0038
2189,0.0039,0.0253,0.0490,0.0038
2190,0.0040,0.0328,0.0512,0.0042
2191,0.0063,0.0295,0.0441,0.0039
2192,0.0039,0.0253,0.0490,0.0038
2193,0.0039,0.0253,0.0490,0.0038
2194,0.0079,0.0754,0.0875,0.0051
2195,0.0039,0.0253,0.0490,0.0038
2196,0.0040,0.0328,0.0512,0.0042
2197,0.0039,0.0229,0.0511,0.0036
2198,0.0039,0.0253,0.0490,0.0038
2199,0.0039,0.0253,0.0490,0.0038
2200,0.0039,0.0229,0.0511,0.0036
2201,0.0040,0.0328,0.0512,0.0042
2202,0.0078,0.0721,0.0743,0.0061
2203,0.0039,0.0253,0.0490,0.0038
2204,0.0039,0.0229,0.0511,0.0036
2205,0.0039,0.0253,0.0490,0.0038
2206,0.0064,0.0635,0.0768,0.0043
2207,0.0040,0.0328,0.0512,0.0042
2208,0.0039,0.0253,0.0490,0.0038
2209,0.0039,0.0253,0.0490,0.0038
2210,0.0039,0.0229,0.0511,0.0036
2211,0.0039,0.0253,0.0490,0.0038
2212,0.0040,0.0328,0.0512,0.0042
2213,0.0064,0.0344,0.0435,0.0042
2214,0.0039,0.0229,0.0511,0.0036
2215,0.0039,0.0253,0.0490,0.0038
2216,0.0039,0.0253,0.0490,0.0038
2217,0.0039,0.0229,0.0511,0.0036
2218,0.0049,0.0533,0.0709,0.0041
2219,0.0039,0.0253,0.0490,0.0038
2220,0.0039,0.0229,0.0511,0.0036
2221,0.0039,0.0253,0.0490,0.0038
2222,0.0039,0.0253,0.0490,0.0038
2223,0.0040,0.0328,0.0512,0.0042
2224,0.0063,0.0295,0.0441,0.0039
2225,0.0143,0.0284,0.0635,0.0065
2226,0.0116,0.0296,0.0626,0.0068
2227,0.0096,0.0356,0.0638,0.0071
2228,0.0078,0.0355,0.0637,0.0071
2229,0.0064,0.0593,0.0747,0.0040
2230,0.0049,0.0524,0.0691,0.0043
2231,0.0055,0.0346,0.0622,0.0067
2232,0.0050,0.0296,0.0589,0.0063
2233,0.0045,0.0295,0.0596,0.0054
2234,0.0043,0.0281,0.0543,0.0054
2235,0.0063,0.0295,0.0441,0.0039
2236,0.0041,0.0238,0.0502,0.0044
2237,0.0038,0.0242,0.0524,0.0034
2238,0.0051,0.0312,0.0562,0.0033
2239,0.0069,0.0489,0.0703,0.0038
2240,0.0080,0.0580,0.0751,0.0039
2241,0.0079,0.0666,0.0802,0.0044
2242,0.0089,0.0467,0.0678,0.0046
2243,0.0065,0.0718,0.0834,0.0049
2244,0.0049,0.0555,0.0711,0.0042
2245,0.0056,0.0504,0.0699,0.0043
2246,0.0063,0.0295,0.0441,0.0039
2247,0.0083,0.0454,0.0658,0.0045
2248,0.0148,0.0561,0.0784,0.0052
2249,0.0042,0.0447,0.0496,0.0515
2250,0.0050,0.0556,0.0632,0.0466
2251,0.0068,0.0418,0.0596,0.0384
2252,0.0248,0.0628,0.0790,0.0592
2253,0.0177,0.0400,0.0640,0.0502
2254,0.0143,0.0397,0.0639,0.0427
2255,0.0134,0.0586,0.0766,0.0376
2256,0.0136,0.0757,0.0909,0.0347
2257,0.0063,0.0295,0.0441,0.0039
2258,0.0036,0.0235,0.0363,0.0037
2259,0.0036,0.0235,0.0363,0.0037
2260,0.0037,0.0196,0.0378,0.0035
2261,0.0037,0.0238,0.0377,0.0031
2262,0.0038,0.0324,0.0413,0.0034
2263,0.0052,0.0309,0.0509,0.0035
2264,0.0073,0.0443,0.0590,0.0037
2265,0.0084,0.0559,0.0656,0.0041
2266,0.0081,0.0675,0.0734,0.0048
2267,0.0067,0.0509,0.0617,0.0036
2268,0.0064,0.0344,0.0435,0.0042
2269,0.0049,0.0468,0.0575,0.0038
2270,0.0045,0.0441,0.0554,0.0040
2271,0.0077,0.0415,0.0543,0.0049
2272,0.0133,0.0548,0.0638,0.0064
2273,0.0054,0.0320,0.0468,0.0030
2274,0.0041,0.0395,0.0407,0.0405
2275,0.0052,0.0422,0.0480,0.0358
2276,0.0060,0.0472,0.0571,0.0307
2277,0.0064,0.0328,0.0491,0.0240
2278,0.0059,0.0343,0.0435,0.0192
2279,0.0087,0.0581,0.0724,0.0448
2280,0.0063,0.0295,0.0441,0.0039
2281,0.0041,0.0254,0.0405,0.0121
2282,0.0039,0.0299,0.0354,0.0107
2283,0.0036,0.0286,0.0347,0.0084
2284,0.0035,0.0207,0.0371,0.0049
2285,0.0036,0.0337,0.0402,0.0055
2286,0.0073,0.0443,0.0590,0.0037
2287,0.0040,0.0202,0.0365,0.0047
2288,0.0044,0.0271,0.0346,0.0072
2289,0.0049,0.0304,0.0346,0.0095
2290,0.0053,0.0440,0.0426,0.0131
2291,0.0063,0.0295,0.0441,0.0039
2292,0.0053,0.0344,0.0358,0.0140
2293,0.0051,0.0342,0.0388,0.0178
2294,0.0045,0.0317,0.0450,0.0233
2295,0.0052,0.0386,0.0453,0.0295
2296,0.0074,0.0538,0.0534,0.0361
2297,0.0110,0.0480,0.0455,0.0410
2298,0.0084,0.0559,0.0656,0.0041
2299,0.0036,0.0235,0.0363,0.0037
2300,0.0037,0.0196,0.0378,0.0035
2301,0.0037,0.0326,0.0407,0.0043
2302,0.0063,0.0295,0.0441,0.0039
2303,0.0036,0.0235,0.0363,0.0037
2304,0.0037,0.0196,0.0378,0.0035
2305,0.0036,0.0235,0.0363,0.0037
2306,0.0036,0.0235,0.0363,0.0037
2307,0.0037,0.0326,0.0407,0.0043
2308,0.0036,0.0235,0.0363,0.0037
2309,0.0036,0.0235,0.0363,0.0037
2310,0.0081,0.0675,0.0734,0.0048
2311,0.0036,0.0235,0.0363,0.0037
2312,0.0037,0.0326,0.0407,0.0043
2313,0.0063,0.0295,0.0441,0.0039
2314,0.0037,0.0196,0.0378,0.0035
2315,0.0036,0.0235,0.0363,0.0037
2316,0.0036,0.0235,0.0363,0.0037
2317,0.0037,0.0196,0.0378,0.0035
2318,0.0037,0.0326,0.0407,0.0043
2319,0.0036,0.0235,0.0363,0.0037
2320,0.0037,0.0196,0.0378,0.0035
2321,0.0036,0.0235,0.0363,0.0037
2322,0.0067,0.0548,0.0630,0.0040
2323,0.0037,0.0326,0.0407,0.0043
2324,0.0067,0.0572,0.0630,0.0053
2325,0.0036,0.0235,0.0363,0.0037
2326,0.0036,0.0235,0.0363,0.0037
2327,0.0037,0.0196,0.0378,0.0035
2328,0.0036,0.0235,0.0363,0.0037
2329,0.0037,0.0326,0.0407,0.0043
2330,0.0037,0.0196,0.0378,0.0035
2331,0.0036,0.0235,0.0363,0.0037
2332,0.0036,0.0235,0.0363,0.0037
2333,0.0037,0.0196,0.0378,0.0035
2334,0.0049,0.0454,0.0585,0.0037
2335,0.0063,0.0295,0.0441,0.0039
2336,0.0036,0.0235,0.0363,0.0037
2337,0.0037,0.0196,0.0378,0.0035
2338,0.0036,0.0235,0.0363,0.0037
2339,0.0036,0.0235,0.0363,0.0037
2340,0.0037,0.0326,0.0407,0.0043
2341,0.0140,0.0273,0.0497,0.0076
2342,0.0113,0.0259,0.0466,0.0079
2343,0.0093,0.0309,0.0471,0.0081
2344,0.0075,0.0301,0.0462,0.0081
2345,0.0067,0.0509,0.0617,0.0036
2346,0.0063,0.0295,0.0441,0.0039
2347,0.0045,0.0441,0.0554,0.0040
2348,0.0054,0.0280,0.0449,0.0075
2349,0.0048,0.0239,0.0425,0.0069
2350,0.0043,0.0247,0.0448,0.0057
2351,0.0040,0.0255,0.0405,0.0059
2352,0.0038,0.0213,0.0363,0.0045
2353,0.0036,0.0211,0.0413,0.0031
2354,0.0053,0.0278,0.0457,0.0030
2355,0.0073,0.0443,0.0590,0.0037
2356,0.0084,0.0524,0.0635,0.0037
2357,0.0063,0.0295,0.0441,0.0039
2358,0.0082,0.0584,0.0660,0.0041
2359,0.0077,0.0415,0.0543,0.0049
2360,0.0067,0.0631,0.0691,0.0047
2361,0.0049,0.0468,0.0575,0.0038
2362,0.0048,0.0443,0.0582,0.0043
2363,0.0073,0.0385,0.0512,0.0044
2364,0.0133,0.0548,0.0638,0.0064
2365,0.0041,0.0395,0.0407,0.0405
2366,0.0049,0.0509,0.0530,0.0362
2367,0.0068,0.0381,0.0513,0.0309
2368,0.0063,0.0295,0.0441,0.0039
2369,0.0256,0.0630,0.0784,0.0502
2370,0.0176,0.0397,0.0618,0.0414
2371,0.0138,0.0369,0.0582,0.0338
2372,0.0129,0.0529,0.0674,0.0287
2373,0.0131,0.0697,0.0808,0.0262
2374,0.0034,0.0237,0.0251,0.0031
2375,0.0034,0.0237,0.0251,0.0031
2376,0.0034,0.0171,0.0215,0.0029
2377,0.0038,0.0211,0.0241,0.0025
2378,0.0039,0.0320,0.0342,0.0026
2379,0.0064,0.0344,0.0435,0.0042
2380,0.0057,0.0209,0.0300,0.0035
2381,0.0079,0.0308,0.0355,0.0036
2382,0.0090,0.0397,0.0403,0.0038
2383,0.0087,0.0501,0.0467,0.0044
2384,0.0071,0.0354,0.0414,0.0033
2385,0.0051,0.0299,0.0353,0.0034
2386,0.0041,0.0286,0.0340,0.0035
2387,0.0065,0.0420,0.0479,0.0043
2388,0.0111,0.0669,0.0650,0.0073
2389,0.0059,0.0269,0.0334,0.0026
2390,0.0084,0.0477,0.0692,0.0364
2391,0.0155,0.0300,0.0411,0.0067
2392,0.0039,0.0308,0.0283,0.0225
2393,0.0050,0.0318,0.0294,0.0190
2394,0.0060,0.0380,0.0362,0.0139
2395,0.0064,0.0247,0.0298,0.0134
2396,0.0060,0.0315,0.0323,0.0155
2397,0.0042,0.0230,0.0236,0.0078
2398,0.0039,0.0307,0.0228,0.0109
2399,0.0036,0.0301,0.0231,0.0097
2400,0.0035,0.0205,0.0209,0.0057
2401,0.0035,0.0362,0.0348,0.0063
2402,0.0136,0.0347,0.0451,0.0068
2403,0.0079,0.0308,0.0355,0.0036
2404,0.0035,0.0178,0.0221,0.0039
2405,0.0036,0.0278,0.0283,0.0064
2406,0.0038,0.0312,0.0306,0.0087
2407,0.0039,0.0450,0.0433,0.0119
2408,0.0038,0.0328,0.0307,0.0104
2409,0.0038,0.0302,0.0307,0.0105
2410,0.0037,0.0235,0.0273,0.0100
2411,0.0040,0.0316,0.0331,0.0139
2412,0.0058,0.0503,0.0504,0.0194
2413,0.0122,0.0385,0.0491,0.0068
2414,0.0098,0.0451,0.0406,0.0185
2415,0.0090,0.0397,0.0403,0.0038
2416,0.0034,0.0237,0.0251,0.0031
2417,0.0034,0.0171,0.0215,0.0029
2418,0.0035,0.0345,0.0357,0.0036
2419,0.0034,0.0237,0.0251,0.0031
2420,0.0034,0.0171,0.0215,0.0029
2421,0.0034,0.0237,0.0251,0.0031
2422,0.0034,0.0237,0.0251,0.0031
2423,0.0035,0.0345,0.0357,0.0036
2424,0.0110,0.0415,0.0526,0.0065
2425,0.0034,0.0237,0.0251,0.0031
2426,0.0034,0.0237,0.0251,0.0031
2427,0.0087,0.0501,0.0467,0.0044
2428,0.0034,0.0237,0.0251,0.0031
2429,0.0035,0.0345,0.0357,0.0036
2430,0.0034,0.0171,0.0215,0.0029
2431,0.0034,0.0237,0.0251,0.0031
2432,0.0034,0.0237,0.0251,0.0031
2433,0.0034,0.0171,0.0215,0.0029
2434,0.0035,0.0345,0.0357,0.0036
2435,0.0078,0.0657,0.0695,0.0060
2436,0.0034,0.0237,0.0251,0.0031
2437,0.0034,0.0171,0.0215,0.0029
2438,0.0034,0.0237,0.0251,0.0031
2439,0.0071,0.0375,0.0378,0.0038
2440,0.0035,0.0345,0.0357,0.0036
2441,0.0034,0.0237,0.0251,0.0031
2442,0.0034,0.0237,0.0251,0.0031
2443,0.0034,0.0171,0.0215,0.0029
2444,0.0034,0.0237,0.0251,0.0031
2445,0.0035,0.0345,0.0357,0.0036
2446,0.0063,0.0528,0.0580,0.0045
2447,0.0034,0.0171,0.0215,0.0029
2448,0.0034,0.0237,0.0251,0.0031
2449,0.0034,0.0237,0.0251,0.0031
2450,0.0034,0.0171,0.0215,0.0029
2451,0.0051,0.0319,0.0424,0.0030
2452,0.0034,0.0237,0.0251,0.0031
2453,0.0034,0.0171,0.0215,0.0029
2454,0.0034,0.0237,0.0251,0.0031
2455,0.0034,0.0237,0.0251,0.0031
2456,0.0035,0.0345,0.0357,0.0036
2457,0.0093,0.0408,0.0541,0.0056
2458,0.0135,0.0314,0.0442,0.0095
2459,0.0109,0.0253,0.0349,0.0097
2460,0.0089,0.0265,0.0306,0.0095
2461,0.0072,0.0236,0.0266,0.0093
2462,0.0071,0.0354,0.0414,0.0033
2463,0.0041,0.0286,0.0340,0.0035
2464,0.0052,0.0204,0.0238,0.0080
2465,0.0046,0.0172,0.0222,0.0071
2466,0.0042,0.0176,0.0250,0.0054
2467,0.0039,0.0251,0.0303,0.0056
2468,0.0086,0.0369,0.0521,0.0051
2469,0.0036,0.0205,0.0232,0.0039
2470,0.0037,0.0154,0.0231,0.0028
2471,0.0058,0.0195,0.0270,0.0029
2472,0.0079,0.0308,0.0355,0.0036
2473,0.0090,0.0380,0.0419,0.0034
2474,0.0087,0.0412,0.0403,0.0039
2475,0.0065,0.0420,0.0479,0.0043
2476,0.0072,0.0461,0.0426,0.0044
2477,0.0051,0.0299,0.0353,0.0034
2478,0.0042,0.0383,0.0490,0.0033
2479,0.0080,0.0345,0.0501,0.0046
2480,0.0064,0.0336,0.0386,0.0036
2481,0.0111,0.0669,0.0650,0.0073
2482,0.0039,0.0308,0.0283,0.0225
2483,0.0047,0.0408,0.0327,0.0167
2484,0.0067,0.0300,0.0357,0.0197
2485,0.0279,0.0638,0.0779,0.0337
2486,0.0184,0.0390,0.0588,0.0274
2487,0.0125,0.0327,0.0518,0.0232
2488,0.0116,0.0442,0.0548,0.0215
2489,0.0118,0.0599,0.0646,0.0201
2490,0.0075,0.0340,0.0451,0.0046
2491,0.0034,0.0281,0.0328,0.0025
2492,0.0034,0.0281,0.0328,0.0025
2493,0.0034,0.0213,0.0266,0.0026
2494,0.0040,0.0242,0.0289,0.0024
2495,0.0041,0.0349,0.0404,0.0022
2496,0.0063,0.0141,0.0214,0.0034
2497,0.0083,0.0175,0.0224,0.0033
2498,0.0094,0.0225,0.0235,0.0034
2499,0.0091,0.0335,0.0280,0.0038
2500,0.0074,0.0241,0.0356,0.0031
2501,0.0079,0.0376,0.0604,0.0267
2502,0.0069,0.0297,0.0449,0.0039
2503,0.0053,0.0197,0.0303,0.0032
2504,0.0041,0.0230,0.0314,0.0033
2505,0.0061,0.0471,0.0567,0.0035
2506,0.0102,0.0756,0.0774,0.0065
2507,0.0065,0.0259,0.0332,0.0026
2508,0.0038,0.0281,0.0285,0.0202
2509,0.0050,0.0250,0.0204,0.0161
2510,0.0062,0.0300,0.0212,0.0088
2511,0.0065,0.0214,0.0191,0.0140
2512,0.0061,0.0331,0.0310,0.0182
2513,0.0056,0.0312,0.0469,0.0045
2514,0.0044,0.0250,0.0195,0.0112
2515,0.0040,0.0341,0.0264,0.0142
2516,0.0037,0.0340,0.0284,0.0120
2517,0.0035,0.0250,0.0243,0.0073
2518,0.0035,0.0397,0.0427,0.0066
2519,0.0083,0.0175,0.0224,0.0033
2520,0.0034,0.0222,0.0287,0.0047
2521,0.0034,0.0315,0.0378,0.0083
2522,0.0033,0.0341,0.0397,0.0117
2523,0.0034,0.0470,0.0525,0.0155
2524,0.0061,0.0412,0.0563,0.0054
2525,0.0034,0.0354,0.0394,0.0146
2526,0.0036,0.0321,0.0367,0.0139
2527,0.0036,0.0235,0.0289,0.0100
2528,0.0036,0.0328,0.0386,0.0125
2529,0.0051,0.0531,0.0588,0.0181
2530,0.0091,0.0501,0.0500,0.0117
2531,0.0094,0.0225,0.0235,0.0034
2532,0.0034,0.0281,0.0328,0.0025
2533,0.0034,0.0213,0.0266,0.0026
2534,0.0035,0.0386,0.0442,0.0028
2535,0.0077,0.0588,0.0695,0.0062
2536,0.0034,0.0281,0.0328,0.0025
2537,0.0034,0.0213,0.0266,0.0026
2538,0.0034,0.0281,0.0328,0.0025
2539,0.0034,0.0281,0.0328,0.0025
2540,0.0035,0.0386,0.0442,0.0028
2541,0.0034,0.0281,0.0328,0.0025
2542,0.0034,0.0281,0.0328,0.0025
2543,0.0091,0.0335,0.0280,0.0038
2544,0.0034,0.0281,0.0328,0.0025
2545,0.0035,0.0386,0.0442,0.0028
2546,0.0088,0.0668,0.0724,0.0065
2547,0.0034,0.0213,0.0266,0.0026
2548,0.0034,0.0281,0.0328,0.0025
2549,0.0034,0.0281,0.0328,0.0025
2550,0.0034,0.0213,0.0266,0.0026
2551,0.0035,0.0386,0.0442,0.0028
2552,0.0034,0.0281,0.0328,0.0025
2553,0.0034,0.0213,0.0266,0.0026
2554,0.0034,0.0281,0.0328,0.0025
2555,0.0074,0.0224,0.0258,0.0035
2556,0.0035,0.0386,0.0442,0.0028
2557,0.0088,0.0751,0.0778,0.0065
2558,0.0034,0.0281,0.0328,0.0025
2559,0.0034,0.0281,0.0328,0.0025
2560,0.0034,0.0213,0.0266,0.0026
2561,0.0034,0.0281,0.0328,0.0025
2562,0.0035,0.0386,0.0442,0.0028
2563,0.0034,0.0213,0.0266,0.0026
2564,0.0034,0.0281,0.0328,0.0025
2565,0.0034,0.0281,0.0328,0.0025
2566,0.0034,0.0213,0.0266,0.0026
2567,0.0053,0.0269,0.0425,0.0028
2568,0.0084,0.0414,0.0494,0.0044
2569,0.0034,0.0281,0.0328,0.0025
2570,0.0034,0.0213,0.0266,0.0026
2571,0.0034,0.0281,0.0328,0.0025
2572,0.0034,0.0281,0.0328,0.0025
2573,0.0035,0.0386,0.0442,0.0028
2574,0.0133,0.0383,0.0600,0.0105
2575,0.0107,0.0292,0.0493,0.0104
2576,0.0088,0.0271,0.0407,0.0097
2577,0.0071,0.0226,0.0355,0.0095
2578,0.0074,0.0241,0.0356,0.0031
2579,0.0078,0.0721,0.0743,0.0061
2580,0.0041,0.0230,0.0314,0.0033
2581,0.0051,0.0182,0.0293,0.0076
2582,0.0046,0.0166,0.0280,0.0065
2583,0.0042,0.0165,0.0269,0.0047
2584,0.0039,0.0287,0.0388,0.0048
2585,0.0036,0.0252,0.0318,0.0033
2586,0.0039,0.0172,0.0235,0.0028
2587,0.0064,0.0160,0.0227,0.0029
2588,0.0083,0.0175,0.0224,0.0033
2589,0.0093,0.0248,0.0314,0.0032
2590,0.0066,0.0635,0.0668,0.0054
2591,0.0090,0.0246,0.0243,0.0035
2592,0.0061,0.0471,0.0567,0.0035
2593,0.0074,0.0304,0.0262,0.0039
2594,0.0053,0.0197,0.0303,0.0032
2595,0.0041,0.0390,0.0540,0.0027
2596,0.0060,0.0368,0.0447,0.0031
2597,0.0102,0.0756,0.0774,0.0065
2598,0.0038,0.0281,0.0285,0.0202
2599,0.0048,0.0331,0.0195,0.0099
2600,0.0068,0.0256,0.0293,0.0197
2601,0.0065,0.0478,0.0558,0.0046
2602,0.0300,0.0653,0.0787,0.0254
2603,0.0199,0.0388,0.0574,0.0221
2604,0.0119,0.0307,0.0485,0.0224
2605,0.0103,0.0397,0.0500,0.0273
2606,0.0108,0.0521,0.0554,0.0280
2607,0.0035,0.0317,0.0397,0.0024
2608,0.0035,0.0317,0.0397,0.0024
2609,0.0034,0.0256,0.0336,0.0026
2610,0.0042,0.0262,0.0336,0.0024
2611,0.0043,0.0362,0.0445,0.0022
2612,0.0064,0.0341,0.0571,0.0042
2613,0.0065,0.0315,0.0563,0.0204
2614,0.0084,0.0414,0.0494,0.0044
2615,0.0065,0.0144,0.0235,0.0033
2616,0.0084,0.0145,0.0236,0.0031
2617,0.0096,0.0167,0.0223,0.0032
2618,0.0092,0.0276,0.0247,0.0036
2619,0.0075,0.0223,0.0384,0.0030
2620,0.0054,0.0193,0.0340,0.0031
2621,0.0041,0.0252,0.0368,0.0033
2622,0.0060,0.0508,0.0624,0.0033
2623,0.0101,0.0795,0.0842,0.0062
2624,0.0067,0.0281,0.0371,0.0026
2625,0.0129,0.0367,0.0454,0.0055
2626,0.0038,0.0295,0.0325,0.0240
2627,0.0050,0.0239,0.0217,0.0193
2628,0.0063,0.0278,0.0187,0.0121
2629,0.0066,0.0231,0.0207,0.0170
2630,0.0062,0.0362,0.0342,0.0207
2631,0.0046,0.0277,0.0224,0.0136
2632,0.0041,0.0364,0.0307,0.0157
2633,0.0037,0.0369,0.0338,0.0133
2634,0.0035,0.0279,0.0295,0.0082
2635,0.0036,0.0428,0.0484,0.0069
2636,0.0065,0.0517,0.0481,0.0454
2637,0.0084,0.0145,0.0236,0.0031
2638,0.0034,0.0271,0.0362,0.0052
2639,0.0033,0.0344,0.0441,0.0094
2640,0.0033,0.0367,0.0459,0.0132
2641,0.0034,0.0489,0.0576,0.0175
2642,0.0035,0.0376,0.0449,0.0171
2643,0.0037,0.0355,0.0430,0.0169
2644,0.0036,0.0266,0.0352,0.0134
2645,0.0034,0.0347,0.0438,0.0156
2646,0.0047,0.0553,0.0639,0.0213
2647,0.0077,0.0571,0.0584,0.0413
2648,0.0089,0.0548,0.0573,0.0157
2649,0.0096,0.0167,0.0223,0.0032
2650,0.0035,0.0317,0.0397,0.0024
2651,0.0034,0.0256,0.0336,0.0026
2652,0.0035,0.0413,0.0502,0.0027
2653,0.0035,0.0317,0.0397,0.0024
2654,0.0034,0.0256,0.0336,0.0026
2655,0.0035,0.0317,0.0397,0.0024
2656,0.0035,0.0317,0.0397,0.0024
2657,0.0035,0.0413,0.0502,0.0027
2658,0.0091,0.0475,0.0594,0.0344
2659,0.0035,0.0317,0.0397,0.0024
2660,0.0035,0.0317,0.0397,0.0024
2661,0.0092,0.0276,0.0247,0.0036
2662,0.0035,0.0317,0.0397,0.0024
2663,0.0035,0.0413,0.0502,0.0027
2664,0.0034,0.0256,0.0336,0.0026
2665,0.0035,0.0317,0.0397,0.0024
2666,0.0035,0.0317,0.0397,0.0024
2667,0.0034,0.0256,0.0336,0.0026
2668,0.0035,0.0413,0.0502,0.0027
2669,0.0240,0.0465,0.0639,0.0450
2670,0.0035,0.0317,0.0397,0.0024
2671,0.0034,0.0256,0.0336,0.0026
2672,0.0035,0.0317,0.0397,0.0024
2673,0.0075,0.0175,0.0272,0.0033
2674,0.0035,0.0413,0.0502,0.0027
2675,0.0035,0.0317,0.0397,0.0024
2676,0.0035,0.0317,0.0397,0.0024
2677,0.0034,0.0256,0.0336,0.0026
2678,0.0035,0.0317,0.0397,0.0024
2679,0.0035,0.0413,0.0502,0.0027
2680,0.0195,0.0375,0.0543,0.0374
2681,0.0034,0.0256,0.0336,0.0026
2682,0.0035,0.0317,0.0397,0.0024
2683,0.0035,0.0317,0.0397,0.0024
2684,0.0034,0.0256,0.0336,0.0026
2685,0.0053,0.0282,0.0466,0.0028
2686,0.0035,0.0317,0.0397,0.0024
2687,0.0034,0.0256,0.0336,0.0026
2688,0.0035,0.0317,0.0397,0.0024
2689,0.0035,0.0317,0.0397,0.0024
2690,0.0035,0.0413,0.0502,0.0027
2691,0.0168,0.0492,0.0606,0.0329
2692,0.0132,0.0409,0.0685,0.0107
2693,0.0107,0.0317,0.0575,0.0105
2694,0.0088,0.0282,0.0477,0.0096
2695,0.0071,0.0237,0.0429,0.0093
2696,0.0075,0.0223,0.0384,0.0030
2697,0.0041,0.0252,0.0368,0.0033
2698,0.0051,0.0188,0.0355,0.0073
2699,0.0046,0.0170,0.0335,0.0062
2700,0.0042,0.0175,0.0319,0.0045
2701,0.0039,0.0306,0.0446,0.0045
2702,0.0151,0.0684,0.0773,0.0307
2703,0.0036,0.0280,0.0382,0.0031
2704,0.0041,0.0193,0.0275,0.0028
2705,0.0066,0.0180,0.0267,0.0029
2706,0.0084,0.0145,0.0236,0.0031
2707,0.0095,0.0214,0.0320,0.0030
2708,0.0092,0.0189,0.0235,0.0033
2709,0.0060,0.0508,0.0624,0.0033
2710,0.0075,0.0244,0.0248,0.0037
2711,0.0054,0.0193,0.0340,0.0031
2712,0.0041,0.0427,0.0596,0.0027
2713,0.0140,0.0847,0.0953,0.0314
2714,0.0059,0.0407,0.0505,0.0031
2715,0.0101,0.0795,0.0842,0.0062
2716,0.0038,0.0295,0.0325,0.0240
2717,0.0049,0.0312,0.0187,0.0135
2718,0.0068,0.0261,0.0306,0.0224
2719,0.0309,0.0668,0.0796,0.0239
2720,0.0206,0.0394,0.0572,0.0223
2721,0.0121,0.0298,0.0474,0.0240
2722,0.0095,0.0378,0.0487,0.0307
2723,0.0104,0.0496,0.0530,0.0327
2724,0.0059,0.0309,0.0550,0.0154
2725,0.0062,0.0225,0.0240,0.0036
2726,0.0062,0.0225,0.0240,0.0036
2727,0.0062,0.0225,0.0240,0.0036
2728,0.0056,0.0223,0.0257,0.0042
2729,0.0057,0.0300,0.0298,0.0043
2730,0.0065,0.0278,0.0323,0.0051
2731,0.0082,0.0405,0.0416,0.0056
2732,0.0093,0.0495,0.0468,0.0058
2733,0.0092,0.0530,0.0479,0.0058
2734,0.0081,0.0450,0.0419,0.0055
2735,0.0058,0.0314,0.0552,0.0114
2736,0.0067,0.0426,0.0387,0.0049
2737,0.0061,0.0335,0.0331,0.0041
2738,0.0078,0.0282,0.0313,0.0037
2739,0.0117,0.0395,0.0394,0.0052
2740,0.0066,0.0312,0.0331,0.0052
2741,0.0065,0.0375,0.0283,0.0215
2742,0.0077,0.0416,0.0351,0.0200
2743,0.0087,0.0381,0.0376,0.0171
2744,0.0085,0.0295,0.0355,0.0135
2745,0.0079,0.0277,0.0339,0.0109
2746,0.0059,0.0316,0.0550,0.0080
2747,0.0064,0.0226,0.0269,0.0073
2748,0.0058,0.0244,0.0250,0.0061
2749,0.0057,0.0248,0.0242,0.0054
2750,0.0058,0.0238,0.0239,0.0045
2751,0.0061,0.0319,0.0289,0.0046
2752,0.0082,0.0405,0.0416,0.0056
2753,0.0063,0.0222,0.0238,0.0045
2754,0.0063,0.0224,0.0240,0.0059
2755,0.0063,0.0231,0.0245,0.0074
2756,0.0063,0.0318,0.0315,0.0088
2757,0.0063,0.0378,0.0554,0.0058
2758,0.0058,0.0232,0.0250,0.0108
2759,0.0056,0.0247,0.0268,0.0141
2760,0.0055,0.0291,0.0283,0.0186
2761,0.0058,0.0334,0.0287,0.0227
2762,0.0072,0.0337,0.0341,0.0223
2763,0.0105,0.0358,0.0321,0.0261
2764,0.0093,0.0495,0.0468,0.0058
2765,0.0062,0.0225,0.0240,0.0036
2766,0.0062,0.0225,0.0240,0.0036
2767,0.0063,0.0306,0.0289,0.0039
2768,0.0074,0.0652,0.0823,0.0065
2769,0.0062,0.0225,0.0240,0.0036
2770,0.0062,0.0225,0.0240,0.0036
2771,0.0062,0.0225,0.0240,0.0036
2772,0.0062,0.0225,0.0240,0.0036
2773,0.0063,0.0306,0.0289,0.0039
2774,0.0062,0.0225,0.0240,0.0036
2775,0.0062,0.0225,0.0240,0.0036
2776,0.0092,0.0530,0.0479,0.0058
2777,0.0062,0.0225,0.0240,0.0036
2778,0.0063,0.0306,0.0289,0.0039
2779,0.0067,0.0337,0.0558,0.0045
2780,0.0062,0.0225,0.0240,0.0036
2781,0.0062,0.0225,0.0240,0.0036
2782,0.0062,0.0225,0.0240,0.0036
2783,0.0062,0.0225,0.0240,0.0036
2784,0.0063,0.0306,0.0289,0.0039
2785,0.0062,0.0225,0.0240,0.0036
2786,0.0062,0.0225,0.0240,0.0036
2787,0.0062,0.0225,0.0240,0.0036
2788,0.0081,0.0505,0.0445,0.0055
2789,0.0063,0.0306,0.0289,0.0039
2790,0.0069,0.0323,0.0532,0.0068
2791,0.0062,0.0225,0.0240,0.0036
2792,0.0062,0.0225,0.0240,0.0036
2793,0.0062,0.0225,0.0240,0.0036
2794,0.0062,0.0225,0.0240,0.0036
2795,0.0063,0.0306,0.0289,0.0039
2796,0.0062,0.0225,0.0240,0.0036
2797,0.0062,0.0225,0.0240,0.0036
2798,0.0062,0.0225,0.0240,0.0036
2799,0.0062,0.0225,0.0240,0.0036
2800,0.0068,0.0370,0.0379,0.0049
2801,0.0071,0.0320,0.0524,0.0099
2802,0.0062,0.0225,0.0240,0.0036
2803,0.0062,0.0225,0.0240,0.0036
2804,0.0062,0.0225,0.0240,0.0036
2805,0.0062,0.0225,0.0240,0.0036
2806,0.0063,0.0306,0.0289,0.0039
2807,0.0153,0.0273,0.0346,0.0078
2808,0.0135,0.0278,0.0315,0.0077
2809,0.0121,0.0300,0.0313,0.0074
2810,0.0109,0.0323,0.0322,0.0069
2811,0.0081,0.0450,0.0419,0.0055
2812,0.0074,0.0372,0.0511,0.0138
2813,0.0061,0.0335,0.0331,0.0041
2814,0.0092,0.0298,0.0315,0.0056
2815,0.0085,0.0264,0.0294,0.0050
2816,0.0079,0.0234,0.0272,0.0044
2817,0.0075,0.0272,0.0262,0.0044
2818,0.0068,0.0220,0.0242,0.0036
2819,0.0056,0.0223,0.0257,0.0042
2820,0.0065,0.0278,0.0323,0.0051
2821,0.0082,0.0405,0.0416,0.0056
2822,0.0093,0.0467,0.0445,0.0059
2823,0.0057,0.0354,0.0585,0.0046
2824,0.0072,0.0340,0.0525,0.0196
2825,0.0092,0.0530,0.0479,0.0058
2826,0.0078,0.0282,0.0313,0.0037
2827,0.0081,0.0505,0.0445,0.0055
2828,0.0067,0.0426,0.0387,0.0049
2829,0.0063,0.0297,0.0355,0.0041
2830,0.0078,0.0282,0.0313,0.0037
2831,0.0117,0.0395,0.0394,0.0052
2832,0.0065,0.0375,0.0283,0.0215
2833,0.0077,0.0416,0.0351,0.0200
2834,0.0091,0.0339,0.0383,0.0172
2835,0.0068,0.0382,0.0572,0.0269
2836,0.0246,0.0473,0.0636,0.0252
2837,0.0190,0.0351,0.0521,0.0191
2838,0.0161,0.0402,0.0512,0.0152
2839,0.0143,0.0571,0.0625,0.0133
2840,0.0131,0.0723,0.0778,0.0136
2841,0.0062,0.0237,0.0262,0.0035
2842,0.0062,0.0237,0.0262,0.0035
2843,0.0062,0.0237,0.0262,0.0035
2844,0.0057,0.0208,0.0235,0.0040
2845,0.0058,0.0304,0.0312,0.0042
2846,0.0065,0.0470,0.0628,0.0356
2847,0.0069,0.0179,0.0212,0.0047
2848,0.0085,0.0220,0.0230,0.0050
2849,0.0095,0.0280,0.0255,0.0051
2850,0.0095,0.0317,0.0265,0.0051
2851,0.0083,0.0259,0.0273,0.0051
2852,0.0068,0.0253,0.0246,0.0044
2853,0.0061,0.0220,0.0274,0.0038
2854,0.0076,0.0279,0.0366,0.0034
2855,0.0112,0.0475,0.0521,0.0046
2856,0.0070,0.0256,0.0271,0.0049
2857,0.0068,0.0535,0.0648,0.0444
2858,0.0065,0.0273,0.0221,0.0105
2859,0.0077,0.0282,0.0203,0.0087
2860,0.0089,0.0242,0.0211,0.0078
2861,0.0087,0.0182,0.0202,0.0075
2862,0.0081,0.0265,0.0277,0.0106
2863,0.0065,0.0236,0.0210,0.0082
2864,0.0058,0.0269,0.0224,0.0083
2865,0.0057,0.0281,0.0237,0.0072
2866,0.0058,0.0267,0.0244,0.0055
2867,0.0061,0.0344,0.0332,0.0049
2868,0.0087,0.0510,0.0592,0.0496
2869,0.0085,0.0220,0.0230,0.0050
2870,0.0063,0.0236,0.0278,0.0053
2871,0.0062,0.0240,0.0290,0.0079
2872,0.0061,0.0247,0.0300,0.0102
2873,0.0061,0.0336,0.0385,0.0124
2874,0.0057,0.0236,0.0290,0.0134
2875,0.0056,0.0219,0.0270,0.0148
2876,0.0055,0.0229,0.0264,0.0169
2877,0.0056,0.0258,0.0269,0.0188
2878,0.0068,0.0318,0.0397,0.0171
2879,0.0120,0.0505,0.0548,0.0577
2880,0.0099,0.0376,0.0412,0.0193
2881,0.0095,0.0280,0.0255,0.0051
2882,0.0062,0.0237,0.0262,0.0035
2883,0.0062,0.0237,0.0262,0.0035
2884,0.0062,0.0330,0.0341,0.0038
2885,0.0062,0.0237,0.0262,0.0035
2886,0.0062,0.0237,0.0262,0.0035
2887,0.0062,0.0237,0.0262,0.0035
2888,0.0062,0.0237,0.0262,0.0035
2889,0.0062,0.0330,0.0341,0.0038
2890,0.0086,0.0791,0.0906,0.0069
2891,0.0062,0.0237,0.0262,0.0035
2892,0.0062,0.0237,0.0262,0.0035
2893,0.0095,0.0317,0.0265,0.0051
2894,0.0062,0.0237,0.0262,0.0035
2895,0.0062,0.0330,0.0341,0.0038
2896,0.0062,0.0237,0.0262,0.0035
2897,0.0062,0.0237,0.0262,0.0035
2898,0.0062,0.0237,0.0262,0.0035
2899,0.0062,0.0237,0.0262,0.0035
2900,0.0062,0.0330,0.0341,0.0038
2901,0.0064,0.0341,0.0571,0.0042
2902,0.0062,0.0237,0.0262,0.0035
2903,0.0062,0.0237,0.0262,0.0035
2904,0.0062,0.0237,0.0262,0.0035
2905,0.0083,0.0302,0.0253,0.0048
2906,0.0062,0.0330,0.0341,0.0038
2907,0.0062,0.0237,0.0262,0.0035
2908,0.0062,0.0237,0.0262,0.0035
2909,0.0062,0.0237,0.0262,0.0035
2910,0.0062,0.0237,0.0262,0.0035
2911,0.0062,0.0330,0.0341,0.0038
2912,0.0064,0.0341,0.0571,0.0042
2913,0.0062,0.0237,0.0262,0.0035
2914,0.0062,0.0237,0.0262,0.0035
2915,0.0062,0.0237,0.0262,0.0035
2916,0.0062,0.0237,0.0262,0.0035
2917,0.0068,0.0214,0.0294,0.0046
2918,0.0062,0.0237,0.0262,0.0035
2919,0.0062,0.0237,0.0262,0.0035
2920,0.0062,0.0237,0.0262,0.0035
2921,0.0062,0.0237,0.0262,0.0035
2922,0.0062,0.0330,0.0341,0.0038
2923,0.0065,0.0378,0.0556,0.0044
2924,0.0152,0.0292,0.0491,0.0082
2925,0.0134,0.0259,0.0413,0.0079
2926,0.0120,0.0256,0.0362,0.0074
2927,0.0109,0.0256,0.0326,0.0068
2928,0.0083,0.0259,0.0273,0.0051
2929,0.0061,0.0220,0.0274,0.0038
2930,0.0092,0.0221,0.0277,0.0054
2931,0.0085,0.0194,0.0259,0.0047
2932,0.0079,0.0176,0.0243,0.0041
2933,0.0074,0.0261,0.0287,0.0041
2934,0.0058,0.0387,0.0569,0.0047
2935,0.0064,0.0341,0.0571,0.0042
2936,0.0068,0.0218,0.0255,0.0035
2937,0.0057,0.0208,0.0235,0.0040
2938,0.0069,0.0179,0.0212,0.0047
2939,0.0085,0.0220,0.0230,0.0050
2940,0.0096,0.0277,0.0273,0.0054
2941,0.0095,0.0317,0.0265,0.0051
2942,0.0076,0.0279,0.0366,0.0034
2943,0.0083,0.0302,0.0253,0.0048
2944,0.0068,0.0253,0.0246,0.0044
2945,0.0062,0.0223,0.0355,0.0039
2946,0.0064,0.0341,0.0571,0.0042
2947,0.0076,0.0279,0.0366,0.0034
2948,0.0112,0.0475,0.0521,0.0046
2949,0.0065,0.0273,0.0221,0.0105
2950,0.0077,0.0282,0.0203,0.0087
2951,0.0093,0.0218,0.0267,0.0110
2952,0.0258,0.0488,0.0646,0.0121
2953,0.0187,0.0339,0.0512,0.0115
2954,0.0155,0.0349,0.0483,0.0152
2955,0.0136,0.0489,0.0543,0.0155
2956,0.0124,0.0612,0.0661,0.0141
2957,0.0064,0.0341,0.0571,0.0042
2958,0.0061,0.0270,0.0328,0.0035
2959,0.0061,0.0270,0.0328,0.0035
2960,0.0061,0.0270,0.0328,0.0035
2961,0.0058,0.0232,0.0285,0.0039
2962,0.0059,0.0325,0.0361,0.0041
2963,0.0070,0.0172,0.0235,0.0045
2964,0.0086,0.0160,0.0219,0.0048
2965,0.0097,0.0194,0.0220,0.0049
2966,0.0096,0.0232,0.0227,0.0049
2967,0.0084,0.0189,0.0281,0.0049
2968,0.0064,0.0341,0.0571,0.0042
2969,0.0068,0.0207,0.0263,0.0042
2970,0.0061,0.0217,0.0326,0.0037
2971,0.0075,0.0317,0.0433,0.0033
2972,0.0111,0.0506,0.0589,0.0043
2973,0.0071,0.0261,0.0303,0.0048
2974,0.0064,0.0255,0.0256,0.0139
2975,0.0078,0.0235,0.0198,0.0111
2976,0.0090,0.0191,0.0191,0.0101
2977,0.0088,0.0171,0.0200,0.0103
2978,0.0082,0.0290,0.0301,0.0132
2979,0.0065,0.0378,0.0556,0.0044
2980,0.0066,0.0267,0.0243,0.0108
2981,0.0059,0.0307,0.0272,0.0104
2982,0.0057,0.0316,0.0290,0.0088
2983,0.0058,0.0299,0.0300,0.0065
2984,0.0061,0.0376,0.0392,0.0052
2985,0.0086,0.0160,0.0219,0.0048
2986,0.0063,0.0275,0.0350,0.0057
2987,0.0062,0.0273,0.0359,0.0088
2988,0.0061,0.0277,0.0367,0.0116
2989,0.0060,0.0367,0.0450,0.0144
2990,0.0064,0.0341,0.0571,0.0042
2991,0.0057,0.0263,0.0351,0.0154
2992,0.0056,0.0238,0.0328,0.0166
2993,0.0055,0.0238,0.0324,0.0184
2994,0.0055,0.0260,0.0330,0.0199
2995,0.0066,0.0340,0.0462,0.0189
2996,0.0097,0.0417,0.0489,0.0209
2997,0.0097,0.0194,0.0220,0.0049
2998,0.0061,0.0270,0.0328,0.0035
2999,0.0061,0.0270,0.0328,0.0035
3000,0.0062,0.0359,0.0404,0.0038
3001,0.0064,0.0341,0.0571,0.0042
3002,0.0061,0.0270,0.0328,0.0035
3003,0.0061,0.0270,0.0328,0.0035
3004,0.0061,0.0270,0.0328,0.0035
3005,0.0061,0.0270,0.0328,0.0035
3006,0.0062,0.0359,0.0404,0.0038
3007,0.0061,0.0270,0.0328,0.0035
3008,0.0061,0.0270,0.0328,0.0035
3009,0.0096,0.0232,0.0227,0.0049
3010,0.0061,0.0270,0.0328,0.0035
3011,0.0062,0.0359,0.0404,0.0038
3012,0.0086,0.0847,0.0930,0.0069
3013,0.0061,0.0270,0.0328,0.0035
3014,0.0061,0.0270,0.0328,0.0035
3015,0.0061,0.0270,0.0328,0.0035
3016,0.0061,0.0270,0.0328,0.0035
3017,0.0062,0.0359,0.0404,0.0038
3018,0.0061,0.0270,0.0328,0.0035
3019,0.0061,0.0270,0.0328,0.0035
3020,0.0061,0.0270,0.0328,0.0035
3021,0.0083,0.0219,0.0237,0.0046
3022,0.0062,0.0359,0.0404,0.0038
3023,0.0064,0.0341,0.0571,0.0042
3024,0.0061,0.0270,0.0328,0.0035
3025,0.0061,0.0270,0.0328,0.0035
3026,0.0061,0.0270,0.0328,0.0035
3027,0.0061,0.0270,0.0328,0.0035
3028,0.0062,0.0359,0.0404,0.0038
3029,0.0061,0.0270,0.0328,0.0035
3030,0.0061,0.0270,0.0328,0.0035
3031,0.0061,0.0270,0.0328,0.0035
3032,0.0061,0.0270,0.0328,0.0035
3033,0.0069,0.0184,0.0325,0.0044
3034,0.0065,0.0378,0.0556,0.0044
3035,0.0061,0.0270,0.0328,0.0035
3036,0.0061,0.0270,0.0328,0.0035
3037,0.0061,0.0270,0.0328,0.0035
3038,0.0061,0.0270,0.0328,0.0035
3039,0.0062,0.0359,0.0404,0.0038
3040,0.0152,0.0304,0.0569,0.0083
3041,0.0134,0.0262,0.0483,0.0079
3042,0.0120,0.0247,0.0421,0.0073
3043,0.0109,0.0239,0.0375,0.0067
3044,0.0084,0.0189,0.0281,0.0049
3045,0.0060,0.0458,0.0678,0.0055
3046,0.0064,0.0341,0.0571,0.0042
3047,0.0061,0.0217,0.0326,0.0037
3048,0.0092,0.0199,0.0315,0.0053
3049,0.0085,0.0175,0.0292,0.0046
3050,0.0079,0.0172,0.0289,0.0041
3051,0.0074,0.0274,0.0344,0.0041
3052,0.0068,0.0241,0.0312,0.0035
3053,0.0058,0.0232,0.0285,0.0039
3054,0.0070,0.0172,0.0235,0.0045
3055,0.0086,0.0160,0.0219,0.0048
3056,0.0097,0.0211,0.0261,0.0053
3057,0.0064,0.0341,0.0571,0.0042
3058,0.0096,0.0232,0.0227,0.0049
3059,0.0075,0.0317,0.0433,0.0033
3060,0.0083,0.0219,0.0237,0.0046
3061,0.0068,0.0207,0.0263,0.0042
3062,0.0062,0.0239,0.0411,0.0038
3063,0.0075,0.0317,0.0433,0.0033
3064,0.0111,0.0506,0.0589,0.0043
3065,0.0064,0.0255,0.0256,0.0139
3066,0.0078,0.0235,0.0198,0.0111
3067,0.0094,0.0187,0.0268,0.0135
3068,0.0064,0.0341,0.0571,0.0042
3069,0.0263,0.0501,0.0657,0.0087
3070,0.0188,0.0336,0.0509,0.0118
3071,0.0152,0.0332,0.0481,0.0189
3072,0.0134,0.0448,0.0519,0.0205
3073,0.0121,0.0571,0.0621,0.0186
3074,0.0042,0.0274,0.0484,0.0031
3075,0.0042,0.0274,0.0484,0.0031
3076,0.0042,0.0272,0.0517,0.0033
3077,0.0040,0.0280,0.0489,0.0033
3078,0.0041,0.0342,0.0512,0.0032
3079,0.0064,0.0341,0.0571,0.0042
3080,0.0047,0.0402,0.0622,0.0045
3081,0.0065,0.0544,0.0705,0.0049
3082,0.0076,0.0672,0.0781,0.0052
3083,0.0074,0.0805,0.0872,0.0058
3084,0.0062,0.0636,0.0741,0.0044
3085,0.0048,0.0594,0.0700,0.0043
3086,0.0052,0.0564,0.0677,0.0042
3087,0.0091,0.0448,0.0631,0.0044
3088,0.0149,0.0498,0.0705,0.0051
3089,0.0050,0.0382,0.0568,0.0037
3090,0.0065,0.0378,0.0556,0.0044
3091,0.0046,0.0457,0.0501,0.0545
3092,0.0055,0.0501,0.0584,0.0489
3093,0.0062,0.0547,0.0669,0.0430
3094,0.0065,0.0381,0.0585,0.0336
3095,0.0061,0.0352,0.0530,0.0255
3096,0.0044,0.0272,0.0509,0.0190
3097,0.0042,0.0291,0.0460,0.0140
3098,0.0040,0.0281,0.0463,0.0103
3099,0.0040,0.0247,0.0496,0.0069
3100,0.0042,0.0342,0.0503,0.0047
3101,0.0064,0.0341,0.0571,0.0042
3102,0.0065,0.0544,0.0705,0.0049
3103,0.0044,0.0271,0.0506,0.0040
3104,0.0049,0.0270,0.0454,0.0068
3105,0.0052,0.0278,0.0449,0.0097
3106,0.0058,0.0381,0.0487,0.0141
3107,0.0058,0.0314,0.0451,0.0172
3108,0.0056,0.0330,0.0487,0.0230
3109,0.0050,0.0413,0.0579,0.0312
3110,0.0058,0.0435,0.0561,0.0385
3111,0.0081,0.0499,0.0583,0.0455
3112,0.0064,0.0341,0.0571,0.0042
3113,0.0117,0.0459,0.0527,0.0533
3114,0.0076,0.0672,0.0781,0.0052
3115,0.0042,0.0274,0.0484,0.0031
3116,0.0042,0.0272,0.0517,0.0033
3117,0.0043,0.0337,0.0507,0.0032
3118,0.0042,0.0274,0.0484,0.0031
3119,0.0042,0.0272,0.0517,0.0033
3120,0.0042,0.0274,0.0484,0.0031
3121,0.0042,0.0274,0.0484,0.0031
3122,0.0043,0.0337,0.0507,0.0032
3123,0.0064,0.0341,0.0571,0.0042
3124,0.0042,0.0274,0.0484,0.0031
3125,0.0042,0.0274,0.0484,0.0031
3126,0.0074,0.0805,0.0872,0.0058
3127,0.0042,0.0274,0.0484,0.0031
3128,0.0043,0.0337,0.0507,0.0032
3129,0.0042,0.0272,0.0517,0.0033
3130,0.0042,0.0274,0.0484,0.0031
3131,0.0042,0.0274,0.0484,0.0031
3132,0.0042,0.0272,0.0517,0.0033
3133,0.0043,0.0337,0.0507,0.0032
3134,0.0076,0.0821,0.0893,0.0064
3135,0.0042,0.0274,0.0484,0.0031
3136,0.0042,0.0272,0.0517,0.0033
3137,0.0042,0.0274,0.0484,0.0031
3138,0.0061,0.0681,0.0761,0.0047
3139,0.0043,0.0337,0.0507,0.0032
3140,0.0042,0.0274,0.0484,0.0031
3141,0.0042,0.0274,0.0484,0.0031
3142,0.0042,0.0272,0.0517,0.0033
3143,0.0042,0.0274,0.0484,0.0031
3144,0.0043,0.0337,0.0507,0.0032
3145,0.0065,0.0378,0.0556,0.0044
3146,0.0042,0.0272,0.0517,0.0033
3147,0.0042,0.0274,0.0484,0.0031
3148,0.0042,0.0274,0.0484,0.0031
3149,0.0042,0.0272,0.0517,0.0033
3150,0.0049,0.0564,0.0698,0.0041
3151,0.0042,0.0274,0.0484,0.0031
3152,0.0042,0.0272,0.0517,0.0033
3153,0.0042,0.0274,0.0484,0.0031
3154,0.0042,0.0274,0.0484,0.0031
3155,0.0043,0.0337,0.0507,0.0032
3156,0.0074,0.0652,0.0823,0.0065
3157,0.0064,0.0341,0.0571,0.0042
3158,0.0115,0.0336,0.0540,0.0052
3159,0.0096,0.0392,0.0558,0.0054
3160,0.0083,0.0474,0.0620,0.0054
3161,0.0071,0.0455,0.0602,0.0053
3162,0.0062,0.0636,0.0741,0.0044
3163,0.0052,0.0564,0.0677,0.0042
3164,0.0058,0.0431,0.0602,0.0047
3165,0.0053,0.0370,0.0573,0.0043
3166,0.0049,0.0367,0.0596,0.0035
3167,0.0047,0.0317,0.0523,0.0037
3168,0.0064,0.0341,0.0571,0.0042
3169,0.0044,0.0272,0.0495,0.0031
3170,0.0039,0.0286,0.0530,0.0038
3171,0.0049,0.0360,0.0566,0.0040
3172,0.0065,0.0544,0.0705,0.0049
3173,0.0076,0.0635,0.0755,0.0048
3174,0.0074,0.0718,0.0800,0.0052
3175,0.0091,0.0448,0.0631,0.0044
3176,0.0061,0.0771,0.0831,0.0053
3177,0.0048,0.0594,0.0700,0.0043
3178,0.0058,0.0504,0.0669,0.0041
3179,0.0064,0.0341,0.0571,0.0042
3180,0.0087,0.0462,0.0621,0.0043
3181,0.0149,0.0498,0.0705,0.0051
3182,0.0046,0.0457,0.0501,0.0545
3183,0.0052,0.0594,0.0634,0.0502
3184,0.0071,0.0441,0.0611,0.0413
3185,0.0187,0.0454,0.0681,0.0534
3186,0.0164,0.0430,0.0567,0.0471
3187,0.0152,0.0595,0.0639,0.0433
3188,0.0149,0.0808,0.0833,0.0420
3189,0.0145,0.0956,0.1002,0.0414
3190,0.0064,0.0341,0.0571,0.0042
3191,0.0041,0.0238,0.0364,0.0029
3192,0.0041,0.0238,0.0364,0.0029
3193,0.0041,0.0225,0.0391,0.0031
3194,0.0038,0.0247,0.0383,0.0031
3195,0.0040,0.0322,0.0425,0.0030
3196,0.0049,0.0357,0.0510,0.0044
3197,0.0068,0.0483,0.0582,0.0047
3198,0.0079,0.0599,0.0647,0.0049
3199,0.0076,0.0718,0.0726,0.0053
3200,0.0063,0.0543,0.0610,0.0041
3201,0.0065,0.0378,0.0556,0.0044
3202,0.0048,0.0499,0.0561,0.0040
3203,0.0049,0.0469,0.0534,0.0038
3204,0.0082,0.0382,0.0507,0.0045
3205,0.0137,0.0479,0.0581,0.0062
3206,0.0051,0.0346,0.0472,0.0035
3207,0.0046,0.0396,0.0411,0.0428
3208,0.0054,0.0442,0.0482,0.0384
3209,0.0061,0.0495,0.0561,0.0337
3210,0.0065,0.0342,0.0490,0.0264
3211,0.0061,0.0330,0.0448,0.0203
3212,0.0064,0.0341,0.0571,0.0042
3213,0.0044,0.0247,0.0411,0.0142
3214,0.0042,0.0278,0.0365,0.0109
3215,0.0040,0.0268,0.0352,0.0079
3216,0.0039,0.0216,0.0381,0.0052
3217,0.0041,0.0329,0.0405,0.0043
3218,0.0068,0.0483,0.0582,0.0047
3219,0.0042,0.0223,0.0380,0.0037
3220,0.0045,0.0245,0.0350,0.0057
3221,0.0048,0.0259,0.0349,0.0078
3222,0.0051,0.0372,0.0425,0.0113
3223,0.0064,0.0341,0.0571,0.0042
3224,0.0050,0.0287,0.0364,0.0126
3225,0.0048,0.0297,0.0392,0.0169
3226,0.0044,0.0364,0.0467,0.0238
3227,0.0052,0.0377,0.0448,0.0294
3228,0.0075,0.0459,0.0511,0.0352
3229,0.0112,0.0415,0.0440,0.0412
3230,0.0079,0.0599,0.0647,0.0049
3231,0.0041,0.0238,0.0364,0.0029
3232,0.0041,0.0225,0.0391,0.0031
3233,0.0041,0.0318,0.0410,0.0030
3234,0.0064,0.0341,0.0571,0.0042
3235,0.0041,0.0238,0.0364,0.0029
3236,0.0041,0.0225,0.0391,0.0031
3237,0.0041,0.0238,0.0364,0.0029
3238,0.0041,0.0238,0.0364,0.0029
3239,0.0041,0.0318,0.0410,0.0030
3240,0.0041,0.0238,0.0364,0.0029
3241,0.0041,0.0238,0.0364,0.0029
3242,0.0076,0.0718,0.0726,0.0053
3243,0.0041,0.0238,0.0364,0.0029
3244,0.0041,0.0318,0.0410,0.0030
3245,0.0064,0.0341,0.0571,0.0042
3246,0.0041,0.0225,0.0391,0.0031
3247,0.0041,0.0238,0.0364,0.0029
3248,0.0041,0.0238,0.0364,0.0029
3249,0.0041,0.0225,0.0391,0.0031
3250,0.0041,0.0318,0.0410,0.0030
3251,0.0041,0.0238,0.0364,0.0029
3252,0.0041,0.0225,0.0391,0.0031
3253,0.0041,0.0238,0.0364,0.0029
3254,0.0063,0.0588,0.0621,0.0045
3255,0.0041,0.0318,0.0410,0.0030
3256,0.0066,0.0671,0.0774,0.0055
3257,0.0041,0.0238,0.0364,0.0029
3258,0.0041,0.0238,0.0364,0.0029
3259,0.0041,0.0225,0.0391,0.0031
3260,0.0041,0.0238,0.0364,0.0029
3261,0.0041,0.0318,0.0410,0.0030
3262,0.0041,0.0225,0.0391,0.0031
3263,0.0041,0.0238,0.0364,0.0029
3264,0.0041,0.0238,0.0364,0.0029
3265,0.0041,0.0225,0.0391,0.0031
3266,0.0049,0.0474,0.0574,0.0037
3267,0.0086,0.0791,0.0906,0.0069
3268,0.0064,0.0341,0.0571,0.0042
3269,0.0041,0.0238,0.0364,0.0029
3270,0.0041,0.0225,0.0391,0.0031
3271,0.0041,0.0238,0.0364,0.0029
3272,0.0041,0.0238,0.0364,0.0029
3273,0.0041,0.0318,0.0410,0.0030
3274,0.0114,0.0292,0.0415,0.0060
3275,0.0095,0.0341,0.0413,0.0062
3276,0.0083,0.0423,0.0477,0.0060
3277,0.0071,0.0398,0.0448,0.0059
3278,0.0063,0.0543,0.0610,0.0041
3279,0.0064,0.0341,0.0571,0.0042
3280,0.0049,0.0469,0.0534,0.0038
3281,0.0058,0.0364,0.0448,0.0051
3282,0.0053,0.0305,0.0423,0.0045
3283,0.0049,0.0316,0.0461,0.0036
3284,0.0047,0.0273,0.0398,0.0038
3285,0.0043,0.0225,0.0365,0.0030
3286,0.0037,0.0246,0.0420,0.0036
3287,0.0050,0.0317,0.0458,0.0038
3288,0.0068,0.0483,0.0582,0.0047
3289,0.0079,0.0564,0.0629,0.0046
3290,0.0064,0.0341,0.0571,0.0042
3291,0.0076,0.0629,0.0655,0.0048
3292,0.0082,0.0382,0.0507,0.0045
3293,0.0063,0.0679,0.0687,0.0051
3294,0.0048,0.0499,0.0561,0.0040
3295,0.0053,0.0425,0.0555,0.0039
3296,0.0079,0.0381,0.0483,0.0041
3297,0.0137,0.0479,0.0581,0.0062
3298,0.0046,0.0396,0.0411,0.0428
3299,0.0051,0.0539,0.0527,0.0393
3300,0.0070,0.0391,0.0517,0.0329
3301,0.0064,0.0341,0.0571,0.0042
3302,0.0184,0.0449,0.0685,0.0429
3303,0.0160,0.0396,0.0539,0.0363
3304,0.0148,0.0544,0.0568,0.0324
3305,0.0144,0.0742,0.0738,0.0311
3306,0.0141,0.0891,0.0907,0.0312
3307,0.0040,0.0214,0.0258,0.0025
3308,0.0040,0.0214,0.0258,0.0025
3309,0.0039,0.0169,0.0237,0.0028
3310,0.0039,0.0201,0.0251,0.0029
3311,0.0040,0.0302,0.0350,0.0027
3312,0.0065,0.0378,0.0556,0.0044
3313,0.0053,0.0229,0.0293,0.0041
3314,0.0074,0.0315,0.0329,0.0042
3315,0.0084,0.0401,0.0374,0.0043
3316,0.0080,0.0508,0.0439,0.0046
3317,0.0066,0.0355,0.0394,0.0037
3318,0.0049,0.0301,0.0333,0.0035
3319,0.0046,0.0298,0.0328,0.0034
3320,0.0074,0.0367,0.0463,0.0039
3321,0.0120,0.0603,0.0629,0.0068
3322,0.0056,0.0274,0.0335,0.0034
3323,0.0156,0.0334,0.0546,0.0060
3324,0.0045,0.0282,0.0285,0.0217
3325,0.0053,0.0304,0.0283,0.0190
3326,0.0062,0.0372,0.0334,0.0152
3327,0.0066,0.0232,0.0281,0.0130
3328,0.0062,0.0300,0.0334,0.0138
3329,0.0044,0.0219,0.0240,0.0065
3330,0.0041,0.0287,0.0245,0.0085
3331,0.0039,0.0278,0.0246,0.0072
3332,0.0038,0.0194,0.0228,0.0038
3333,0.0041,0.0339,0.0357,0.0044
3334,0.0137,0.0393,0.0596,0.0061
3335,0.0074,0.0315,0.0329,0.0042
3336,0.0040,0.0171,0.0244,0.0041
3337,0.0040,0.0234,0.0287,0.0062
3338,0.0041,0.0255,0.0308,0.0082
3339,0.0042,0.0378,0.0425,0.0109
3340,0.0039,0.0263,0.0306,0.0094
3341,0.0038,0.0247,0.0298,0.0096
3342,0.0037,0.0254,0.0282,0.0115
3343,0.0042,0.0280,0.0317,0.0140
3344,0.0063,0.0410,0.0476,0.0180
3345,0.0122,0.0438,0.0640,0.0062
3346,0.0103,0.0369,0.0389,0.0192
3347,0.0084,0.0401,0.0374,0.0043
3348,0.0040,0.0214,0.0258,0.0025
3349,0.0039,0.0169,0.0237,0.0028
3350,0.0041,0.0318,0.0362,0.0026
3351,0.0040,0.0214,0.0258,0.0025
3352,0.0039,0.0169,0.0237,0.0028
3353,0.0040,0.0214,0.0258,0.0025
3354,0.0040,0.0214,0.0258,0.0025
3355,0.0041,0.0318,0.0362,0.0026
3356,0.0111,0.0469,0.0674,0.0060
3357,0.0040,0.0214,0.0258,0.0025
3358,0.0040,0.0214,0.0258,0.0025
3359,0.0080,0.0508,0.0439,0.0046
3360,0.0040,0.0214,0.0258,0.0025
3361,0.0041,0.0318,0.0362,0.0026
3362,0.0039,0.0169,0.0237,0.0028
3363,0.0040,0.0214,0.0258,0.0025
3364,0.0040,0.0214,0.0258,0.0025
3365,0.0039,0.0169,0.0237,0.0028
3366,0.0041,0.0318,0.0362,0.0026
3367,0.0077,0.0755,0.0840,0.0062
3368,0.0040,0.0214,0.0258,0.0025
3369,0.0039,0.0169,0.0237,0.0028
3370,0.0040,0.0214,0.0258,0.0025
3371,0.0066,0.0383,0.0353,0.0040
3372,0.0041,0.0318,0.0362,0.0026
3373,0.0040,0.0214,0.0258,0.0025
3374,0.0040,0.0214,0.0258,0.0025
3375,0.0039,0.0169,0.0237,0.0028
3376,0.0040,0.0214,0.0258,0.0025
3377,0.0041,0.0318,0.0362,0.0026
3378,0.0086,0.0847,0.0930,0.0069
3379,0.0065,0.0628,0.0731,0.0048
3380,0.0039,0.0169,0.0237,0.0028
3381,0.0040,0.0214,0.0258,0.0025
3382,0.0040,0.0214,0.0258,0.0025
3383,0.0039,0.0169,0.0237,0.0028
3384,0.0050,0.0305,0.0409,0.0032
3385,0.0040,0.0214,0.0258,0.0025
3386,0.0039,0.0169,0.0237,0.0028
3387,0.0040,0.0214,0.0258,0.0025
3388,0.0040,0.0214,0.0258,0.0025
3389,0.0041,0.0318,0.0362,0.0026
3390,0.0093,0.0470,0.0688,0.0054
3391,0.0112,0.0252,0.0386,0.0073
3392,0.0094,0.0261,0.0312,0.0073
3393,0.0082,0.0338,0.0322,0.0067
3394,0.0071,0.0300,0.0255,0.0065
3395,0.0066,0.0355,0.0394,0.0037
3396,0.0046,0.0298,0.0328,0.0034
3397,0.0058,0.0250,0.0231,0.0052
3398,0.0053,0.0197,0.0214,0.0045
3399,0.0049,0.0206,0.0264,0.0034
3400,0.0047,0.0230,0.0294,0.0036
3401,0.0086,0.0432,0.0669,0.0050
3402,0.0043,0.0181,0.0236,0.0026
3403,0.0037,0.0165,0.0244,0.0034
3404,0.0055,0.0207,0.0264,0.0037
3405,0.0074,0.0315,0.0329,0.0042
3406,0.0084,0.0388,0.0398,0.0041
3407,0.0080,0.0420,0.0377,0.0043
3408,0.0074,0.0367,0.0463,0.0039
3409,0.0066,0.0475,0.0405,0.0044
3410,0.0049,0.0301,0.0333,0.0035
3411,0.0048,0.0335,0.0470,0.0031
3412,0.0081,0.0397,0.0639,0.0046
3413,0.0072,0.0312,0.0376,0.0034
3414,0.0120,0.0603,0.0629,0.0068
3415,0.0045,0.0282,0.0285,0.0217
3416,0.0050,0.0404,0.0304,0.0178
3417,0.0070,0.0285,0.0353,0.0189
3418,0.0176,0.0451,0.0704,0.0243
3419,0.0151,0.0350,0.0530,0.0190
3420,0.0140,0.0442,0.0471,0.0157
3421,0.0135,0.0626,0.0584,0.0145
3422,0.0130,0.0764,0.0726,0.0141
3423,0.0076,0.0387,0.0587,0.0047
3424,0.0040,0.0269,0.0362,0.0024
3425,0.0040,0.0269,0.0362,0.0024
3426,0.0039,0.0216,0.0315,0.0027
3427,0.0041,0.0236,0.0324,0.0028
3428,0.0042,0.0338,0.0428,0.0026
3429,0.0058,0.0147,0.0237,0.0037
3430,0.0076,0.0161,0.0229,0.0036
3431,0.0086,0.0204,0.0228,0.0037
3432,0.0083,0.0325,0.0269,0.0038
3433,0.0068,0.0217,0.0357,0.0034
3434,0.0070,0.0350,0.0586,0.0041
3435,0.0050,0.0179,0.0313,0.0032
3436,0.0045,0.0241,0.0342,0.0031
3437,0.0071,0.0433,0.0576,0.0033
3438,0.0114,0.0711,0.0780,0.0063
3439,0.0061,0.0261,0.0356,0.0033
3440,0.0045,0.0253,0.0319,0.0171
3441,0.0054,0.0217,0.0227,0.0135
3442,0.0064,0.0274,0.0205,0.0072
3443,0.0067,0.0196,0.0216,0.0116
3444,0.0064,0.0330,0.0345,0.0157
3445,0.0057,0.0354,0.0585,0.0046
3446,0.0046,0.0252,0.0233,0.0089
3447,0.0042,0.0337,0.0305,0.0116
3448,0.0040,0.0338,0.0324,0.0098
3449,0.0038,0.0252,0.0289,0.0055
3450,0.0041,0.0387,0.0453,0.0051
3451,0.0076,0.0161,0.0229,0.0036
3452,0.0039,0.0218,0.0335,0.0052
3453,0.0038,0.0284,0.0403,0.0085
3454,0.0038,0.0302,0.0420,0.0115
3455,0.0038,0.0414,0.0531,0.0150
3456,0.0060,0.0458,0.0678,0.0055
3457,0.0036,0.0300,0.0408,0.0141
3458,0.0037,0.0269,0.0381,0.0135
3459,0.0036,0.0224,0.0318,0.0116
3460,0.0038,0.0274,0.0391,0.0127
3461,0.0057,0.0442,0.0577,0.0167
3462,0.0097,0.0427,0.0506,0.0132
3463,0.0086,0.0204,0.0228,0.0037
3464,0.0040,0.0269,0.0362,0.0024
3465,0.0039,0.0216,0.0315,0.0027
3466,0.0041,0.0368,0.0465,0.0024
3467,0.0074,0.0652,0.0823,0.0065
3468,0.0040,0.0269,0.0362,0.0024
3469,0.0039,0.0216,0.0315,0.0027
3470,0.0040,0.0269,0.0362,0.0024
3471,0.0040,0.0269,0.0362,0.0024
3472,0.0041,0.0368,0.0465,0.0024
3473,0.0040,0.0269,0.0362,0.0024
3474,0.0040,0.0269,0.0362,0.0024
3475,0.0083,0.0325,0.0269,0.0038
3476,0.0040,0.0269,0.0362,0.0024
3477,0.0041,0.0368,0.0465,0.0024
3478,0.0086,0.0741,0.0857,0.0067
3479,0.0039,0.0216,0.0315,0.0027
3480,0.0040,0.0269,0.0362,0.0024
3481,0.0040,0.0269,0.0362,0.0024
3482,0.0039,0.0216,0.0315,0.0027
3483,0.0041,0.0368,0.0465,0.0024
3484,0.0040,0.0269,0.0362,0.0024
3485,0.0039,0.0216,0.0315,0.0027
3486,0.0040,0.0269,0.0362,0.0024
3487,0.0068,0.0205,0.0257,0.0035
3488,0.0041,0.0368,0.0465,0.0024
3489,0.0077,0.0755,0.0840,0.0062
3490,0.0086,0.0847,0.0930,0.0069
3491,0.0040,0.0269,0.0362,0.0024
3492,0.0040,0.0269,0.0362,0.0024
3493,0.0039,0.0216,0.0315,0.0027
3494,0.0040,0.0269,0.0362,0.0024
3495,0.0041,0.0368,0.0465,0.0024
3496,0.0039,0.0216,0.0315,0.0027
3497,0.0040,0.0269,0.0362,0.0024
3498,0.0040,0.0269,0.0362,0.0024
3499,0.0039,0.0216,0.0315,0.0027
3500,0.0050,0.0238,0.0431,0.0029
3501,0.0091,0.0510,0.0647,0.0047
3502,0.0040,0.0269,0.0362,0.0024
3503,0.0039,0.0216,0.0315,0.0027
3504,0.0040,0.0269,0.0362,0.0024
3505,0.0040,0.0269,0.0362,0.0024
3506,0.0041,0.0368,0.0465,0.0024
3507,0.0112,0.0267,0.0545,0.0078
3508,0.0094,0.0240,0.0447,0.0076
3509,0.0082,0.0293,0.0392,0.0068
3510,0.0071,0.0236,0.0323,0.0066
3511,0.0068,0.0217,0.0357,0.0034
3512,0.0076,0.0821,0.0893,0.0064
3513,0.0045,0.0241,0.0342,0.0031
3514,0.0058,0.0177,0.0272,0.0051
3515,0.0053,0.0136,0.0268,0.0043
3516,0.0049,0.0158,0.0287,0.0032
3517,0.0047,0.0253,0.0389,0.0032
3518,0.0043,0.0228,0.0341,0.0025
3519,0.0039,0.0180,0.0278,0.0032
3520,0.0060,0.0159,0.0252,0.0034
3521,0.0076,0.0161,0.0229,0.0036
3522,0.0087,0.0234,0.0314,0.0036
3523,0.0065,0.0731,0.0815,0.0057
3524,0.0083,0.0230,0.0235,0.0037
3525,0.0071,0.0433,0.0576,0.0033
3526,0.0068,0.0303,0.0264,0.0038
3527,0.0050,0.0179,0.0313,0.0032
3528,0.0047,0.0351,0.0545,0.0027
3529,0.0070,0.0356,0.0470,0.0031
3530,0.0114,0.0711,0.0780,0.0063
3531,0.0045,0.0253,0.0319,0.0171
3532,0.0051,0.0313,0.0203,0.0081
3533,0.0071,0.0230,0.0314,0.0171
3534,0.0068,0.0576,0.0700,0.0049
3535,0.0178,0.0462,0.0725,0.0153
3536,0.0141,0.0325,0.0551,0.0165
3537,0.0132,0.0373,0.0450,0.0179
3538,0.0127,0.0537,0.0499,0.0171
3539,0.0122,0.0655,0.0609,0.0157
3540,0.0040,0.0312,0.0439,0.0024
3541,0.0040,0.0312,0.0439,0.0024
3542,0.0039,0.0260,0.0389,0.0027
3543,0.0042,0.0268,0.0387,0.0027
3544,0.0044,0.0364,0.0484,0.0026
3545,0.0091,0.0510,0.0647,0.0047
3546,0.0059,0.0159,0.0284,0.0034
3547,0.0078,0.0136,0.0268,0.0034
3548,0.0088,0.0140,0.0244,0.0034
3549,0.0084,0.0265,0.0264,0.0035
3550,0.0069,0.0197,0.0402,0.0032
3551,0.0050,0.0178,0.0366,0.0030
3552,0.0045,0.0267,0.0409,0.0031
3553,0.0070,0.0485,0.0648,0.0032
3554,0.0112,0.0755,0.0854,0.0060
3555,0.0063,0.0286,0.0408,0.0032
3556,0.0140,0.0432,0.0618,0.0050
3557,0.0045,0.0275,0.0373,0.0210
3558,0.0054,0.0212,0.0267,0.0169
3559,0.0066,0.0257,0.0216,0.0107
3560,0.0068,0.0222,0.0256,0.0147
3561,0.0065,0.0370,0.0392,0.0184
3562,0.0047,0.0294,0.0283,0.0117
3563,0.0043,0.0378,0.0367,0.0137
3564,0.0040,0.0378,0.0392,0.0114
3565,0.0039,0.0293,0.0353,0.0067
3566,0.0041,0.0424,0.0519,0.0055
3567,0.0066,0.0586,0.0585,0.0576
3568,0.0078,0.0136,0.0268,0.0034
3569,0.0039,0.0269,0.0413,0.0057
3570,0.0038,0.0322,0.0476,0.0096
3571,0.0038,0.0335,0.0490,0.0131
3572,0.0038,0.0447,0.0598,0.0171
3573,0.0036,0.0333,0.0475,0.0167
3574,0.0037,0.0306,0.0451,0.0165
3575,0.0036,0.0249,0.0387,0.0146
3576,0.0037,0.0298,0.0456,0.0160
3577,0.0054,0.0472,0.0638,0.0203
3578,0.0078,0.0634,0.0693,0.0522
3579,0.0095,0.0477,0.0585,0.0171
3580,0.0088,0.0140,0.0244,0.0034
3581,0.0040,0.0312,0.0439,0.0024
3582,0.0039,0.0260,0.0389,0.0027
3583,0.0041,0.0400,0.0530,0.0023
3584,0.0040,0.0312,0.0439,0.0024
3585,0.0039,0.0260,0.0389,0.0027
3586,0.0040,0.0312,0.0439,0.0024
3587,0.0040,0.0312,0.0439,0.0024
3588,0.0041,0.0400,0.0530,0.0023
3589,0.0091,0.0530,0.0695,0.0433
3590,0.0040,0.0312,0.0439,0.0024
3591,0.0040,0.0312,0.0439,0.0024
3592,0.0084,0.0265,0.0264,0.0035
3593,0.0040,0.0312,0.0439,0.0024
3594,0.0041,0.0400,0.0530,0.0023
3595,0.0039,0.0260,0.0389,0.0027
3596,0.0040,0.0312,0.0439,0.0024
3597,0.0040,0.0312,0.0439,0.0024
3598,0.0039,0.0260,0.0389,0.0027
3599,0.0041,0.0400,0.0530,0.0023
Total Error Summary
Vdc  RMSE=  0.0064
Idc  RMSE=  0.0349
Id   RMSE=  0.0448
Iq   RMSE=  0.0119
