Read Model from: ./ucf3ts/
Export Model to: ./ucf3ts/ucf3ts_fhf.json
idx_in [0, 1, 2, 3, 4, 5, 6]
idx_out [7, 8, 9, 10]
make_mimo_block iir
H1s[0][0]  Real Poles: [-130.94603365  -54.4601729 ] Freqs [Hz]: []
H1s[0][1]  Real Poles: [-118.34215394  -83.62468479] Freqs [Hz]: []
H1s[0][2]  Real Poles: [-97.72336259 -97.72336259] Freqs [Hz]: [3.3144649193982527]
H1s[0][3]  Real Poles: [-100.36423143 -100.36423143] Freqs [Hz]: [1.734753498726245]
H1s[1][0]  Real Poles: [-114.11944161  -84.23793857] Freqs [Hz]: []
H1s[1][1]  Real Poles: [-132.47949379  -46.75246728] Freqs [Hz]: []
H1s[1][2]  Real Poles: [-137.88182214  -47.14416638] Freqs [Hz]: []
H1s[1][3]  Real Poles: [-131.92992132  -51.36075396] Freqs [Hz]: []
H1s[2][0]  Real Poles: [-99.44844893 -99.44844893] Freqs [Hz]: [1.2071536245147865]
H1s[2][1]  Real Poles: [-154.08451295   -4.3574717 ] Freqs [Hz]: []
H1s[2][2]  Real Poles: [-100.74575194 -100.74575194] Freqs [Hz]: [5.430176941219523]
H1s[2][3]  Real Poles: [-142.78123034  -30.02935695] Freqs [Hz]: []
H1s[3][0]  Real Poles: [-116.84564602  -78.8329051 ] Freqs [Hz]: []
H1s[3][1]  Real Poles: [-144.22385819  -32.26091139] Freqs [Hz]: []
H1s[3][2]  Real Poles: [-125.13668776  -65.32705933] Freqs [Hz]: []
H1s[3][3]  Real Poles: [-129.1168624   -63.59369444] Freqs [Hz]: []
model_folder = ./ucf3ts/
model_root = ucf3ts
data_path = d:/data/ucf3/ucf3t.hdf5
idx_in [0, 1, 2, 3, 4, 5, 6]
idx_out [7, 8, 9, 10]
read 1500 dataframes
dt=0.010000 data_len=401 n_io=11 n_case=1500
['G', 'Ud', 'Uq', 'Id', 'Iq', 'GIrms', 'Ctrl'] ['Vdc', 'Idc', 'Vd', 'Vq'] (1500, 401, 11)
make_mimo_block iir
prepending initial conditions (1500, 100, 11) (1500, 401, 11) float32 float32
results in (1500, 501, 11)
Idx,Vdc,Idc,Vd,Vq
#,RMSE,RMSE,RMSE,RMSE
Total,0.0236,0.0126,0.0242,0.0106
0,0.0195,0.0114,0.0191,0.0093
1,0.0195,0.0114,0.0191,0.0093
2,0.0208,0.0233,0.0219,0.0095
3,0.0182,0.0100,0.0173,0.0088
4,0.0182,0.0121,0.0314,0.0085
5,0.0182,0.0121,0.0314,0.0085
6,0.0182,0.0121,0.0314,0.0085
7,0.0184,0.0116,0.0276,0.0087
8,0.0184,0.0116,0.0276,0.0087
9,0.0188,0.0120,0.0240,0.0087
10,0.0193,0.0139,0.0210,0.0089
11,0.0200,0.0166,0.0195,0.0091
12,0.0208,0.0190,0.0189,0.0092
13,0.0216,0.0211,0.0187,0.0089
14,0.0182,0.0100,0.0173,0.0088
15,0.0225,0.0230,0.0187,0.0089
16,0.0235,0.0246,0.0186,0.0093
17,0.0245,0.0262,0.0185,0.0103
18,0.0256,0.0273,0.0183,0.0120
19,0.0188,0.0120,0.0240,0.0087
20,0.0315,0.0405,0.0251,0.0269
21,0.0289,0.0324,0.0227,0.0189
22,0.0272,0.0246,0.0216,0.0131
23,0.0262,0.0189,0.0214,0.0098
24,0.0255,0.0143,0.0220,0.0089
25,0.0182,0.0100,0.0173,0.0088
26,0.0248,0.0125,0.0232,0.0092
27,0.0238,0.0120,0.0245,0.0096
28,0.0224,0.0120,0.0260,0.0096
29,0.0206,0.0122,0.0278,0.0092
30,0.0190,0.0122,0.0296,0.0087
31,0.0193,0.0139,0.0210,0.0089
32,0.0187,0.0119,0.0332,0.0090
33,0.0209,0.0115,0.0347,0.0101
34,0.0243,0.0112,0.0356,0.0112
35,0.0281,0.0113,0.0361,0.0119
36,0.0177,0.0099,0.0157,0.0088
37,0.0316,0.0117,0.0360,0.0117
38,0.0346,0.0132,0.0353,0.0110
39,0.0368,0.0168,0.0344,0.0106
40,0.0383,0.0206,0.0337,0.0123
41,0.0391,0.0254,0.0335,0.0160
42,0.0396,0.0304,0.0336,0.0206
43,0.0200,0.0166,0.0195,0.0091
44,0.0182,0.0121,0.0314,0.0085
45,0.0182,0.0121,0.0314,0.0085
46,0.0182,0.0121,0.0314,0.0085
47,0.0177,0.0099,0.0157,0.0088
48,0.0182,0.0121,0.0314,0.0085
49,0.0182,0.0121,0.0314,0.0085
50,0.0182,0.0121,0.0314,0.0085
51,0.0182,0.0121,0.0314,0.0085
52,0.0182,0.0121,0.0314,0.0085
53,0.0182,0.0121,0.0314,0.0085
54,0.0182,0.0121,0.0314,0.0085
55,0.0208,0.0190,0.0189,0.0092
56,0.0182,0.0121,0.0314,0.0085
57,0.0182,0.0121,0.0314,0.0085
58,0.0176,0.0103,0.0158,0.0086
59,0.0182,0.0121,0.0314,0.0085
60,0.0182,0.0121,0.0314,0.0085
61,0.0182,0.0121,0.0314,0.0085
62,0.0182,0.0121,0.0314,0.0085
63,0.0182,0.0121,0.0314,0.0085
64,0.0182,0.0121,0.0314,0.0085
65,0.0182,0.0121,0.0314,0.0085
66,0.0182,0.0121,0.0314,0.0085
67,0.0216,0.0211,0.0187,0.0089
68,0.0182,0.0121,0.0314,0.0085
69,0.0178,0.0118,0.0171,0.0086
70,0.0182,0.0121,0.0314,0.0085
71,0.0182,0.0121,0.0314,0.0085
72,0.0182,0.0121,0.0314,0.0085
73,0.0182,0.0121,0.0314,0.0085
74,0.0182,0.0121,0.0314,0.0085
75,0.0182,0.0121,0.0314,0.0085
76,0.0182,0.0121,0.0314,0.0085
77,0.0182,0.0121,0.0314,0.0085
78,0.0182,0.0121,0.0314,0.0085
79,0.0225,0.0230,0.0187,0.0089
80,0.0182,0.0139,0.0191,0.0087
81,0.0182,0.0121,0.0314,0.0085
82,0.0182,0.0121,0.0314,0.0085
83,0.0182,0.0121,0.0314,0.0085
84,0.0182,0.0121,0.0314,0.0085
85,0.0182,0.0121,0.0314,0.0085
86,0.0351,0.0221,0.0688,0.0082
87,0.0318,0.0205,0.0650,0.0083
88,0.0288,0.0192,0.0613,0.0083
89,0.0262,0.0183,0.0576,0.0083
90,0.0216,0.0211,0.0187,0.0089
91,0.0189,0.0154,0.0208,0.0088
92,0.0235,0.0246,0.0186,0.0093
93,0.0220,0.0160,0.0500,0.0083
94,0.0205,0.0155,0.0462,0.0084
95,0.0194,0.0145,0.0425,0.0084
96,0.0186,0.0134,0.0387,0.0084
97,0.0183,0.0129,0.0350,0.0085
98,0.0184,0.0116,0.0276,0.0087
99,0.0188,0.0120,0.0240,0.0087
100,0.0193,0.0139,0.0210,0.0089
101,0.0200,0.0166,0.0195,0.0091
102,0.0197,0.0169,0.0218,0.0088
103,0.0208,0.0190,0.0189,0.0092
104,0.0245,0.0262,0.0185,0.0103
105,0.0216,0.0211,0.0187,0.0089
106,0.0225,0.0230,0.0187,0.0089
107,0.0235,0.0246,0.0186,0.0093
108,0.0245,0.0262,0.0185,0.0103
109,0.0256,0.0273,0.0183,0.0120
110,0.0315,0.0405,0.0251,0.0269
111,0.0289,0.0324,0.0227,0.0189
112,0.0272,0.0246,0.0216,0.0131
113,0.0217,0.0250,0.0218,0.0102
114,0.0207,0.0181,0.0223,0.0090
115,0.0175,0.0104,0.0293,0.0083
116,0.0175,0.0104,0.0293,0.0083
117,0.0175,0.0104,0.0293,0.0083
118,0.0179,0.0102,0.0253,0.0085
119,0.0179,0.0102,0.0253,0.0085
120,0.0184,0.0103,0.0217,0.0086
121,0.0190,0.0116,0.0189,0.0089
122,0.0198,0.0138,0.0178,0.0091
123,0.0207,0.0153,0.0176,0.0091
124,0.0217,0.0168,0.0176,0.0088
125,0.0217,0.0194,0.0223,0.0096
126,0.0227,0.0180,0.0177,0.0086
127,0.0238,0.0193,0.0176,0.0088
128,0.0249,0.0205,0.0175,0.0097
129,0.0261,0.0214,0.0172,0.0112
130,0.0184,0.0103,0.0217,0.0086
131,0.0311,0.0330,0.0239,0.0270
132,0.0282,0.0260,0.0216,0.0188
133,0.0262,0.0195,0.0203,0.0131
134,0.0248,0.0152,0.0199,0.0097
135,0.0238,0.0119,0.0203,0.0089
136,0.0228,0.0207,0.0219,0.0108
137,0.0229,0.0107,0.0212,0.0093
138,0.0218,0.0106,0.0224,0.0098
139,0.0205,0.0107,0.0239,0.0098
140,0.0189,0.0107,0.0256,0.0093
141,0.0177,0.0106,0.0275,0.0087
142,0.0190,0.0116,0.0189,0.0089
143,0.0188,0.0104,0.0311,0.0086
144,0.0216,0.0101,0.0327,0.0094
145,0.0253,0.0099,0.0338,0.0104
146,0.0293,0.0098,0.0342,0.0109
147,0.0240,0.0216,0.0211,0.0125
148,0.0329,0.0101,0.0342,0.0108
149,0.0358,0.0111,0.0336,0.0102
150,0.0379,0.0135,0.0328,0.0102
151,0.0392,0.0164,0.0325,0.0124
152,0.0399,0.0198,0.0325,0.0165
153,0.0402,0.0240,0.0328,0.0212
154,0.0198,0.0138,0.0178,0.0091
155,0.0175,0.0104,0.0293,0.0083
156,0.0175,0.0104,0.0293,0.0083
157,0.0175,0.0104,0.0293,0.0083
158,0.0176,0.0103,0.0158,0.0086
159,0.0175,0.0104,0.0293,0.0083
160,0.0175,0.0104,0.0293,0.0083
161,0.0175,0.0104,0.0293,0.0083
162,0.0175,0.0104,0.0293,0.0083
163,0.0175,0.0104,0.0293,0.0083
164,0.0175,0.0104,0.0293,0.0083
165,0.0175,0.0104,0.0293,0.0083
166,0.0207,0.0153,0.0176,0.0091
167,0.0175,0.0104,0.0293,0.0083
168,0.0175,0.0104,0.0293,0.0083
169,0.0303,0.0318,0.0210,0.0258
170,0.0175,0.0104,0.0293,0.0083
171,0.0175,0.0104,0.0293,0.0083
172,0.0175,0.0104,0.0293,0.0083
173,0.0175,0.0104,0.0293,0.0083
174,0.0175,0.0104,0.0293,0.0083
175,0.0175,0.0104,0.0293,0.0083
176,0.0175,0.0104,0.0293,0.0083
177,0.0175,0.0104,0.0293,0.0083
178,0.0217,0.0168,0.0176,0.0088
179,0.0175,0.0104,0.0293,0.0083
180,0.0286,0.0253,0.0199,0.0181
181,0.0175,0.0104,0.0293,0.0083
182,0.0175,0.0104,0.0293,0.0083
183,0.0175,0.0104,0.0293,0.0083
184,0.0175,0.0104,0.0293,0.0083
185,0.0175,0.0104,0.0293,0.0083
186,0.0175,0.0104,0.0293,0.0083
187,0.0175,0.0104,0.0293,0.0083
188,0.0175,0.0104,0.0293,0.0083
189,0.0175,0.0104,0.0293,0.0083
190,0.0227,0.0180,0.0177,0.0086
191,0.0278,0.0193,0.0190,0.0127
192,0.0175,0.0104,0.0293,0.0083
193,0.0175,0.0104,0.0293,0.0083
194,0.0175,0.0104,0.0293,0.0083
195,0.0175,0.0104,0.0293,0.0083
196,0.0175,0.0104,0.0293,0.0083
197,0.0338,0.0205,0.0674,0.0081
198,0.0305,0.0184,0.0636,0.0081
199,0.0275,0.0168,0.0598,0.0081
200,0.0249,0.0155,0.0559,0.0081
201,0.0217,0.0168,0.0176,0.0088
202,0.0274,0.0153,0.0180,0.0097
203,0.0238,0.0193,0.0176,0.0088
204,0.0208,0.0136,0.0482,0.0082
205,0.0194,0.0130,0.0444,0.0082
206,0.0183,0.0122,0.0406,0.0082
207,0.0177,0.0114,0.0367,0.0082
208,0.0175,0.0111,0.0330,0.0083
209,0.0179,0.0102,0.0253,0.0085
210,0.0184,0.0103,0.0217,0.0086
211,0.0190,0.0116,0.0189,0.0089
212,0.0198,0.0138,0.0178,0.0091
213,0.0272,0.0123,0.0170,0.0088
214,0.0207,0.0153,0.0176,0.0091
215,0.0249,0.0205,0.0175,0.0097
216,0.0217,0.0168,0.0176,0.0088
217,0.0227,0.0180,0.0177,0.0086
218,0.0238,0.0193,0.0176,0.0088
219,0.0249,0.0205,0.0175,0.0097
220,0.0261,0.0214,0.0172,0.0112
221,0.0311,0.0330,0.0239,0.0270
222,0.0282,0.0260,0.0216,0.0188
223,0.0262,0.0195,0.0203,0.0131
224,0.0227,0.0265,0.0215,0.0115
225,0.0267,0.0112,0.0161,0.0090
226,0.0178,0.0075,0.0250,0.0083
227,0.0178,0.0075,0.0250,0.0083
228,0.0178,0.0075,0.0250,0.0083
229,0.0184,0.0072,0.0208,0.0084
230,0.0184,0.0072,0.0208,0.0084
231,0.0192,0.0072,0.0173,0.0087
232,0.0200,0.0077,0.0154,0.0091
233,0.0211,0.0082,0.0152,0.0094
234,0.0222,0.0089,0.0157,0.0094
235,0.0233,0.0096,0.0163,0.0089
236,0.0257,0.0108,0.0155,0.0092
237,0.0246,0.0099,0.0167,0.0084
238,0.0258,0.0107,0.0167,0.0082
239,0.0271,0.0119,0.0166,0.0087
240,0.0284,0.0130,0.0161,0.0099
241,0.0192,0.0072,0.0173,0.0087
242,0.0313,0.0193,0.0221,0.0273
243,0.0277,0.0146,0.0199,0.0190
244,0.0249,0.0112,0.0185,0.0130
245,0.0229,0.0089,0.0177,0.0097
246,0.0214,0.0082,0.0173,0.0089
247,0.0241,0.0107,0.0153,0.0090
248,0.0201,0.0085,0.0178,0.0095
249,0.0189,0.0086,0.0186,0.0101
250,0.0178,0.0085,0.0199,0.0102
251,0.0169,0.0082,0.0214,0.0098
252,0.0167,0.0078,0.0232,0.0090
253,0.0200,0.0077,0.0154,0.0091
254,0.0204,0.0073,0.0269,0.0080
255,0.0240,0.0072,0.0285,0.0084
256,0.0282,0.0072,0.0298,0.0090
257,0.0323,0.0074,0.0304,0.0094
258,0.0221,0.0104,0.0155,0.0086
259,0.0358,0.0077,0.0305,0.0093
260,0.0385,0.0081,0.0302,0.0090
261,0.0403,0.0090,0.0300,0.0100
262,0.0412,0.0103,0.0301,0.0132
263,0.0415,0.0118,0.0305,0.0179
264,0.0413,0.0137,0.0311,0.0230
265,0.0211,0.0082,0.0152,0.0094
266,0.0178,0.0075,0.0250,0.0083
267,0.0178,0.0075,0.0250,0.0083
268,0.0178,0.0075,0.0250,0.0083
269,0.0199,0.0103,0.0162,0.0084
270,0.0178,0.0075,0.0250,0.0083
271,0.0178,0.0075,0.0250,0.0083
272,0.0178,0.0075,0.0250,0.0083
273,0.0178,0.0075,0.0250,0.0083
274,0.0178,0.0075,0.0250,0.0083
275,0.0178,0.0075,0.0250,0.0083
276,0.0178,0.0075,0.0250,0.0083
277,0.0222,0.0089,0.0157,0.0094
278,0.0178,0.0075,0.0250,0.0083
279,0.0178,0.0075,0.0250,0.0083
280,0.0178,0.0118,0.0171,0.0086
281,0.0178,0.0075,0.0250,0.0083
282,0.0178,0.0075,0.0250,0.0083
283,0.0178,0.0075,0.0250,0.0083
284,0.0178,0.0075,0.0250,0.0083
285,0.0178,0.0075,0.0250,0.0083
286,0.0178,0.0075,0.0250,0.0083
287,0.0178,0.0075,0.0250,0.0083
288,0.0178,0.0075,0.0250,0.0083
289,0.0233,0.0096,0.0163,0.0089
290,0.0178,0.0075,0.0250,0.0083
291,0.0177,0.0100,0.0188,0.0101
292,0.0178,0.0075,0.0250,0.0083
293,0.0178,0.0075,0.0250,0.0083
294,0.0178,0.0075,0.0250,0.0083
295,0.0178,0.0075,0.0250,0.0083
296,0.0178,0.0075,0.0250,0.0083
297,0.0178,0.0075,0.0250,0.0083
298,0.0178,0.0075,0.0250,0.0083
299,0.0178,0.0075,0.0250,0.0083
300,0.0178,0.0075,0.0250,0.0083
301,0.0246,0.0099,0.0167,0.0084
302,0.0190,0.0098,0.0203,0.0116
303,0.0178,0.0075,0.0250,0.0083
304,0.0178,0.0075,0.0250,0.0083
305,0.0178,0.0075,0.0250,0.0083
306,0.0178,0.0075,0.0250,0.0083
307,0.0178,0.0075,0.0250,0.0083
308,0.0318,0.0209,0.0644,0.0079
309,0.0285,0.0177,0.0605,0.0080
310,0.0256,0.0151,0.0565,0.0080
311,0.0231,0.0130,0.0526,0.0080
312,0.0233,0.0096,0.0163,0.0089
313,0.0215,0.0097,0.0218,0.0131
314,0.0258,0.0107,0.0167,0.0082
315,0.0194,0.0096,0.0446,0.0080
316,0.0182,0.0085,0.0406,0.0081
317,0.0175,0.0082,0.0366,0.0081
318,0.0173,0.0075,0.0327,0.0081
319,0.0174,0.0076,0.0287,0.0082
320,0.0184,0.0072,0.0208,0.0084
321,0.0192,0.0072,0.0173,0.0087
322,0.0200,0.0077,0.0154,0.0091
323,0.0211,0.0082,0.0152,0.0094
324,0.0246,0.0099,0.0228,0.0138
325,0.0222,0.0089,0.0157,0.0094
326,0.0271,0.0119,0.0166,0.0087
327,0.0233,0.0096,0.0163,0.0089
328,0.0246,0.0099,0.0167,0.0084
329,0.0258,0.0107,0.0167,0.0082
330,0.0271,0.0119,0.0166,0.0087
331,0.0284,0.0130,0.0161,0.0099
332,0.0313,0.0193,0.0221,0.0273
333,0.0277,0.0146,0.0199,0.0190
334,0.0249,0.0112,0.0185,0.0130
335,0.0237,0.0276,0.0207,0.0133
336,0.0275,0.0103,0.0237,0.0136
337,0.0193,0.0057,0.0217,0.0084
338,0.0193,0.0057,0.0217,0.0084
339,0.0193,0.0057,0.0217,0.0084
340,0.0202,0.0056,0.0176,0.0086
341,0.0202,0.0056,0.0176,0.0086
342,0.0211,0.0055,0.0143,0.0090
343,0.0221,0.0056,0.0136,0.0095
344,0.0233,0.0057,0.0144,0.0099
345,0.0245,0.0059,0.0156,0.0099
346,0.0257,0.0064,0.0165,0.0092
347,0.0300,0.0115,0.0245,0.0123
348,0.0271,0.0071,0.0171,0.0085
349,0.0284,0.0084,0.0173,0.0080
350,0.0297,0.0104,0.0171,0.0082
351,0.0311,0.0125,0.0165,0.0092
352,0.0211,0.0055,0.0143,0.0090
353,0.0319,0.0113,0.0214,0.0277
354,0.0281,0.0093,0.0194,0.0192
355,0.0249,0.0080,0.0180,0.0131
356,0.0224,0.0077,0.0169,0.0097
357,0.0206,0.0078,0.0161,0.0089
358,0.0318,0.0141,0.0253,0.0107
359,0.0191,0.0079,0.0159,0.0096
360,0.0180,0.0077,0.0162,0.0104
361,0.0171,0.0072,0.0170,0.0105
362,0.0168,0.0063,0.0182,0.0101
363,0.0174,0.0061,0.0199,0.0093
364,0.0221,0.0056,0.0136,0.0095
365,0.0225,0.0057,0.0236,0.0079
366,0.0265,0.0055,0.0252,0.0080
367,0.0308,0.0058,0.0265,0.0084
368,0.0348,0.0062,0.0275,0.0086
369,0.0332,0.0172,0.0265,0.0109
370,0.0382,0.0067,0.0278,0.0085
371,0.0406,0.0075,0.0277,0.0087
372,0.0422,0.0088,0.0280,0.0104
373,0.0428,0.0100,0.0285,0.0143
374,0.0427,0.0109,0.0291,0.0193
375,0.0422,0.0125,0.0300,0.0246
376,0.0233,0.0057,0.0144,0.0099
377,0.0193,0.0057,0.0217,0.0084
378,0.0193,0.0057,0.0217,0.0084
379,0.0193,0.0057,0.0217,0.0084
380,0.0343,0.0209,0.0279,0.0138
381,0.0193,0.0057,0.0217,0.0084
382,0.0193,0.0057,0.0217,0.0084
383,0.0193,0.0057,0.0217,0.0084
384,0.0193,0.0057,0.0217,0.0084
385,0.0193,0.0057,0.0217,0.0084
386,0.0193,0.0057,0.0217,0.0084
387,0.0193,0.0057,0.0217,0.0084
388,0.0245,0.0059,0.0156,0.0099
389,0.0193,0.0057,0.0217,0.0084
390,0.0193,0.0057,0.0217,0.0084
391,0.0357,0.0255,0.0294,0.0181
392,0.0193,0.0057,0.0217,0.0084
393,0.0193,0.0057,0.0217,0.0084
394,0.0193,0.0057,0.0217,0.0084
395,0.0193,0.0057,0.0217,0.0084
396,0.0193,0.0057,0.0217,0.0084
397,0.0193,0.0057,0.0217,0.0084
398,0.0193,0.0057,0.0217,0.0084
399,0.0193,0.0057,0.0217,0.0084
400,0.0257,0.0064,0.0165,0.0092
401,0.0193,0.0057,0.0217,0.0084
402,0.0182,0.0139,0.0191,0.0087
403,0.0193,0.0057,0.0217,0.0084
404,0.0193,0.0057,0.0217,0.0084
405,0.0193,0.0057,0.0217,0.0084
406,0.0193,0.0057,0.0217,0.0084
407,0.0193,0.0057,0.0217,0.0084
408,0.0193,0.0057,0.0217,0.0084
409,0.0193,0.0057,0.0217,0.0084
410,0.0193,0.0057,0.0217,0.0084
411,0.0193,0.0057,0.0217,0.0084
412,0.0271,0.0071,0.0171,0.0085
413,0.0182,0.0100,0.0173,0.0088
414,0.0193,0.0057,0.0217,0.0084
415,0.0193,0.0057,0.0217,0.0084
416,0.0193,0.0057,0.0217,0.0084
417,0.0193,0.0057,0.0217,0.0084
418,0.0193,0.0057,0.0217,0.0084
419,0.0308,0.0240,0.0622,0.0080
420,0.0276,0.0208,0.0582,0.0080
421,0.0248,0.0173,0.0542,0.0080
422,0.0225,0.0144,0.0501,0.0081
423,0.0257,0.0064,0.0165,0.0092
424,0.0182,0.0100,0.0173,0.0088
425,0.0284,0.0084,0.0173,0.0080
426,0.0193,0.0094,0.0419,0.0081
427,0.0185,0.0075,0.0377,0.0082
428,0.0182,0.0066,0.0336,0.0082
429,0.0183,0.0056,0.0296,0.0083
430,0.0187,0.0055,0.0257,0.0083
431,0.0202,0.0056,0.0176,0.0086
432,0.0211,0.0055,0.0143,0.0090
433,0.0221,0.0056,0.0136,0.0095
434,0.0233,0.0057,0.0144,0.0099
435,0.0182,0.0100,0.0173,0.0088
436,0.0245,0.0059,0.0156,0.0099
437,0.0297,0.0104,0.0171,0.0082
438,0.0257,0.0064,0.0165,0.0092
439,0.0271,0.0071,0.0171,0.0085
440,0.0284,0.0084,0.0173,0.0080
441,0.0297,0.0104,0.0171,0.0082
442,0.0311,0.0125,0.0165,0.0092
443,0.0319,0.0113,0.0214,0.0277
444,0.0281,0.0093,0.0194,0.0192
445,0.0249,0.0080,0.0180,0.0131
446,0.0186,0.0122,0.0169,0.0090
447,0.0182,0.0100,0.0173,0.0088
448,0.0203,0.0052,0.0205,0.0086
449,0.0203,0.0052,0.0205,0.0086
450,0.0203,0.0052,0.0205,0.0086
451,0.0211,0.0052,0.0162,0.0088
452,0.0211,0.0052,0.0162,0.0088
453,0.0221,0.0051,0.0135,0.0091
454,0.0232,0.0052,0.0132,0.0097
455,0.0243,0.0053,0.0144,0.0101
456,0.0257,0.0055,0.0159,0.0101
457,0.0270,0.0063,0.0170,0.0094
458,0.0182,0.0100,0.0173,0.0088
459,0.0283,0.0073,0.0176,0.0086
460,0.0297,0.0089,0.0177,0.0081
461,0.0310,0.0116,0.0176,0.0081
462,0.0324,0.0136,0.0170,0.0089
463,0.0221,0.0051,0.0135,0.0091
464,0.0324,0.0102,0.0213,0.0279
465,0.0284,0.0088,0.0194,0.0193
466,0.0250,0.0084,0.0180,0.0133
467,0.0225,0.0081,0.0169,0.0097
468,0.0205,0.0083,0.0159,0.0089
469,0.0182,0.0100,0.0173,0.0088
470,0.0190,0.0082,0.0153,0.0096
471,0.0179,0.0077,0.0154,0.0104
472,0.0172,0.0068,0.0160,0.0106
473,0.0172,0.0059,0.0171,0.0102
474,0.0181,0.0055,0.0187,0.0094
475,0.0232,0.0052,0.0132,0.0097
476,0.0236,0.0051,0.0224,0.0080
477,0.0276,0.0051,0.0239,0.0079
478,0.0319,0.0054,0.0253,0.0082
479,0.0358,0.0060,0.0262,0.0084
480,0.0182,0.0100,0.0173,0.0088
481,0.0391,0.0069,0.0265,0.0083
482,0.0416,0.0080,0.0268,0.0087
483,0.0430,0.0094,0.0272,0.0107
484,0.0434,0.0111,0.0277,0.0148
485,0.0432,0.0126,0.0286,0.0201
486,0.0426,0.0144,0.0295,0.0253
487,0.0243,0.0053,0.0144,0.0101
488,0.0203,0.0052,0.0205,0.0086
489,0.0203,0.0052,0.0205,0.0086
490,0.0203,0.0052,0.0205,0.0086
491,0.0182,0.0100,0.0173,0.0088
492,0.0203,0.0052,0.0205,0.0086
493,0.0203,0.0052,0.0205,0.0086
494,0.0203,0.0052,0.0205,0.0086
495,0.0203,0.0052,0.0205,0.0086
496,0.0203,0.0052,0.0205,0.0086
497,0.0203,0.0052,0.0205,0.0086
498,0.0203,0.0052,0.0205,0.0086
499,0.0257,0.0055,0.0159,0.0101
500,0.0203,0.0052,0.0205,0.0086
501,0.0203,0.0052,0.0205,0.0086
502,0.0182,0.0100,0.0173,0.0088
503,0.0203,0.0052,0.0205,0.0086
504,0.0203,0.0052,0.0205,0.0086
505,0.0203,0.0052,0.0205,0.0086
506,0.0203,0.0052,0.0205,0.0086
507,0.0203,0.0052,0.0205,0.0086
508,0.0203,0.0052,0.0205,0.0086
509,0.0203,0.0052,0.0205,0.0086
510,0.0203,0.0052,0.0205,0.0086
511,0.0270,0.0063,0.0170,0.0094
512,0.0203,0.0052,0.0205,0.0086
513,0.0182,0.0100,0.0173,0.0088
514,0.0203,0.0052,0.0205,0.0086
515,0.0203,0.0052,0.0205,0.0086
516,0.0203,0.0052,0.0205,0.0086
517,0.0203,0.0052,0.0205,0.0086
518,0.0203,0.0052,0.0205,0.0086
519,0.0203,0.0052,0.0205,0.0086
520,0.0203,0.0052,0.0205,0.0086
521,0.0203,0.0052,0.0205,0.0086
522,0.0203,0.0052,0.0205,0.0086
523,0.0283,0.0073,0.0176,0.0086
524,0.0189,0.0154,0.0208,0.0088
525,0.0203,0.0052,0.0205,0.0086
526,0.0203,0.0052,0.0205,0.0086
527,0.0203,0.0052,0.0205,0.0086
528,0.0203,0.0052,0.0205,0.0086
529,0.0203,0.0052,0.0205,0.0086
530,0.0304,0.0261,0.0613,0.0080
531,0.0273,0.0227,0.0572,0.0080
532,0.0246,0.0190,0.0532,0.0081
533,0.0224,0.0158,0.0491,0.0081
534,0.0270,0.0063,0.0170,0.0094
535,0.0182,0.0100,0.0173,0.0088
536,0.0297,0.0089,0.0177,0.0081
537,0.0195,0.0103,0.0407,0.0082
538,0.0189,0.0080,0.0366,0.0083
539,0.0187,0.0068,0.0325,0.0083
540,0.0189,0.0055,0.0284,0.0084
541,0.0195,0.0051,0.0244,0.0084
542,0.0211,0.0052,0.0162,0.0088
543,0.0221,0.0051,0.0135,0.0091
544,0.0232,0.0052,0.0132,0.0097
545,0.0243,0.0053,0.0144,0.0101
546,0.0182,0.0100,0.0173,0.0088
547,0.0257,0.0055,0.0159,0.0101
548,0.0310,0.0116,0.0176,0.0081
549,0.0270,0.0063,0.0170,0.0094
550,0.0283,0.0073,0.0176,0.0086
551,0.0297,0.0089,0.0177,0.0081
552,0.0310,0.0116,0.0176,0.0081
553,0.0324,0.0136,0.0170,0.0089
554,0.0324,0.0102,0.0213,0.0279
555,0.0284,0.0088,0.0194,0.0193
556,0.0250,0.0084,0.0180,0.0133
557,0.0311,0.0398,0.0213,0.0257
558,0.0182,0.0100,0.0173,0.0088
559,0.0182,0.0100,0.0173,0.0088
560,0.0182,0.0100,0.0173,0.0088
561,0.0182,0.0100,0.0173,0.0088
562,0.0182,0.0100,0.0173,0.0088
563,0.0182,0.0100,0.0173,0.0088
564,0.0182,0.0100,0.0173,0.0088
565,0.0182,0.0100,0.0173,0.0088
566,0.0197,0.0169,0.0218,0.0088
567,0.0182,0.0100,0.0173,0.0088
568,0.0298,0.0320,0.0200,0.0181
569,0.0182,0.0100,0.0173,0.0088
570,0.0182,0.0100,0.0173,0.0088
571,0.0182,0.0100,0.0173,0.0088
572,0.0182,0.0100,0.0173,0.0088
573,0.0182,0.0100,0.0173,0.0088
574,0.0182,0.0100,0.0173,0.0088
575,0.0182,0.0100,0.0173,0.0088
576,0.0182,0.0100,0.0173,0.0088
577,0.0182,0.0100,0.0173,0.0088
578,0.0207,0.0181,0.0223,0.0090
579,0.0293,0.0246,0.0190,0.0128
580,0.0182,0.0100,0.0173,0.0088
581,0.0182,0.0100,0.0173,0.0088
582,0.0182,0.0100,0.0173,0.0088
583,0.0182,0.0100,0.0173,0.0088
584,0.0182,0.0100,0.0173,0.0088
585,0.0451,0.0198,0.0490,0.0094
586,0.0408,0.0176,0.0455,0.0094
587,0.0369,0.0157,0.0421,0.0093
588,0.0333,0.0142,0.0387,0.0093
589,0.0197,0.0169,0.0218,0.0088
590,0.0292,0.0193,0.0182,0.0097
591,0.0217,0.0194,0.0223,0.0096
592,0.0270,0.0122,0.0319,0.0091
593,0.0244,0.0117,0.0287,0.0091
594,0.0223,0.0110,0.0254,0.0090
595,0.0205,0.0105,0.0224,0.0089
596,0.0191,0.0103,0.0196,0.0089
597,0.0177,0.0099,0.0157,0.0088
598,0.0176,0.0103,0.0158,0.0086
599,0.0178,0.0118,0.0171,0.0086
600,0.0182,0.0139,0.0191,0.0087
601,0.0291,0.0149,0.0174,0.0088
602,0.0189,0.0154,0.0208,0.0088
603,0.0228,0.0207,0.0219,0.0108
604,0.0197,0.0169,0.0218,0.0088
605,0.0207,0.0181,0.0223,0.0090
606,0.0217,0.0194,0.0223,0.0096
607,0.0228,0.0207,0.0219,0.0108
608,0.0240,0.0216,0.0211,0.0125
609,0.0303,0.0318,0.0210,0.0258
610,0.0286,0.0253,0.0199,0.0181
611,0.0278,0.0193,0.0190,0.0127
612,0.0195,0.0114,0.0191,0.0093
613,0.0287,0.0129,0.0169,0.0090
614,0.0168,0.0077,0.0141,0.0082
615,0.0168,0.0077,0.0141,0.0082
616,0.0168,0.0077,0.0141,0.0082
617,0.0167,0.0075,0.0132,0.0082
618,0.0167,0.0075,0.0132,0.0082
619,0.0170,0.0073,0.0147,0.0082
620,0.0176,0.0076,0.0175,0.0084
621,0.0184,0.0080,0.0202,0.0085
622,0.0194,0.0087,0.0223,0.0086
623,0.0206,0.0096,0.0235,0.0084
624,0.0278,0.0121,0.0165,0.0091
625,0.0218,0.0101,0.0241,0.0083
626,0.0232,0.0112,0.0241,0.0087
627,0.0245,0.0130,0.0237,0.0096
628,0.0259,0.0143,0.0227,0.0112
629,0.0170,0.0073,0.0147,0.0082
630,0.0294,0.0174,0.0212,0.0261
631,0.0270,0.0134,0.0206,0.0183
632,0.0254,0.0109,0.0199,0.0127
633,0.0244,0.0094,0.0189,0.0097
634,0.0238,0.0092,0.0175,0.0088
635,0.0262,0.0118,0.0165,0.0089
636,0.0230,0.0096,0.0159,0.0091
637,0.0220,0.0096,0.0146,0.0095
638,0.0205,0.0092,0.0136,0.0093
639,0.0189,0.0086,0.0131,0.0088
640,0.0174,0.0081,0.0133,0.0083
641,0.0176,0.0076,0.0175,0.0084
642,0.0177,0.0076,0.0154,0.0090
643,0.0201,0.0076,0.0169,0.0102
644,0.0233,0.0077,0.0184,0.0114
645,0.0266,0.0082,0.0197,0.0120
646,0.0241,0.0117,0.0171,0.0086
647,0.0295,0.0086,0.0209,0.0116
648,0.0318,0.0089,0.0221,0.0104
649,0.0334,0.0097,0.0235,0.0094
650,0.0344,0.0108,0.0252,0.0109
651,0.0351,0.0122,0.0269,0.0148
652,0.0361,0.0142,0.0287,0.0196
653,0.0184,0.0080,0.0202,0.0085
654,0.0168,0.0077,0.0141,0.0082
655,0.0168,0.0077,0.0141,0.0082
656,0.0168,0.0077,0.0141,0.0082
657,0.0216,0.0116,0.0179,0.0086
658,0.0168,0.0077,0.0141,0.0082
659,0.0168,0.0077,0.0141,0.0082
660,0.0168,0.0077,0.0141,0.0082
661,0.0168,0.0077,0.0141,0.0082
662,0.0168,0.0077,0.0141,0.0082
663,0.0168,0.0077,0.0141,0.0082
664,0.0168,0.0077,0.0141,0.0082
665,0.0194,0.0087,0.0223,0.0086
666,0.0168,0.0077,0.0141,0.0082
667,0.0168,0.0077,0.0141,0.0082
668,0.0187,0.0143,0.0176,0.0089
669,0.0168,0.0077,0.0141,0.0082
670,0.0168,0.0077,0.0141,0.0082
671,0.0168,0.0077,0.0141,0.0082
672,0.0168,0.0077,0.0141,0.0082
673,0.0168,0.0077,0.0141,0.0082
674,0.0168,0.0077,0.0141,0.0082
675,0.0168,0.0077,0.0141,0.0082
676,0.0168,0.0077,0.0141,0.0082
677,0.0206,0.0096,0.0235,0.0084
678,0.0168,0.0077,0.0141,0.0082
679,0.0184,0.0113,0.0206,0.0107
680,0.0168,0.0077,0.0141,0.0082
681,0.0168,0.0077,0.0141,0.0082
682,0.0168,0.0077,0.0141,0.0082
683,0.0168,0.0077,0.0141,0.0082
684,0.0168,0.0077,0.0141,0.0082
685,0.0168,0.0077,0.0141,0.0082
686,0.0168,0.0077,0.0141,0.0082
687,0.0168,0.0077,0.0141,0.0082
688,0.0168,0.0077,0.0141,0.0082
689,0.0218,0.0101,0.0241,0.0083
690,0.0190,0.0111,0.0222,0.0124
691,0.0168,0.0077,0.0141,0.0082
692,0.0168,0.0077,0.0141,0.0082
693,0.0168,0.0077,0.0141,0.0082
694,0.0168,0.0077,0.0141,0.0082
695,0.0168,0.0077,0.0141,0.0082
696,0.0427,0.0207,0.0462,0.0088
697,0.0384,0.0174,0.0427,0.0087
698,0.0344,0.0147,0.0391,0.0087
699,0.0308,0.0125,0.0356,0.0086
700,0.0206,0.0096,0.0235,0.0084
701,0.0210,0.0110,0.0234,0.0140
702,0.0232,0.0112,0.0241,0.0087
703,0.0246,0.0089,0.0285,0.0085
704,0.0221,0.0079,0.0251,0.0084
705,0.0200,0.0078,0.0218,0.0084
706,0.0184,0.0074,0.0187,0.0083
707,0.0174,0.0076,0.0160,0.0083
708,0.0167,0.0075,0.0132,0.0082
709,0.0170,0.0073,0.0147,0.0082
710,0.0176,0.0076,0.0175,0.0084
711,0.0184,0.0080,0.0202,0.0085
712,0.0238,0.0113,0.0244,0.0149
713,0.0194,0.0087,0.0223,0.0086
714,0.0245,0.0130,0.0237,0.0096
715,0.0206,0.0096,0.0235,0.0084
716,0.0218,0.0101,0.0241,0.0083
717,0.0232,0.0112,0.0241,0.0087
718,0.0245,0.0130,0.0237,0.0096
719,0.0259,0.0143,0.0227,0.0112
720,0.0294,0.0174,0.0212,0.0261
721,0.0270,0.0134,0.0206,0.0183
722,0.0254,0.0109,0.0199,0.0127
723,0.0189,0.0114,0.0174,0.0093
724,0.0267,0.0121,0.0253,0.0146
725,0.0170,0.0066,0.0123,0.0080
726,0.0170,0.0066,0.0123,0.0080
727,0.0170,0.0066,0.0123,0.0080
728,0.0173,0.0064,0.0126,0.0081
729,0.0173,0.0064,0.0126,0.0081
730,0.0179,0.0061,0.0154,0.0081
731,0.0187,0.0062,0.0188,0.0084
732,0.0198,0.0065,0.0220,0.0087
733,0.0210,0.0068,0.0243,0.0087
734,0.0224,0.0079,0.0257,0.0084
735,0.0292,0.0139,0.0258,0.0133
736,0.0238,0.0091,0.0263,0.0081
737,0.0253,0.0110,0.0263,0.0082
738,0.0268,0.0134,0.0258,0.0090
739,0.0283,0.0161,0.0247,0.0102
740,0.0179,0.0061,0.0154,0.0081
741,0.0293,0.0105,0.0221,0.0264
742,0.0264,0.0095,0.0219,0.0184
743,0.0243,0.0095,0.0214,0.0128
744,0.0229,0.0097,0.0203,0.0096
745,0.0219,0.0100,0.0188,0.0088
746,0.0312,0.0178,0.0263,0.0115
747,0.0210,0.0099,0.0170,0.0092
748,0.0199,0.0096,0.0152,0.0096
749,0.0187,0.0088,0.0136,0.0095
750,0.0174,0.0075,0.0125,0.0089
751,0.0167,0.0071,0.0120,0.0083
752,0.0187,0.0062,0.0188,0.0084
753,0.0188,0.0066,0.0133,0.0084
754,0.0217,0.0064,0.0146,0.0094
755,0.0251,0.0072,0.0161,0.0103
756,0.0284,0.0080,0.0177,0.0108
757,0.0327,0.0220,0.0272,0.0113
758,0.0312,0.0088,0.0191,0.0103
759,0.0333,0.0096,0.0207,0.0093
760,0.0346,0.0109,0.0225,0.0091
761,0.0353,0.0119,0.0245,0.0114
762,0.0357,0.0124,0.0265,0.0159
763,0.0364,0.0137,0.0285,0.0211
764,0.0198,0.0065,0.0220,0.0087
765,0.0170,0.0066,0.0123,0.0080
766,0.0170,0.0066,0.0123,0.0080
767,0.0170,0.0066,0.0123,0.0080
768,0.0340,0.0272,0.0284,0.0136
769,0.0170,0.0066,0.0123,0.0080
770,0.0170,0.0066,0.0123,0.0080
771,0.0170,0.0066,0.0123,0.0080
772,0.0170,0.0066,0.0123,0.0080
773,0.0170,0.0066,0.0123,0.0080
774,0.0170,0.0066,0.0123,0.0080
775,0.0170,0.0066,0.0123,0.0080
776,0.0210,0.0068,0.0243,0.0087
777,0.0170,0.0066,0.0123,0.0080
778,0.0170,0.0066,0.0123,0.0080
779,0.0355,0.0326,0.0298,0.0176
780,0.0170,0.0066,0.0123,0.0080
781,0.0170,0.0066,0.0123,0.0080
782,0.0170,0.0066,0.0123,0.0080
783,0.0170,0.0066,0.0123,0.0080
784,0.0170,0.0066,0.0123,0.0080
785,0.0170,0.0066,0.0123,0.0080
786,0.0170,0.0066,0.0123,0.0080
787,0.0170,0.0066,0.0123,0.0080
788,0.0224,0.0079,0.0257,0.0084
789,0.0170,0.0066,0.0123,0.0080
790,0.0189,0.0171,0.0191,0.0089
791,0.0170,0.0066,0.0123,0.0080
792,0.0170,0.0066,0.0123,0.0080
793,0.0170,0.0066,0.0123,0.0080
794,0.0170,0.0066,0.0123,0.0080
795,0.0170,0.0066,0.0123,0.0080
796,0.0170,0.0066,0.0123,0.0080
797,0.0170,0.0066,0.0123,0.0080
798,0.0170,0.0066,0.0123,0.0080
799,0.0170,0.0066,0.0123,0.0080
800,0.0238,0.0091,0.0263,0.0081
801,0.0195,0.0114,0.0191,0.0093
802,0.0170,0.0066,0.0123,0.0080
803,0.0170,0.0066,0.0123,0.0080
804,0.0170,0.0066,0.0123,0.0080
805,0.0170,0.0066,0.0123,0.0080
806,0.0170,0.0066,0.0123,0.0080
807,0.0412,0.0234,0.0443,0.0084
808,0.0369,0.0201,0.0406,0.0084
809,0.0329,0.0165,0.0370,0.0083
810,0.0293,0.0135,0.0334,0.0082
811,0.0224,0.0079,0.0257,0.0084
812,0.0195,0.0114,0.0191,0.0093
813,0.0253,0.0110,0.0263,0.0082
814,0.0232,0.0084,0.0261,0.0082
815,0.0210,0.0067,0.0226,0.0081
816,0.0191,0.0059,0.0192,0.0081
817,0.0179,0.0056,0.0162,0.0080
818,0.0172,0.0060,0.0138,0.0080
819,0.0173,0.0064,0.0126,0.0081
820,0.0179,0.0061,0.0154,0.0081
821,0.0187,0.0062,0.0188,0.0084
822,0.0198,0.0065,0.0220,0.0087
823,0.0195,0.0114,0.0191,0.0093
824,0.0210,0.0068,0.0243,0.0087
825,0.0268,0.0134,0.0258,0.0090
826,0.0224,0.0079,0.0257,0.0084
827,0.0238,0.0091,0.0263,0.0081
828,0.0253,0.0110,0.0263,0.0082
829,0.0268,0.0134,0.0258,0.0090
830,0.0283,0.0161,0.0247,0.0102
831,0.0293,0.0105,0.0221,0.0264
832,0.0264,0.0095,0.0219,0.0184
833,0.0243,0.0095,0.0214,0.0128
834,0.0189,0.0114,0.0174,0.0093
835,0.0195,0.0114,0.0191,0.0093
836,0.0174,0.0061,0.0119,0.0080
837,0.0174,0.0061,0.0119,0.0080
838,0.0174,0.0061,0.0119,0.0080
839,0.0178,0.0064,0.0127,0.0080
840,0.0178,0.0064,0.0127,0.0080
841,0.0185,0.0061,0.0161,0.0082
842,0.0195,0.0065,0.0197,0.0085
843,0.0206,0.0067,0.0230,0.0088
844,0.0220,0.0072,0.0253,0.0089
845,0.0234,0.0087,0.0267,0.0084
846,0.0195,0.0114,0.0191,0.0093
847,0.0248,0.0102,0.0274,0.0081
848,0.0264,0.0124,0.0273,0.0081
849,0.0279,0.0154,0.0269,0.0087
850,0.0295,0.0178,0.0258,0.0099
851,0.0185,0.0061,0.0161,0.0082
852,0.0294,0.0109,0.0227,0.0266
853,0.0262,0.0104,0.0226,0.0185
854,0.0240,0.0110,0.0222,0.0129
855,0.0224,0.0108,0.0211,0.0097
856,0.0213,0.0109,0.0197,0.0088
857,0.0195,0.0114,0.0191,0.0093
858,0.0203,0.0107,0.0177,0.0093
859,0.0193,0.0100,0.0158,0.0097
860,0.0182,0.0087,0.0140,0.0096
861,0.0171,0.0073,0.0127,0.0091
862,0.0167,0.0067,0.0119,0.0084
863,0.0195,0.0065,0.0197,0.0085
864,0.0194,0.0061,0.0126,0.0083
865,0.0225,0.0062,0.0139,0.0091
866,0.0259,0.0070,0.0154,0.0099
867,0.0292,0.0083,0.0170,0.0103
868,0.0195,0.0114,0.0191,0.0093
869,0.0320,0.0095,0.0185,0.0099
870,0.0339,0.0108,0.0203,0.0090
871,0.0351,0.0121,0.0222,0.0090
872,0.0357,0.0136,0.0243,0.0118
873,0.0360,0.0148,0.0264,0.0166
874,0.0365,0.0162,0.0284,0.0217
875,0.0206,0.0067,0.0230,0.0088
876,0.0174,0.0061,0.0119,0.0080
877,0.0174,0.0061,0.0119,0.0080
878,0.0174,0.0061,0.0119,0.0080
879,0.0195,0.0114,0.0191,0.0093
880,0.0174,0.0061,0.0119,0.0080
881,0.0174,0.0061,0.0119,0.0080
882,0.0174,0.0061,0.0119,0.0080
883,0.0174,0.0061,0.0119,0.0080
884,0.0174,0.0061,0.0119,0.0080
885,0.0174,0.0061,0.0119,0.0080
886,0.0174,0.0061,0.0119,0.0080
887,0.0220,0.0072,0.0253,0.0089
888,0.0174,0.0061,0.0119,0.0080
889,0.0174,0.0061,0.0119,0.0080
890,0.0195,0.0114,0.0191,0.0093
891,0.0174,0.0061,0.0119,0.0080
892,0.0174,0.0061,0.0119,0.0080
893,0.0174,0.0061,0.0119,0.0080
894,0.0174,0.0061,0.0119,0.0080
895,0.0174,0.0061,0.0119,0.0080
896,0.0174,0.0061,0.0119,0.0080
897,0.0174,0.0061,0.0119,0.0080
898,0.0174,0.0061,0.0119,0.0080
899,0.0234,0.0087,0.0267,0.0084
900,0.0174,0.0061,0.0119,0.0080
901,0.0195,0.0114,0.0191,0.0093
902,0.0174,0.0061,0.0119,0.0080
903,0.0174,0.0061,0.0119,0.0080
904,0.0174,0.0061,0.0119,0.0080
905,0.0174,0.0061,0.0119,0.0080
906,0.0174,0.0061,0.0119,0.0080
907,0.0174,0.0061,0.0119,0.0080
908,0.0174,0.0061,0.0119,0.0080
909,0.0174,0.0061,0.0119,0.0080
910,0.0174,0.0061,0.0119,0.0080
911,0.0248,0.0102,0.0274,0.0081
912,0.0194,0.0195,0.0205,0.0091
913,0.0174,0.0061,0.0119,0.0080
914,0.0174,0.0061,0.0119,0.0080
915,0.0174,0.0061,0.0119,0.0080
916,0.0174,0.0061,0.0119,0.0080
917,0.0174,0.0061,0.0119,0.0080
918,0.0406,0.0251,0.0434,0.0083
919,0.0363,0.0216,0.0397,0.0083
920,0.0324,0.0177,0.0361,0.0082
921,0.0288,0.0145,0.0325,0.0082
922,0.0234,0.0087,0.0267,0.0084
923,0.0195,0.0114,0.0191,0.0093
924,0.0264,0.0124,0.0273,0.0081
925,0.0229,0.0089,0.0251,0.0081
926,0.0207,0.0068,0.0216,0.0080
927,0.0190,0.0058,0.0183,0.0080
928,0.0179,0.0052,0.0154,0.0080
929,0.0174,0.0055,0.0130,0.0080
930,0.0178,0.0064,0.0127,0.0080
931,0.0185,0.0061,0.0161,0.0082
932,0.0195,0.0065,0.0197,0.0085
933,0.0206,0.0067,0.0230,0.0088
934,0.0195,0.0114,0.0191,0.0093
935,0.0220,0.0072,0.0253,0.0089
936,0.0279,0.0154,0.0269,0.0087
937,0.0234,0.0087,0.0267,0.0084
938,0.0248,0.0102,0.0274,0.0081
939,0.0264,0.0124,0.0273,0.0081
940,0.0279,0.0154,0.0269,0.0087
941,0.0295,0.0178,0.0258,0.0099
942,0.0294,0.0109,0.0227,0.0266
943,0.0262,0.0104,0.0226,0.0185
944,0.0240,0.0110,0.0222,0.0129
945,0.0186,0.0122,0.0169,0.0090
946,0.0195,0.0114,0.0191,0.0093
947,0.0246,0.0111,0.0158,0.0112
948,0.0246,0.0111,0.0158,0.0112
949,0.0246,0.0111,0.0158,0.0112
950,0.0228,0.0117,0.0185,0.0110
951,0.0228,0.0117,0.0185,0.0110
952,0.0214,0.0133,0.0223,0.0104
953,0.0204,0.0159,0.0260,0.0100
954,0.0197,0.0189,0.0291,0.0097
955,0.0193,0.0214,0.0312,0.0098
956,0.0192,0.0234,0.0322,0.0100
957,0.0195,0.0114,0.0191,0.0093
958,0.0194,0.0251,0.0326,0.0107
959,0.0199,0.0266,0.0323,0.0117
960,0.0206,0.0281,0.0316,0.0131
961,0.0215,0.0291,0.0303,0.0150
962,0.0214,0.0133,0.0223,0.0104
963,0.0332,0.0406,0.0241,0.0252
964,0.0335,0.0332,0.0250,0.0180
965,0.0343,0.0262,0.0252,0.0130
966,0.0352,0.0210,0.0247,0.0100
967,0.0357,0.0165,0.0236,0.0089
968,0.0195,0.0114,0.0191,0.0093
969,0.0357,0.0140,0.0220,0.0087
970,0.0349,0.0127,0.0205,0.0087
971,0.0333,0.0120,0.0191,0.0087
972,0.0308,0.0114,0.0177,0.0088
973,0.0278,0.0112,0.0165,0.0096
974,0.0204,0.0159,0.0260,0.0100
975,0.0220,0.0110,0.0156,0.0134
976,0.0204,0.0110,0.0161,0.0156
977,0.0202,0.0112,0.0171,0.0175
978,0.0213,0.0119,0.0185,0.0185
979,0.0195,0.0114,0.0191,0.0093
980,0.0230,0.0132,0.0204,0.0181
981,0.0250,0.0156,0.0225,0.0164
982,0.0271,0.0200,0.0248,0.0138
983,0.0293,0.0247,0.0273,0.0117
984,0.0321,0.0304,0.0296,0.0121
985,0.0357,0.0364,0.0319,0.0151
986,0.0197,0.0189,0.0291,0.0097
987,0.0246,0.0111,0.0158,0.0112
988,0.0246,0.0111,0.0158,0.0112
989,0.0246,0.0111,0.0158,0.0112
990,0.0195,0.0114,0.0191,0.0093
991,0.0246,0.0111,0.0158,0.0112
992,0.0246,0.0111,0.0158,0.0112
993,0.0246,0.0111,0.0158,0.0112
994,0.0246,0.0111,0.0158,0.0112
995,0.0246,0.0111,0.0158,0.0112
996,0.0246,0.0111,0.0158,0.0112
997,0.0246,0.0111,0.0158,0.0112
998,0.0193,0.0214,0.0312,0.0098
999,0.0246,0.0111,0.0158,0.0112
1000,0.0246,0.0111,0.0158,0.0112
1001,0.0195,0.0114,0.0191,0.0093
1002,0.0246,0.0111,0.0158,0.0112
1003,0.0246,0.0111,0.0158,0.0112
1004,0.0246,0.0111,0.0158,0.0112
1005,0.0246,0.0111,0.0158,0.0112
1006,0.0246,0.0111,0.0158,0.0112
1007,0.0246,0.0111,0.0158,0.0112
1008,0.0246,0.0111,0.0158,0.0112
1009,0.0246,0.0111,0.0158,0.0112
1010,0.0192,0.0234,0.0322,0.0100
1011,0.0246,0.0111,0.0158,0.0112
1012,0.0195,0.0114,0.0191,0.0093
1013,0.0246,0.0111,0.0158,0.0112
1014,0.0246,0.0111,0.0158,0.0112
1015,0.0246,0.0111,0.0158,0.0112
1016,0.0246,0.0111,0.0158,0.0112
1017,0.0246,0.0111,0.0158,0.0112
1018,0.0246,0.0111,0.0158,0.0112
1019,0.0246,0.0111,0.0158,0.0112
1020,0.0246,0.0111,0.0158,0.0112
1021,0.0246,0.0111,0.0158,0.0112
1022,0.0194,0.0251,0.0326,0.0107
1023,0.0195,0.0114,0.0191,0.0093
1024,0.0246,0.0111,0.0158,0.0112
1025,0.0246,0.0111,0.0158,0.0112
1026,0.0246,0.0111,0.0158,0.0112
1027,0.0246,0.0111,0.0158,0.0112
1028,0.0246,0.0111,0.0158,0.0112
1029,0.0625,0.0201,0.0305,0.0129
1030,0.0574,0.0179,0.0276,0.0128
1031,0.0525,0.0160,0.0248,0.0126
1032,0.0479,0.0146,0.0222,0.0125
1033,0.0192,0.0234,0.0322,0.0100
1034,0.0200,0.0216,0.0214,0.0091
1035,0.0199,0.0266,0.0323,0.0117
1036,0.0397,0.0120,0.0175,0.0121
1037,0.0360,0.0115,0.0157,0.0120
1038,0.0327,0.0110,0.0144,0.0118
1039,0.0296,0.0106,0.0139,0.0115
1040,0.0270,0.0108,0.0144,0.0114
1041,0.0228,0.0117,0.0185,0.0110
1042,0.0214,0.0133,0.0223,0.0104
1043,0.0204,0.0159,0.0260,0.0100
1044,0.0197,0.0189,0.0291,0.0097
1045,0.0195,0.0114,0.0191,0.0093
1046,0.0193,0.0214,0.0312,0.0098
1047,0.0206,0.0281,0.0316,0.0131
1048,0.0192,0.0234,0.0322,0.0100
1049,0.0194,0.0251,0.0326,0.0107
1050,0.0199,0.0266,0.0323,0.0117
1051,0.0206,0.0281,0.0316,0.0131
1052,0.0215,0.0291,0.0303,0.0150
1053,0.0332,0.0406,0.0241,0.0252
1054,0.0335,0.0332,0.0250,0.0180
1055,0.0343,0.0262,0.0252,0.0130
1056,0.0187,0.0143,0.0176,0.0089
1057,0.0195,0.0114,0.0191,0.0093
1058,0.0230,0.0096,0.0159,0.0106
1059,0.0230,0.0096,0.0159,0.0106
1060,0.0230,0.0096,0.0159,0.0106
1061,0.0212,0.0100,0.0191,0.0103
1062,0.0212,0.0100,0.0191,0.0103
1063,0.0199,0.0109,0.0232,0.0098
1064,0.0189,0.0128,0.0272,0.0094
1065,0.0183,0.0152,0.0303,0.0093
1066,0.0182,0.0167,0.0324,0.0093
1067,0.0183,0.0181,0.0335,0.0095
1068,0.0195,0.0114,0.0191,0.0093
1069,0.0188,0.0193,0.0339,0.0101
1070,0.0195,0.0206,0.0336,0.0110
1071,0.0204,0.0219,0.0329,0.0124
1072,0.0215,0.0228,0.0315,0.0143
1073,0.0199,0.0109,0.0232,0.0098
1074,0.0321,0.0321,0.0249,0.0254
1075,0.0320,0.0259,0.0259,0.0180
1076,0.0326,0.0203,0.0264,0.0129
1077,0.0333,0.0165,0.0260,0.0100
1078,0.0337,0.0134,0.0247,0.0089
1079,0.0195,0.0114,0.0191,0.0093
1080,0.0336,0.0119,0.0231,0.0087
1081,0.0328,0.0111,0.0215,0.0087
1082,0.0312,0.0106,0.0198,0.0086
1083,0.0288,0.0100,0.0183,0.0086
1084,0.0259,0.0099,0.0169,0.0092
1085,0.0189,0.0128,0.0272,0.0094
1086,0.0206,0.0096,0.0155,0.0126
1087,0.0195,0.0096,0.0158,0.0148
1088,0.0198,0.0096,0.0167,0.0165
1089,0.0212,0.0102,0.0181,0.0174
1090,0.0195,0.0114,0.0191,0.0093
1091,0.0231,0.0110,0.0201,0.0171
1092,0.0252,0.0124,0.0224,0.0153
1093,0.0272,0.0155,0.0248,0.0127
1094,0.0293,0.0192,0.0273,0.0110
1095,0.0320,0.0233,0.0298,0.0120
1096,0.0356,0.0284,0.0321,0.0155
1097,0.0183,0.0152,0.0303,0.0093
1098,0.0230,0.0096,0.0159,0.0106
1099,0.0230,0.0096,0.0159,0.0106
1100,0.0230,0.0096,0.0159,0.0106
1101,0.0195,0.0114,0.0191,0.0093
1102,0.0230,0.0096,0.0159,0.0106
1103,0.0230,0.0096,0.0159,0.0106
1104,0.0230,0.0096,0.0159,0.0106
1105,0.0230,0.0096,0.0159,0.0106
1106,0.0230,0.0096,0.0159,0.0106
1107,0.0230,0.0096,0.0159,0.0106
1108,0.0230,0.0096,0.0159,0.0106
1109,0.0182,0.0167,0.0324,0.0093
1110,0.0230,0.0096,0.0159,0.0106
1111,0.0230,0.0096,0.0159,0.0106
1112,0.0195,0.0114,0.0191,0.0093
1113,0.0230,0.0096,0.0159,0.0106
1114,0.0230,0.0096,0.0159,0.0106
1115,0.0230,0.0096,0.0159,0.0106
1116,0.0230,0.0096,0.0159,0.0106
1117,0.0230,0.0096,0.0159,0.0106
1118,0.0230,0.0096,0.0159,0.0106
1119,0.0230,0.0096,0.0159,0.0106
1120,0.0230,0.0096,0.0159,0.0106
1121,0.0183,0.0181,0.0335,0.0095
1122,0.0230,0.0096,0.0159,0.0106
1123,0.0195,0.0114,0.0191,0.0093
1124,0.0230,0.0096,0.0159,0.0106
1125,0.0230,0.0096,0.0159,0.0106
1126,0.0230,0.0096,0.0159,0.0106
1127,0.0230,0.0096,0.0159,0.0106
1128,0.0230,0.0096,0.0159,0.0106
1129,0.0230,0.0096,0.0159,0.0106
1130,0.0230,0.0096,0.0159,0.0106
1131,0.0230,0.0096,0.0159,0.0106
1132,0.0230,0.0096,0.0159,0.0106
1133,0.0188,0.0193,0.0339,0.0101
1134,0.0195,0.0114,0.0191,0.0093
1135,0.0230,0.0096,0.0159,0.0106
1136,0.0230,0.0096,0.0159,0.0106
1137,0.0230,0.0096,0.0159,0.0106
1138,0.0230,0.0096,0.0159,0.0106
1139,0.0230,0.0096,0.0159,0.0106
1140,0.0612,0.0198,0.0293,0.0124
1141,0.0560,0.0173,0.0265,0.0122
1142,0.0511,0.0151,0.0236,0.0121
1143,0.0465,0.0133,0.0209,0.0120
1144,0.0183,0.0181,0.0335,0.0095
1145,0.0195,0.0114,0.0191,0.0093
1146,0.0195,0.0206,0.0336,0.0110
1147,0.0381,0.0107,0.0162,0.0116
1148,0.0344,0.0101,0.0145,0.0114
1149,0.0310,0.0096,0.0135,0.0112
1150,0.0280,0.0093,0.0133,0.0110
1151,0.0253,0.0094,0.0142,0.0109
1152,0.0212,0.0100,0.0191,0.0103
1153,0.0199,0.0109,0.0232,0.0098
1154,0.0189,0.0128,0.0272,0.0094
1155,0.0183,0.0152,0.0303,0.0093
1156,0.0208,0.0233,0.0219,0.0095
1157,0.0182,0.0167,0.0324,0.0093
1158,0.0204,0.0219,0.0329,0.0124
1159,0.0183,0.0181,0.0335,0.0095
1160,0.0188,0.0193,0.0339,0.0101
1161,0.0195,0.0206,0.0336,0.0110
1162,0.0204,0.0219,0.0329,0.0124
1163,0.0215,0.0228,0.0315,0.0143
1164,0.0321,0.0321,0.0249,0.0254
1165,0.0320,0.0259,0.0259,0.0180
1166,0.0326,0.0203,0.0264,0.0129
1167,0.0189,0.0171,0.0191,0.0089
1168,0.0195,0.0114,0.0191,0.0093
1169,0.0203,0.0076,0.0173,0.0096
1170,0.0203,0.0076,0.0173,0.0096
1171,0.0203,0.0076,0.0173,0.0096
1172,0.0186,0.0075,0.0211,0.0094
1173,0.0186,0.0075,0.0211,0.0094
1174,0.0176,0.0075,0.0259,0.0090
1175,0.0169,0.0081,0.0301,0.0087
1176,0.0168,0.0085,0.0334,0.0085
1177,0.0171,0.0092,0.0356,0.0086
1178,0.0178,0.0103,0.0367,0.0087
1179,0.0195,0.0114,0.0191,0.0093
1180,0.0187,0.0110,0.0370,0.0091
1181,0.0199,0.0124,0.0368,0.0099
1182,0.0212,0.0143,0.0360,0.0111
1183,0.0226,0.0160,0.0346,0.0129
1184,0.0176,0.0075,0.0259,0.0090
1185,0.0301,0.0168,0.0271,0.0257
1186,0.0294,0.0134,0.0285,0.0182
1187,0.0294,0.0115,0.0292,0.0129
1188,0.0297,0.0102,0.0289,0.0099
1189,0.0300,0.0100,0.0278,0.0088
1190,0.0195,0.0114,0.0191,0.0093
1191,0.0297,0.0102,0.0260,0.0088
1192,0.0289,0.0098,0.0241,0.0088
1193,0.0273,0.0093,0.0222,0.0086
1194,0.0251,0.0085,0.0205,0.0084
1195,0.0226,0.0080,0.0187,0.0086
1196,0.0169,0.0081,0.0301,0.0087
1197,0.0187,0.0076,0.0164,0.0113
1198,0.0185,0.0077,0.0162,0.0132
1199,0.0196,0.0080,0.0168,0.0147
1200,0.0215,0.0086,0.0181,0.0155
1201,0.0195,0.0114,0.0191,0.0093
1202,0.0237,0.0091,0.0201,0.0149
1203,0.0257,0.0094,0.0226,0.0131
1204,0.0275,0.0102,0.0252,0.0107
1205,0.0295,0.0114,0.0278,0.0099
1206,0.0320,0.0129,0.0304,0.0123
1207,0.0354,0.0151,0.0328,0.0166
1208,0.0168,0.0085,0.0334,0.0085
1209,0.0203,0.0076,0.0173,0.0096
1210,0.0203,0.0076,0.0173,0.0096
1211,0.0203,0.0076,0.0173,0.0096
1212,0.0195,0.0114,0.0191,0.0093
1213,0.0203,0.0076,0.0173,0.0096
1214,0.0203,0.0076,0.0173,0.0096
1215,0.0203,0.0076,0.0173,0.0096
1216,0.0203,0.0076,0.0173,0.0096
1217,0.0203,0.0076,0.0173,0.0096
1218,0.0203,0.0076,0.0173,0.0096
1219,0.0203,0.0076,0.0173,0.0096
1220,0.0171,0.0092,0.0356,0.0086
1221,0.0203,0.0076,0.0173,0.0096
1222,0.0203,0.0076,0.0173,0.0096
1223,0.0464,0.0208,0.0503,0.0098
1224,0.0203,0.0076,0.0173,0.0096
1225,0.0203,0.0076,0.0173,0.0096
1226,0.0203,0.0076,0.0173,0.0096
1227,0.0203,0.0076,0.0173,0.0096
1228,0.0203,0.0076,0.0173,0.0096
1229,0.0203,0.0076,0.0173,0.0096
1230,0.0203,0.0076,0.0173,0.0096
1231,0.0203,0.0076,0.0173,0.0096
1232,0.0178,0.0103,0.0367,0.0087
1233,0.0203,0.0076,0.0173,0.0096
1234,0.0422,0.0190,0.0469,0.0098
1235,0.0203,0.0076,0.0173,0.0096
1236,0.0203,0.0076,0.0173,0.0096
1237,0.0203,0.0076,0.0173,0.0096
1238,0.0203,0.0076,0.0173,0.0096
1239,0.0203,0.0076,0.0173,0.0096
1240,0.0203,0.0076,0.0173,0.0096
1241,0.0203,0.0076,0.0173,0.0096
1242,0.0203,0.0076,0.0173,0.0096
1243,0.0203,0.0076,0.0173,0.0096
1244,0.0187,0.0110,0.0370,0.0091
1245,0.0383,0.0175,0.0436,0.0097
1246,0.0203,0.0076,0.0173,0.0096
1247,0.0203,0.0076,0.0173,0.0096
1248,0.0203,0.0076,0.0173,0.0096
1249,0.0203,0.0076,0.0173,0.0096
1250,0.0203,0.0076,0.0173,0.0096
1251,0.0588,0.0213,0.0271,0.0115
1252,0.0535,0.0178,0.0242,0.0114
1253,0.0485,0.0149,0.0213,0.0112
1254,0.0438,0.0125,0.0186,0.0110
1255,0.0178,0.0103,0.0367,0.0087
1256,0.0348,0.0164,0.0403,0.0097
1257,0.0199,0.0124,0.0368,0.0099
1258,0.0353,0.0085,0.0142,0.0106
1259,0.0315,0.0074,0.0129,0.0104
1260,0.0281,0.0072,0.0125,0.0102
1261,0.0250,0.0069,0.0132,0.0100
1262,0.0224,0.0073,0.0149,0.0098
1263,0.0186,0.0075,0.0211,0.0094
1264,0.0176,0.0075,0.0259,0.0090
1265,0.0169,0.0081,0.0301,0.0087
1266,0.0168,0.0085,0.0334,0.0085
1267,0.0200,0.0216,0.0214,0.0091
1268,0.0171,0.0092,0.0356,0.0086
1269,0.0212,0.0143,0.0360,0.0111
1270,0.0178,0.0103,0.0367,0.0087
1271,0.0187,0.0110,0.0370,0.0091
1272,0.0199,0.0124,0.0368,0.0099
1273,0.0212,0.0143,0.0360,0.0111
1274,0.0226,0.0160,0.0346,0.0129
1275,0.0301,0.0168,0.0271,0.0257
1276,0.0294,0.0134,0.0285,0.0182
1277,0.0294,0.0115,0.0292,0.0129
1278,0.0194,0.0195,0.0205,0.0091
1279,0.0217,0.0250,0.0218,0.0102
1280,0.0189,0.0072,0.0193,0.0090
1281,0.0189,0.0072,0.0193,0.0090
1282,0.0189,0.0072,0.0193,0.0090
1283,0.0175,0.0072,0.0234,0.0088
1284,0.0175,0.0072,0.0234,0.0088
1285,0.0167,0.0068,0.0286,0.0085
1286,0.0165,0.0071,0.0327,0.0083
1287,0.0168,0.0075,0.0361,0.0083
1288,0.0175,0.0080,0.0384,0.0084
1289,0.0185,0.0094,0.0395,0.0083
1290,0.0286,0.0141,0.0336,0.0095
1291,0.0198,0.0110,0.0398,0.0086
1292,0.0212,0.0132,0.0395,0.0092
1293,0.0228,0.0159,0.0388,0.0103
1294,0.0244,0.0190,0.0373,0.0119
1295,0.0167,0.0068,0.0286,0.0085
1296,0.0290,0.0111,0.0292,0.0260
1297,0.0278,0.0107,0.0309,0.0183
1298,0.0274,0.0111,0.0317,0.0130
1299,0.0274,0.0113,0.0314,0.0099
1300,0.0274,0.0113,0.0304,0.0088
1301,0.0260,0.0136,0.0304,0.0095
1302,0.0271,0.0111,0.0287,0.0088
1303,0.0262,0.0105,0.0267,0.0089
1304,0.0248,0.0096,0.0248,0.0086
1305,0.0228,0.0082,0.0229,0.0083
1306,0.0206,0.0077,0.0209,0.0083
1307,0.0165,0.0071,0.0327,0.0083
1308,0.0180,0.0073,0.0179,0.0104
1309,0.0185,0.0074,0.0175,0.0122
1310,0.0201,0.0084,0.0178,0.0135
1311,0.0222,0.0094,0.0188,0.0141
1312,0.0238,0.0128,0.0272,0.0094
1313,0.0244,0.0103,0.0208,0.0135
1314,0.0262,0.0111,0.0233,0.0117
1315,0.0279,0.0120,0.0259,0.0097
1316,0.0297,0.0127,0.0286,0.0097
1317,0.0320,0.0129,0.0311,0.0131
1318,0.0354,0.0138,0.0335,0.0179
1319,0.0168,0.0075,0.0361,0.0083
1320,0.0189,0.0072,0.0193,0.0090
1321,0.0189,0.0072,0.0193,0.0090
1322,0.0189,0.0072,0.0193,0.0090
1323,0.0219,0.0120,0.0242,0.0093
1324,0.0189,0.0072,0.0193,0.0090
1325,0.0189,0.0072,0.0193,0.0090
1326,0.0189,0.0072,0.0193,0.0090
1327,0.0189,0.0072,0.0193,0.0090
1328,0.0189,0.0072,0.0193,0.0090
1329,0.0189,0.0072,0.0193,0.0090
1330,0.0189,0.0072,0.0193,0.0090
1331,0.0175,0.0080,0.0384,0.0084
1332,0.0189,0.0072,0.0193,0.0090
1333,0.0189,0.0072,0.0193,0.0090
1334,0.0205,0.0118,0.0215,0.0093
1335,0.0189,0.0072,0.0193,0.0090
1336,0.0189,0.0072,0.0193,0.0090
1337,0.0189,0.0072,0.0193,0.0090
1338,0.0189,0.0072,0.0193,0.0090
1339,0.0189,0.0072,0.0193,0.0090
1340,0.0189,0.0072,0.0193,0.0090
1341,0.0189,0.0072,0.0193,0.0090
1342,0.0189,0.0072,0.0193,0.0090
1343,0.0185,0.0094,0.0395,0.0083
1344,0.0189,0.0072,0.0193,0.0090
1345,0.0189,0.0114,0.0174,0.0093
1346,0.0189,0.0072,0.0193,0.0090
1347,0.0189,0.0072,0.0193,0.0090
1348,0.0189,0.0072,0.0193,0.0090
1349,0.0189,0.0072,0.0193,0.0090
1350,0.0189,0.0072,0.0193,0.0090
1351,0.0189,0.0072,0.0193,0.0090
1352,0.0189,0.0072,0.0193,0.0090
1353,0.0189,0.0072,0.0193,0.0090
1354,0.0189,0.0072,0.0193,0.0090
1355,0.0198,0.0110,0.0398,0.0086
1356,0.0186,0.0122,0.0169,0.0090
1357,0.0189,0.0072,0.0193,0.0090
1358,0.0189,0.0072,0.0193,0.0090
1359,0.0189,0.0072,0.0193,0.0090
1360,0.0189,0.0072,0.0193,0.0090
1361,0.0189,0.0072,0.0193,0.0090
1362,0.0572,0.0234,0.0256,0.0109
1363,0.0518,0.0200,0.0227,0.0107
1364,0.0468,0.0164,0.0198,0.0106
1365,0.0421,0.0133,0.0172,0.0104
1366,0.0185,0.0094,0.0395,0.0083
1367,0.0187,0.0143,0.0176,0.0089
1368,0.0212,0.0132,0.0395,0.0092
1369,0.0335,0.0081,0.0133,0.0100
1370,0.0297,0.0064,0.0125,0.0098
1371,0.0263,0.0057,0.0128,0.0097
1372,0.0233,0.0057,0.0142,0.0094
1373,0.0208,0.0064,0.0163,0.0092
1374,0.0175,0.0072,0.0234,0.0088
1375,0.0167,0.0068,0.0286,0.0085
1376,0.0165,0.0071,0.0327,0.0083
1377,0.0168,0.0075,0.0361,0.0083
1378,0.0189,0.0171,0.0191,0.0089
1379,0.0175,0.0080,0.0384,0.0084
1380,0.0228,0.0159,0.0388,0.0103
1381,0.0185,0.0094,0.0395,0.0083
1382,0.0198,0.0110,0.0398,0.0086
1383,0.0212,0.0132,0.0395,0.0092
1384,0.0228,0.0159,0.0388,0.0103
1385,0.0244,0.0190,0.0373,0.0119
1386,0.0290,0.0111,0.0292,0.0260
1387,0.0278,0.0107,0.0309,0.0183
1388,0.0274,0.0111,0.0317,0.0130
1389,0.0200,0.0216,0.0214,0.0091
1390,0.0194,0.0195,0.0205,0.0091
1391,0.0185,0.0071,0.0202,0.0088
1392,0.0185,0.0071,0.0202,0.0088
1393,0.0185,0.0071,0.0202,0.0088
1394,0.0173,0.0074,0.0246,0.0086
1395,0.0173,0.0074,0.0246,0.0086
1396,0.0166,0.0073,0.0298,0.0084
1397,0.0166,0.0078,0.0340,0.0082
1398,0.0170,0.0082,0.0374,0.0082
1399,0.0179,0.0090,0.0396,0.0083
1400,0.0191,0.0109,0.0408,0.0083
1401,0.0227,0.0265,0.0215,0.0115
1402,0.0205,0.0127,0.0411,0.0084
1403,0.0220,0.0152,0.0408,0.0090
1404,0.0237,0.0185,0.0400,0.0100
1405,0.0253,0.0212,0.0386,0.0115
1406,0.0166,0.0073,0.0298,0.0084
1407,0.0287,0.0126,0.0302,0.0262
1408,0.0273,0.0124,0.0320,0.0185
1409,0.0266,0.0132,0.0329,0.0131
1410,0.0265,0.0128,0.0326,0.0100
1411,0.0264,0.0127,0.0317,0.0088
1412,0.0200,0.0216,0.0214,0.0091
1413,0.0262,0.0122,0.0301,0.0088
1414,0.0253,0.0112,0.0280,0.0089
1415,0.0239,0.0098,0.0261,0.0087
1416,0.0220,0.0083,0.0241,0.0083
1417,0.0200,0.0077,0.0220,0.0082
1418,0.0166,0.0078,0.0340,0.0082
1419,0.0179,0.0072,0.0188,0.0102
1420,0.0187,0.0076,0.0183,0.0118
1421,0.0204,0.0086,0.0184,0.0130
1422,0.0226,0.0103,0.0194,0.0135
1423,0.0208,0.0233,0.0219,0.0095
1424,0.0247,0.0114,0.0213,0.0129
1425,0.0265,0.0128,0.0237,0.0112
1426,0.0281,0.0138,0.0263,0.0093
1427,0.0298,0.0150,0.0290,0.0098
1428,0.0320,0.0157,0.0315,0.0136
1429,0.0354,0.0166,0.0339,0.0185
1430,0.0170,0.0082,0.0374,0.0082
1431,0.0185,0.0071,0.0202,0.0088
1432,0.0185,0.0071,0.0202,0.0088
1433,0.0185,0.0071,0.0202,0.0088
1434,0.0217,0.0250,0.0218,0.0102
1435,0.0185,0.0071,0.0202,0.0088
1436,0.0185,0.0071,0.0202,0.0088
1437,0.0185,0.0071,0.0202,0.0088
1438,0.0185,0.0071,0.0202,0.0088
1439,0.0185,0.0071,0.0202,0.0088
1440,0.0185,0.0071,0.0202,0.0088
1441,0.0185,0.0071,0.0202,0.0088
1442,0.0179,0.0090,0.0396,0.0083
1443,0.0185,0.0071,0.0202,0.0088
1444,0.0185,0.0071,0.0202,0.0088
1445,0.0227,0.0265,0.0215,0.0115
1446,0.0185,0.0071,0.0202,0.0088
1447,0.0185,0.0071,0.0202,0.0088
1448,0.0185,0.0071,0.0202,0.0088
1449,0.0185,0.0071,0.0202,0.0088
1450,0.0185,0.0071,0.0202,0.0088
1451,0.0185,0.0071,0.0202,0.0088
1452,0.0185,0.0071,0.0202,0.0088
1453,0.0185,0.0071,0.0202,0.0088
1454,0.0191,0.0109,0.0408,0.0083
1455,0.0185,0.0071,0.0202,0.0088
1456,0.0237,0.0276,0.0207,0.0133
1457,0.0185,0.0071,0.0202,0.0088
1458,0.0185,0.0071,0.0202,0.0088
1459,0.0185,0.0071,0.0202,0.0088
1460,0.0185,0.0071,0.0202,0.0088
1461,0.0185,0.0071,0.0202,0.0088
1462,0.0185,0.0071,0.0202,0.0088
1463,0.0185,0.0071,0.0202,0.0088
1464,0.0185,0.0071,0.0202,0.0088
1465,0.0185,0.0071,0.0202,0.0088
1466,0.0205,0.0127,0.0411,0.0084
1467,0.0311,0.0398,0.0213,0.0257
1468,0.0185,0.0071,0.0202,0.0088
1469,0.0185,0.0071,0.0202,0.0088
1470,0.0185,0.0071,0.0202,0.0088
1471,0.0185,0.0071,0.0202,0.0088
1472,0.0185,0.0071,0.0202,0.0088
1473,0.0565,0.0248,0.0250,0.0107
1474,0.0512,0.0212,0.0221,0.0106
1475,0.0461,0.0173,0.0193,0.0104
1476,0.0413,0.0140,0.0168,0.0102
1477,0.0191,0.0109,0.0408,0.0083
1478,0.0298,0.0320,0.0200,0.0181
1479,0.0220,0.0152,0.0408,0.0090
1480,0.0328,0.0083,0.0131,0.0098
1481,0.0290,0.0063,0.0126,0.0095
1482,0.0257,0.0055,0.0132,0.0094
1483,0.0227,0.0054,0.0148,0.0092
1484,0.0203,0.0062,0.0172,0.0090
1485,0.0173,0.0074,0.0246,0.0086
1486,0.0166,0.0073,0.0298,0.0084
1487,0.0166,0.0078,0.0340,0.0082
1488,0.0170,0.0082,0.0374,0.0082
1489,0.0293,0.0246,0.0190,0.0128
1490,0.0179,0.0090,0.0396,0.0083
1491,0.0237,0.0185,0.0400,0.0100
1492,0.0191,0.0109,0.0408,0.0083
1493,0.0205,0.0127,0.0411,0.0084
1494,0.0220,0.0152,0.0408,0.0090
1495,0.0237,0.0185,0.0400,0.0100
1496,0.0253,0.0212,0.0386,0.0115
1497,0.0287,0.0126,0.0302,0.0262
1498,0.0273,0.0124,0.0320,0.0185
1499,0.0266,0.0132,0.0329,0.0131
Highest RMSE Cases
Vdc  Max RMSE=  0.0625 at Case 1029; 12 > 0.05
Idc  Max RMSE=  0.0406 at Case 963; 0 > 0.05
Vd   Max RMSE=  0.0688 at Case 86; 20 > 0.05
Vq   Max RMSE=  0.0279 at Case 464; 0 > 0.05
Total Error Summary
Vdc  RMSE=  0.0236
Idc  RMSE=  0.0126
Vd   RMSE=  0.0242
Vq   RMSE=  0.0106
