Read Model from: ./ucf10t1s/
Export Model to: ./ucf10t1s/ucf10t1s_fhf.json
idx_in [0, 1, 2, 3, 4, 5, 6]
idx_out [7, 8, 9, 10]
make_mimo_block stable2ndx
H1s[0][0]  Real Poles: [-1070.25334088  -867.23007413] Freqs [Hz]: []
H1s[0][1]  Real Poles: [-1037.74295002 -1037.74295002] Freqs [Hz]: [26.69667070937303]
H1s[0][2]  Real Poles: [-1253.4304514   -770.60519611] Freqs [Hz]: []
H1s[0][3]  Real Poles: [-939.10768256 -939.10768256] Freqs [Hz]: [46.33029986056847]
H1s[1][0]  Real Poles: [-1217.68149751  -765.60678502] Freqs [Hz]: []
H1s[1][1]  Real Poles: [-1107.71403462 -1107.71403462] Freqs [Hz]: [35.01202262483871]
H1s[1][2]  Real Poles: [-1103.0934751 -1103.0934751] Freqs [Hz]: [46.56513728238324]
H1s[1][3]  Real Poles: [-1155.47720267  -759.56944452] Freqs [Hz]: []
H1s[2][0]  Real Poles: [-939.6433346 -939.6433346] Freqs [Hz]: [41.103599035424445]
H1s[2][1]  Real Poles: [-818.58819723 -818.58819723] Freqs [Hz]: [53.74547819434023]
H1s[2][2]  Real Poles: [-1151.73470974 -1151.73470974] Freqs [Hz]: [48.48319711188845]
H1s[2][3]  Real Poles: [-860.45461893 -860.45461893] Freqs [Hz]: [35.028561378859585]
H1s[3][0]  Real Poles: [-588.45937252 -588.45937252] Freqs [Hz]: [58.74309271373632]
H1s[3][1]  Real Poles: [-933.44490975 -933.44490975] Freqs [Hz]: [47.62754228055415]
H1s[3][2]  Real Poles: [-1104.86737157  -877.3842558 ] Freqs [Hz]: []
H1s[3][3]  Real Poles: [-894.50217038 -894.50217038] Freqs [Hz]: [50.08291345400661]
model_folder = ./ucf10t1s/
model_root = ucf10t1s
data_path = d:/data/ucf3/ucf9c.hdf5
idx_in [0, 1, 2, 3, 4, 5, 6]
idx_out [7, 8, 9, 10]
read 2100 dataframes
dt=0.001000 data_len=4001 n_io=11 n_case=2100
['G', 'Ud', 'Uq', 'Id', 'Iq', 'GIrms', 'Ctrl'] ['Vdc', 'Idc', 'Vd', 'Vq'] (2100, 4001, 11)
make_mimo_block stable2ndx
prepending initial conditions (2100, 500, 11) (2100, 4001, 11) float32 float32
results in (2100, 4501, 11)
Idx,Vdc,Idc,Vd,Vq
#,RMSE,RMSE,RMSE,RMSE
Total,0.0490,0.0435,0.0602,0.0130
0,0.0573,0.0319,0.0817,0.0075
1,0.0573,0.0319,0.0817,0.0075
2,0.0570,0.0485,0.0706,0.0083
3,0.0457,0.0643,0.0891,0.0238
4,0.0403,0.0241,0.0434,0.0058
5,0.0516,0.0238,0.0349,0.0153
6,0.0403,0.0241,0.0434,0.0058
7,0.0400,0.0271,0.0544,0.0058
8,0.0411,0.0289,0.0575,0.0122
9,0.0403,0.0241,0.0434,0.0058
10,0.0403,0.0241,0.0434,0.0058
11,0.0516,0.0238,0.0349,0.0153
12,0.0403,0.0241,0.0434,0.0058
13,0.0411,0.0289,0.0575,0.0122
14,0.0457,0.0643,0.0891,0.0238
15,0.0516,0.0238,0.0349,0.0153
16,0.0403,0.0241,0.0434,0.0058
17,0.0403,0.0241,0.0434,0.0058
18,0.0516,0.0238,0.0349,0.0153
19,0.0404,0.0300,0.0667,0.0125
20,0.0403,0.0241,0.0434,0.0058
21,0.0516,0.0238,0.0349,0.0153
22,0.0403,0.0241,0.0434,0.0058
23,0.0403,0.0241,0.0434,0.0058
24,0.0411,0.0289,0.0575,0.0122
25,0.0457,0.0643,0.0891,0.0238
26,0.1300,0.0368,0.0418,0.0179
27,0.1151,0.0348,0.0416,0.0167
28,0.1344,0.0383,0.0350,0.0229
29,0.0883,0.0311,0.0414,0.0141
30,0.0407,0.0304,0.0658,0.0127
31,0.0474,0.0256,0.0479,0.0138
32,0.0667,0.0281,0.0414,0.0115
33,0.0581,0.0269,0.0416,0.0103
34,0.0713,0.0279,0.0343,0.0177
35,0.0427,0.0277,0.0542,0.0123
36,0.0457,0.0643,0.0891,0.0238
37,0.0424,0.0244,0.0426,0.0068
38,0.0485,0.0229,0.0353,0.0147
39,0.0391,0.0246,0.0468,0.0044
40,0.0393,0.0254,0.0488,0.0045
41,0.0411,0.0308,0.0637,0.0131
42,0.0398,0.0269,0.0528,0.0057
43,0.0395,0.0265,0.0582,0.0051
44,0.0469,0.0242,0.0437,0.0135
45,0.0399,0.0271,0.0559,0.0057
46,0.0402,0.0296,0.0673,0.0124
47,0.0457,0.0643,0.0891,0.0238
48,0.0474,0.0257,0.0495,0.0138
49,0.0392,0.0260,0.0591,0.0047
50,0.0406,0.0514,0.0696,0.0150
51,0.0513,0.0484,0.0597,0.0209
52,0.0414,0.0366,0.0770,0.0151
53,0.0414,0.0366,0.0770,0.0151
54,0.0414,0.0366,0.0770,0.0151
55,0.0414,0.0366,0.0770,0.0151
56,0.0414,0.0366,0.0770,0.0151
57,0.0414,0.0366,0.0770,0.0151
58,0.0578,0.0315,0.0770,0.0069
59,0.0393,0.0363,0.0669,0.0070
60,0.0393,0.0363,0.0669,0.0070
61,0.0387,0.0385,0.0726,0.0139
62,0.0387,0.0359,0.0628,0.0069
63,0.0493,0.0400,0.0611,0.0146
64,0.0359,0.0368,0.0648,0.0135
65,0.0391,0.0381,0.0545,0.0070
66,0.0399,0.0404,0.0514,0.0074
67,0.0353,0.0371,0.0514,0.0134
68,0.0544,0.0522,0.0546,0.0163
69,0.0578,0.0315,0.0770,0.0069
70,0.0435,0.0476,0.0463,0.0089
71,0.0381,0.0438,0.0422,0.0139
72,0.0462,0.0516,0.0451,0.0101
73,0.0476,0.0533,0.0449,0.0110
74,0.0501,0.0427,0.0588,0.0149
75,0.0439,0.0849,0.0558,0.0301
76,0.0429,0.0722,0.0561,0.0274
77,0.0426,0.0640,0.0547,0.0296
78,0.0415,0.0509,0.0574,0.0214
79,0.0488,0.0462,0.0628,0.0181
80,0.0578,0.0315,0.0770,0.0069
81,0.0410,0.0387,0.0610,0.0218
82,0.0404,0.0377,0.0613,0.0110
83,0.0401,0.0373,0.0627,0.0078
84,0.0396,0.0380,0.0679,0.0147
85,0.0487,0.0376,0.0640,0.0135
86,0.0391,0.0381,0.0545,0.0070
87,0.0383,0.0377,0.0748,0.0148
88,0.0389,0.0342,0.0694,0.0108
89,0.0388,0.0341,0.0702,0.0123
90,0.0492,0.0508,0.0643,0.0190
91,0.0556,0.0320,0.0748,0.0063
92,0.0387,0.0405,0.0713,0.0142
93,0.0387,0.0490,0.0712,0.0153
94,0.0364,0.0412,0.0845,0.0197
95,0.0390,0.0742,0.0712,0.0201
96,0.0496,0.1038,0.0674,0.0295
97,0.0365,0.0814,0.0850,0.0237
98,0.0399,0.0404,0.0514,0.0074
99,0.0393,0.0363,0.0669,0.0070
100,0.0387,0.0385,0.0726,0.0139
101,0.0488,0.0375,0.0642,0.0145
102,0.0430,0.0421,0.0785,0.0132
103,0.0393,0.0363,0.0669,0.0070
104,0.0387,0.0385,0.0726,0.0139
105,0.0393,0.0363,0.0669,0.0070
106,0.0393,0.0363,0.0669,0.0070
107,0.0488,0.0375,0.0642,0.0145
108,0.0393,0.0363,0.0669,0.0070
109,0.0393,0.0363,0.0669,0.0070
110,0.0353,0.0371,0.0514,0.0134
111,0.0393,0.0363,0.0669,0.0070
112,0.0488,0.0375,0.0642,0.0145
113,0.0582,0.0503,0.0703,0.0090
114,0.0540,0.0334,0.0729,0.0058
115,0.0387,0.0385,0.0726,0.0139
116,0.0393,0.0363,0.0669,0.0070
117,0.0393,0.0363,0.0669,0.0070
118,0.0387,0.0385,0.0726,0.0139
119,0.0488,0.0375,0.0642,0.0145
120,0.0393,0.0363,0.0669,0.0070
121,0.0387,0.0385,0.0726,0.0139
122,0.0393,0.0363,0.0669,0.0070
123,0.0422,0.0453,0.0474,0.0084
124,0.0488,0.0375,0.0642,0.0145
125,0.0533,0.0356,0.0712,0.0056
126,0.0393,0.0363,0.0669,0.0070
127,0.0393,0.0363,0.0669,0.0070
128,0.0387,0.0385,0.0726,0.0139
129,0.0393,0.0363,0.0669,0.0070
130,0.0488,0.0375,0.0642,0.0145
131,0.0387,0.0385,0.0726,0.0139
132,0.0393,0.0363,0.0669,0.0070
133,0.0393,0.0363,0.0669,0.0070
134,0.0387,0.0385,0.0726,0.0139
135,0.0556,0.0542,0.0543,0.0168
136,0.0530,0.0379,0.0702,0.0057
137,0.0393,0.0363,0.0669,0.0070
138,0.0387,0.0385,0.0726,0.0139
139,0.0393,0.0363,0.0669,0.0070
140,0.0393,0.0363,0.0669,0.0070
141,0.0488,0.0375,0.0642,0.0145
142,0.0831,0.0476,0.0928,0.0156
143,0.0750,0.0461,0.0919,0.0144
144,0.0777,0.0499,0.0888,0.0191
145,0.0617,0.0433,0.0890,0.0121
146,0.0544,0.0522,0.0546,0.0163
147,0.0532,0.0399,0.0696,0.0060
148,0.0381,0.0438,0.0422,0.0139
149,0.0518,0.0408,0.0844,0.0100
150,0.0480,0.0396,0.0814,0.0092
151,0.0472,0.0422,0.0820,0.0152
152,0.0492,0.0356,0.0717,0.0145
153,0.0405,0.0368,0.0708,0.0073
154,0.0371,0.0375,0.0689,0.0137
155,0.0386,0.0362,0.0586,0.0068
156,0.0391,0.0381,0.0545,0.0070
157,0.0521,0.0479,0.0559,0.0156
158,0.0457,0.0493,0.0770,0.0144
159,0.0410,0.0429,0.0491,0.0079
160,0.0462,0.0516,0.0451,0.0101
161,0.0360,0.0392,0.0474,0.0135
162,0.0435,0.0476,0.0463,0.0089
163,0.0568,0.0559,0.0541,0.0175
164,0.0394,0.0460,0.0406,0.0141
165,0.0476,0.0533,0.0449,0.0110
166,0.0439,0.0849,0.0558,0.0301
167,0.0434,0.0793,0.0530,0.0316
168,0.0493,0.0583,0.0631,0.0239
169,0.0544,0.0430,0.0692,0.0067
170,0.0493,0.0583,0.0631,0.0239
171,0.0493,0.0583,0.0631,0.0239
172,0.0493,0.0583,0.0631,0.0239
173,0.0493,0.0583,0.0631,0.0239
174,0.0493,0.0583,0.0631,0.0239
175,0.0404,0.0359,0.0608,0.0064
176,0.0404,0.0359,0.0608,0.0064
177,0.0396,0.0385,0.0650,0.0139
178,0.0395,0.0352,0.0571,0.0061
179,0.0488,0.0372,0.0573,0.0139
180,0.0552,0.0441,0.0692,0.0072
181,0.0372,0.0367,0.0582,0.0134
182,0.0388,0.0360,0.0499,0.0061
183,0.0390,0.0374,0.0474,0.0065
184,0.0355,0.0355,0.0460,0.0133
185,0.0517,0.0458,0.0529,0.0150
186,0.0408,0.0423,0.0438,0.0075
187,0.0362,0.0396,0.0386,0.0137
188,0.0427,0.0451,0.0434,0.0083
189,0.0438,0.0463,0.0434,0.0089
190,0.0490,0.0389,0.0556,0.0142
191,0.0562,0.0450,0.0694,0.0078
192,0.0452,0.0763,0.0514,0.0261
193,0.0443,0.0647,0.0516,0.0240
194,0.0428,0.0580,0.0478,0.0257
195,0.0429,0.0463,0.0521,0.0190
196,0.0496,0.0423,0.0594,0.0177
197,0.0415,0.0368,0.0533,0.0198
198,0.0416,0.0365,0.0552,0.0102
199,0.0413,0.0365,0.0566,0.0076
200,0.0403,0.0379,0.0601,0.0144
201,0.0488,0.0360,0.0596,0.0131
202,0.0572,0.0455,0.0695,0.0087
203,0.0388,0.0360,0.0499,0.0061
204,0.0393,0.0377,0.0674,0.0146
205,0.0400,0.0335,0.0635,0.0094
206,0.0398,0.0329,0.0645,0.0106
207,0.0488,0.0457,0.0603,0.0181
208,0.0395,0.0379,0.0657,0.0126
209,0.0395,0.0453,0.0659,0.0140
210,0.0378,0.0391,0.0785,0.0183
211,0.0397,0.0683,0.0665,0.0199
212,0.0493,0.0941,0.0640,0.0297
213,0.0428,0.0440,0.0778,0.0134
214,0.0379,0.0766,0.0796,0.0234
215,0.0390,0.0374,0.0474,0.0065
216,0.0404,0.0359,0.0608,0.0064
217,0.0396,0.0385,0.0650,0.0139
218,0.0488,0.0356,0.0598,0.0138
219,0.0404,0.0359,0.0608,0.0064
220,0.0396,0.0385,0.0650,0.0139
221,0.0404,0.0359,0.0608,0.0064
222,0.0404,0.0359,0.0608,0.0064
223,0.0488,0.0356,0.0598,0.0138
224,0.0594,0.0518,0.0703,0.0098
225,0.0614,0.0835,0.0803,0.0274
226,0.0404,0.0359,0.0608,0.0064
227,0.0404,0.0359,0.0608,0.0064
228,0.0355,0.0355,0.0460,0.0133
229,0.0404,0.0359,0.0608,0.0064
230,0.0488,0.0356,0.0598,0.0138
231,0.0396,0.0385,0.0650,0.0139
232,0.0404,0.0359,0.0608,0.0064
233,0.0404,0.0359,0.0608,0.0064
234,0.0396,0.0385,0.0650,0.0139
235,0.0488,0.0356,0.0598,0.0138
236,0.0607,0.0710,0.0799,0.0249
237,0.0404,0.0359,0.0608,0.0064
238,0.0396,0.0385,0.0650,0.0139
239,0.0404,0.0359,0.0608,0.0064
240,0.0400,0.0407,0.0445,0.0073
241,0.0488,0.0356,0.0598,0.0138
242,0.0404,0.0359,0.0608,0.0064
243,0.0404,0.0359,0.0608,0.0064
244,0.0396,0.0385,0.0650,0.0139
245,0.0404,0.0359,0.0608,0.0064
246,0.0488,0.0356,0.0598,0.0138
247,0.0603,0.0596,0.0793,0.0224
248,0.0396,0.0385,0.0650,0.0139
249,0.0404,0.0359,0.0608,0.0064
250,0.0404,0.0359,0.0608,0.0064
251,0.0396,0.0385,0.0650,0.0139
252,0.0526,0.0471,0.0529,0.0154
253,0.0404,0.0359,0.0608,0.0064
254,0.0396,0.0385,0.0650,0.0139
255,0.0404,0.0359,0.0608,0.0064
256,0.0404,0.0359,0.0608,0.0064
257,0.0488,0.0356,0.0598,0.0138
258,0.0600,0.0497,0.0785,0.0195
259,0.0825,0.0477,0.0820,0.0158
260,0.0741,0.0462,0.0816,0.0145
261,0.0774,0.0501,0.0776,0.0194
262,0.0608,0.0433,0.0795,0.0121
263,0.0517,0.0458,0.0529,0.0150
264,0.0362,0.0396,0.0386,0.0137
265,0.0516,0.0408,0.0759,0.0099
266,0.0482,0.0396,0.0734,0.0090
267,0.0466,0.0423,0.0729,0.0153
268,0.0500,0.0349,0.0664,0.0138
269,0.0457,0.0469,0.0852,0.0176
270,0.0417,0.0367,0.0642,0.0068
271,0.0383,0.0375,0.0617,0.0136
272,0.0390,0.0350,0.0534,0.0060
273,0.0388,0.0360,0.0499,0.0061
274,0.0501,0.0426,0.0536,0.0146
275,0.0394,0.0390,0.0457,0.0070
276,0.0427,0.0451,0.0434,0.0083
277,0.0355,0.0367,0.0426,0.0134
278,0.0408,0.0423,0.0438,0.0075
279,0.0535,0.0485,0.0528,0.0158
280,0.0597,0.0362,0.0775,0.0136
281,0.0368,0.0410,0.0376,0.0137
282,0.0438,0.0463,0.0434,0.0089
283,0.0452,0.0763,0.0514,0.0261
284,0.0435,0.0715,0.0466,0.0274
285,0.0503,0.0522,0.0600,0.0225
286,0.0503,0.0522,0.0600,0.0225
287,0.0503,0.0522,0.0600,0.0225
288,0.0503,0.0522,0.0600,0.0225
289,0.0503,0.0522,0.0600,0.0225
290,0.0503,0.0522,0.0600,0.0225
291,0.0595,0.0333,0.0771,0.0108
292,0.0419,0.0358,0.0466,0.0056
293,0.0419,0.0358,0.0466,0.0056
294,0.0386,0.0390,0.0471,0.0140
295,0.0415,0.0346,0.0441,0.0053
296,0.0499,0.0333,0.0498,0.0133
297,0.0383,0.0368,0.0425,0.0134
298,0.0406,0.0332,0.0403,0.0055
299,0.0402,0.0333,0.0396,0.0061
300,0.0377,0.0335,0.0345,0.0133
301,0.0490,0.0367,0.0507,0.0136
302,0.0592,0.0321,0.0770,0.0084
303,0.0392,0.0349,0.0401,0.0065
304,0.0362,0.0338,0.0326,0.0138
305,0.0391,0.0362,0.0414,0.0062
306,0.0393,0.0369,0.0420,0.0062
307,0.0495,0.0338,0.0495,0.0136
308,0.0447,0.0585,0.0450,0.0175
309,0.0442,0.0497,0.0446,0.0162
310,0.0395,0.0450,0.0353,0.0187
311,0.0433,0.0372,0.0430,0.0132
312,0.0515,0.0356,0.0538,0.0160
313,0.0587,0.0317,0.0769,0.0067
314,0.0390,0.0336,0.0369,0.0159
315,0.0425,0.0347,0.0425,0.0080
316,0.0423,0.0358,0.0432,0.0066
317,0.0387,0.0382,0.0423,0.0139
318,0.0505,0.0339,0.0507,0.0128
319,0.0406,0.0332,0.0403,0.0055
320,0.0385,0.0381,0.0498,0.0144
321,0.0417,0.0327,0.0494,0.0071
322,0.0417,0.0312,0.0507,0.0078
323,0.0501,0.0372,0.0513,0.0174
324,0.0443,0.0391,0.0805,0.0126
325,0.0416,0.0333,0.0526,0.0101
326,0.0417,0.0389,0.0532,0.0124
327,0.0387,0.0351,0.0637,0.0161
328,0.0420,0.0577,0.0551,0.0206
329,0.0506,0.0770,0.0557,0.0311
330,0.0397,0.0673,0.0667,0.0241
331,0.0402,0.0333,0.0396,0.0061
332,0.0419,0.0358,0.0466,0.0056
333,0.0386,0.0390,0.0471,0.0140
334,0.0503,0.0331,0.0507,0.0131
335,0.0606,0.0529,0.0702,0.0109
336,0.0533,0.0356,0.0712,0.0056
337,0.0419,0.0358,0.0466,0.0056
338,0.0386,0.0390,0.0471,0.0140
339,0.0419,0.0358,0.0466,0.0056
340,0.0419,0.0358,0.0466,0.0056
341,0.0503,0.0331,0.0507,0.0131
342,0.0419,0.0358,0.0466,0.0056
343,0.0419,0.0358,0.0466,0.0056
344,0.0377,0.0335,0.0345,0.0133
345,0.0419,0.0358,0.0466,0.0056
346,0.0503,0.0331,0.0507,0.0131
347,0.0572,0.0317,0.0771,0.0081
348,0.0386,0.0390,0.0471,0.0140
349,0.0419,0.0358,0.0466,0.0056
350,0.0419,0.0358,0.0466,0.0056
351,0.0386,0.0390,0.0471,0.0140
352,0.0503,0.0331,0.0507,0.0131
353,0.0419,0.0358,0.0466,0.0056
354,0.0386,0.0390,0.0471,0.0140
355,0.0419,0.0358,0.0466,0.0056
356,0.0394,0.0343,0.0396,0.0066
357,0.0503,0.0331,0.0507,0.0131
358,0.0566,0.0325,0.0773,0.0093
359,0.0419,0.0358,0.0466,0.0056
360,0.0419,0.0358,0.0466,0.0056
361,0.0386,0.0390,0.0471,0.0140
362,0.0419,0.0358,0.0466,0.0056
363,0.0503,0.0331,0.0507,0.0131
364,0.0386,0.0390,0.0471,0.0140
365,0.0419,0.0358,0.0466,0.0056
366,0.0419,0.0358,0.0466,0.0056
367,0.0386,0.0390,0.0471,0.0140
368,0.0492,0.0375,0.0512,0.0136
369,0.0560,0.0345,0.0774,0.0103
370,0.0419,0.0358,0.0466,0.0056
371,0.0386,0.0390,0.0471,0.0140
372,0.0419,0.0358,0.0466,0.0056
373,0.0419,0.0358,0.0466,0.0056
374,0.0503,0.0331,0.0507,0.0131
375,0.0853,0.0485,0.0583,0.0161
376,0.0750,0.0469,0.0586,0.0148
377,0.0823,0.0512,0.0533,0.0203
378,0.0589,0.0439,0.0580,0.0123
379,0.0490,0.0367,0.0507,0.0136
380,0.0426,0.0566,0.0770,0.0175
381,0.0362,0.0338,0.0326,0.0138
382,0.0491,0.0413,0.0562,0.0099
383,0.0462,0.0401,0.0547,0.0088
384,0.0436,0.0430,0.0522,0.0157
385,0.0515,0.0343,0.0543,0.0130
386,0.0424,0.0368,0.0488,0.0062
387,0.0383,0.0378,0.0449,0.0137
388,0.0411,0.0335,0.0419,0.0052
389,0.0406,0.0332,0.0403,0.0055
390,0.0491,0.0352,0.0497,0.0138
391,0.0548,0.0454,0.0772,0.0121
392,0.0398,0.0338,0.0394,0.0065
393,0.0391,0.0362,0.0414,0.0062
394,0.0372,0.0333,0.0331,0.0135
395,0.0392,0.0349,0.0401,0.0065
396,0.0494,0.0384,0.0517,0.0137
397,0.0358,0.0343,0.0330,0.0137
398,0.0393,0.0369,0.0420,0.0062
399,0.0447,0.0585,0.0450,0.0175
400,0.0399,0.0552,0.0356,0.0197
401,0.0522,0.0408,0.0557,0.0187
402,0.0543,0.0550,0.0768,0.0137
403,0.0522,0.0408,0.0557,0.0187
404,0.0522,0.0408,0.0557,0.0187
405,0.0522,0.0408,0.0557,0.0187
406,0.0522,0.0408,0.0557,0.0187
407,0.0522,0.0408,0.0557,0.0187
408,0.0405,0.0364,0.0361,0.0054
409,0.0405,0.0364,0.0361,0.0054
410,0.0359,0.0401,0.0333,0.0142
411,0.0409,0.0348,0.0352,0.0051
412,0.0508,0.0318,0.0461,0.0134
413,0.0538,0.0670,0.0763,0.0164
414,0.0363,0.0376,0.0308,0.0135
415,0.0414,0.0324,0.0354,0.0056
416,0.0414,0.0319,0.0364,0.0064
417,0.0381,0.0330,0.0286,0.0133
418,0.0495,0.0335,0.0512,0.0135
419,0.0404,0.0323,0.0403,0.0068
420,0.0377,0.0318,0.0322,0.0139
421,0.0396,0.0333,0.0428,0.0060
422,0.0392,0.0341,0.0438,0.0056
423,0.0507,0.0317,0.0470,0.0138
424,0.0534,0.0802,0.0762,0.0203
425,0.0411,0.0449,0.0465,0.0129
426,0.0410,0.0384,0.0455,0.0116
427,0.0356,0.0353,0.0338,0.0164
428,0.0407,0.0313,0.0418,0.0094
429,0.0513,0.0321,0.0533,0.0145
430,0.0359,0.0327,0.0289,0.0144
431,0.0404,0.0346,0.0363,0.0066
432,0.0405,0.0363,0.0355,0.0059
433,0.0360,0.0395,0.0299,0.0139
434,0.0509,0.0334,0.0461,0.0128
435,0.0415,0.1078,0.0758,0.0307
436,0.0414,0.0324,0.0354,0.0056
437,0.0358,0.0390,0.0356,0.0144
438,0.0407,0.0326,0.0380,0.0059
439,0.0409,0.0305,0.0392,0.0064
440,0.0511,0.0320,0.0448,0.0179
441,0.0413,0.0302,0.0414,0.0095
442,0.0416,0.0343,0.0423,0.0128
443,0.0365,0.0320,0.0506,0.0153
444,0.0423,0.0503,0.0449,0.0224
445,0.0518,0.0655,0.0487,0.0331
446,0.0447,0.0475,0.0800,0.0142
447,0.0530,0.1086,0.0767,0.0293
448,0.0383,0.0604,0.0549,0.0259
449,0.0414,0.0319,0.0364,0.0064
450,0.0405,0.0364,0.0361,0.0054
451,0.0359,0.0401,0.0333,0.0142
452,0.0509,0.0322,0.0454,0.0130
453,0.0405,0.0364,0.0361,0.0054
454,0.0359,0.0401,0.0333,0.0142
455,0.0405,0.0364,0.0361,0.0054
456,0.0405,0.0364,0.0361,0.0054
457,0.0509,0.0322,0.0454,0.0130
458,0.0530,0.0379,0.0702,0.0057
459,0.0405,0.0364,0.0361,0.0054
460,0.0405,0.0364,0.0361,0.0054
461,0.0381,0.0330,0.0286,0.0133
462,0.0405,0.0364,0.0361,0.0054
463,0.0509,0.0322,0.0454,0.0130
464,0.0359,0.0401,0.0333,0.0142
465,0.0405,0.0364,0.0361,0.0054
466,0.0405,0.0364,0.0361,0.0054
467,0.0359,0.0401,0.0333,0.0142
468,0.0509,0.0322,0.0454,0.0130
469,0.0578,0.0315,0.0770,0.0069
470,0.0405,0.0364,0.0361,0.0054
471,0.0359,0.0401,0.0333,0.0142
472,0.0405,0.0364,0.0361,0.0054
473,0.0408,0.0320,0.0390,0.0070
474,0.0509,0.0322,0.0454,0.0130
475,0.0405,0.0364,0.0361,0.0054
476,0.0405,0.0364,0.0361,0.0054
477,0.0359,0.0401,0.0333,0.0142
478,0.0405,0.0364,0.0361,0.0054
479,0.0509,0.0322,0.0454,0.0130
480,0.0578,0.0315,0.0770,0.0069
481,0.0359,0.0401,0.0333,0.0142
482,0.0405,0.0364,0.0361,0.0054
483,0.0405,0.0364,0.0361,0.0054
484,0.0359,0.0401,0.0333,0.0142
485,0.0493,0.0344,0.0521,0.0132
486,0.0405,0.0364,0.0361,0.0054
487,0.0359,0.0401,0.0333,0.0142
488,0.0405,0.0364,0.0361,0.0054
489,0.0405,0.0364,0.0361,0.0054
490,0.0509,0.0322,0.0454,0.0130
491,0.0440,0.0400,0.0798,0.0132
492,0.0950,0.0500,0.0411,0.0163
493,0.0827,0.0484,0.0415,0.0150
494,0.0945,0.0530,0.0360,0.0209
495,0.0623,0.0452,0.0416,0.0124
496,0.0495,0.0335,0.0512,0.0135
497,0.0377,0.0318,0.0322,0.0139
498,0.0487,0.0424,0.0408,0.0100
499,0.0446,0.0411,0.0400,0.0089
500,0.0445,0.0444,0.0362,0.0161
501,0.0508,0.0345,0.0456,0.0127
502,0.0578,0.0315,0.0770,0.0069
503,0.0404,0.0375,0.0371,0.0060
504,0.0358,0.0388,0.0321,0.0138
505,0.0412,0.0333,0.0349,0.0051
506,0.0414,0.0324,0.0354,0.0056
507,0.0501,0.0323,0.0491,0.0140
508,0.0411,0.0318,0.0377,0.0069
509,0.0396,0.0333,0.0428,0.0060
510,0.0382,0.0323,0.0294,0.0136
511,0.0404,0.0323,0.0403,0.0068
512,0.0491,0.0354,0.0529,0.0130
513,0.0578,0.0315,0.0770,0.0069
514,0.0372,0.0319,0.0337,0.0139
515,0.0392,0.0341,0.0438,0.0056
516,0.0411,0.0449,0.0465,0.0129
517,0.0355,0.0429,0.0358,0.0176
518,0.0516,0.0331,0.0566,0.0159
519,0.0516,0.0331,0.0566,0.0159
520,0.0516,0.0331,0.0566,0.0159
521,0.0516,0.0331,0.0566,0.0159
522,0.0516,0.0331,0.0566,0.0159
523,0.0516,0.0331,0.0566,0.0159
524,0.0578,0.0315,0.0770,0.0069
525,0.0395,0.0369,0.0332,0.0054
526,0.0395,0.0369,0.0332,0.0054
527,0.0356,0.0409,0.0292,0.0143
528,0.0400,0.0352,0.0332,0.0050
529,0.0507,0.0316,0.0459,0.0135
530,0.0351,0.0382,0.0278,0.0135
531,0.0411,0.0325,0.0353,0.0057
532,0.0413,0.0318,0.0370,0.0065
533,0.0375,0.0333,0.0286,0.0133
534,0.0500,0.0331,0.0525,0.0136
535,0.0578,0.0315,0.0770,0.0069
536,0.0408,0.0320,0.0420,0.0070
537,0.0379,0.0316,0.0341,0.0140
538,0.0401,0.0332,0.0447,0.0062
539,0.0397,0.0341,0.0458,0.0057
540,0.0508,0.0314,0.0473,0.0139
541,0.0394,0.0395,0.0496,0.0128
542,0.0394,0.0341,0.0485,0.0111
543,0.0352,0.0319,0.0370,0.0171
544,0.0393,0.0295,0.0440,0.0088
545,0.0505,0.0314,0.0550,0.0140
546,0.0440,0.0400,0.0798,0.0132
547,0.0360,0.0331,0.0295,0.0145
548,0.0393,0.0351,0.0365,0.0064
549,0.0393,0.0369,0.0348,0.0059
550,0.0359,0.0404,0.0274,0.0141
551,0.0504,0.0335,0.0457,0.0128
552,0.0411,0.0325,0.0353,0.0057
553,0.0354,0.0397,0.0310,0.0144
554,0.0397,0.0328,0.0343,0.0056
555,0.0399,0.0305,0.0352,0.0061
556,0.0510,0.0301,0.0428,0.0184
557,0.0605,0.0915,0.0830,0.0310
558,0.0578,0.0315,0.0770,0.0069
559,0.0404,0.0291,0.0371,0.0098
560,0.0408,0.0324,0.0380,0.0134
561,0.0353,0.0308,0.0451,0.0153
562,0.0417,0.0473,0.0406,0.0234
563,0.0519,0.0610,0.0458,0.0342
564,0.0369,0.0573,0.0499,0.0269
565,0.0413,0.0318,0.0370,0.0065
566,0.0395,0.0369,0.0332,0.0054
567,0.0356,0.0409,0.0292,0.0143
568,0.0505,0.0322,0.0446,0.0130
569,0.0578,0.0315,0.0770,0.0069
570,0.0395,0.0369,0.0332,0.0054
571,0.0356,0.0409,0.0292,0.0143
572,0.0395,0.0369,0.0332,0.0054
573,0.0395,0.0369,0.0332,0.0054
574,0.0505,0.0322,0.0446,0.0130
575,0.0395,0.0369,0.0332,0.0054
576,0.0395,0.0369,0.0332,0.0054
577,0.0375,0.0333,0.0286,0.0133
578,0.0395,0.0369,0.0332,0.0054
579,0.0505,0.0322,0.0446,0.0130
580,0.0532,0.0399,0.0696,0.0060
581,0.0356,0.0409,0.0292,0.0143
582,0.0395,0.0369,0.0332,0.0054
583,0.0395,0.0369,0.0332,0.0054
584,0.0356,0.0409,0.0292,0.0143
585,0.0505,0.0322,0.0446,0.0130
586,0.0395,0.0369,0.0332,0.0054
587,0.0356,0.0409,0.0292,0.0143
588,0.0395,0.0369,0.0332,0.0054
589,0.0411,0.0317,0.0404,0.0072
590,0.0505,0.0322,0.0446,0.0130
591,0.0578,0.0315,0.0770,0.0069
592,0.0395,0.0369,0.0332,0.0054
593,0.0395,0.0369,0.0332,0.0054
594,0.0356,0.0409,0.0292,0.0143
595,0.0395,0.0369,0.0332,0.0054
596,0.0505,0.0322,0.0446,0.0130
597,0.0356,0.0409,0.0292,0.0143
598,0.0395,0.0369,0.0332,0.0054
599,0.0395,0.0369,0.0332,0.0054
600,0.0356,0.0409,0.0292,0.0143
601,0.0497,0.0341,0.0535,0.0133
602,0.0440,0.0400,0.0798,0.0132
603,0.0395,0.0369,0.0332,0.0054
604,0.0356,0.0409,0.0292,0.0143
605,0.0395,0.0369,0.0332,0.0054
606,0.0395,0.0369,0.0332,0.0054
607,0.0505,0.0322,0.0446,0.0130
608,0.1017,0.0510,0.0358,0.0163
609,0.0886,0.0493,0.0360,0.0151
610,0.1022,0.0540,0.0310,0.0212
611,0.0664,0.0461,0.0361,0.0125
612,0.0500,0.0331,0.0525,0.0136
613,0.0578,0.0315,0.0770,0.0069
614,0.0379,0.0316,0.0341,0.0140
615,0.0506,0.0432,0.0357,0.0100
616,0.0454,0.0418,0.0352,0.0089
617,0.0476,0.0453,0.0312,0.0163
618,0.0500,0.0348,0.0433,0.0126
619,0.0394,0.0381,0.0336,0.0060
620,0.0349,0.0395,0.0285,0.0138
621,0.0406,0.0335,0.0339,0.0051
622,0.0411,0.0325,0.0353,0.0057
623,0.0505,0.0319,0.0500,0.0141
624,0.0578,0.0315,0.0770,0.0069
625,0.0413,0.0316,0.0387,0.0071
626,0.0401,0.0332,0.0447,0.0062
627,0.0379,0.0323,0.0303,0.0136
628,0.0408,0.0320,0.0420,0.0070
629,0.0494,0.0353,0.0543,0.0130
630,0.0376,0.0317,0.0359,0.0140
631,0.0397,0.0341,0.0458,0.0057
632,0.0394,0.0395,0.0496,0.0128
633,0.0350,0.0382,0.0395,0.0185
634,0.0506,0.0306,0.0588,0.0151
635,0.0578,0.0315,0.0770,0.0069
636,0.0506,0.0306,0.0588,0.0151
637,0.0506,0.0306,0.0588,0.0151
638,0.0506,0.0306,0.0588,0.0151
639,0.0506,0.0306,0.0588,0.0151
640,0.0506,0.0306,0.0588,0.0151
641,0.0390,0.0522,0.0732,0.0077
642,0.0390,0.0522,0.0732,0.0077
643,0.0352,0.0582,0.0824,0.0138
644,0.0399,0.0492,0.0681,0.0079
645,0.0533,0.0413,0.0628,0.0157
646,0.0578,0.0315,0.0770,0.0069
647,0.0349,0.0538,0.0726,0.0136
648,0.0431,0.0430,0.0576,0.0086
649,0.0450,0.0413,0.0536,0.0092
650,0.0387,0.0443,0.0560,0.0140
651,0.0612,0.0447,0.0538,0.0180
652,0.0507,0.0419,0.0465,0.0113
653,0.0448,0.0403,0.0439,0.0150
654,0.0542,0.0444,0.0445,0.0129
655,0.0559,0.0460,0.0440,0.0140
656,0.0549,0.0406,0.0598,0.0161
657,0.0440,0.0400,0.0798,0.0132
658,0.0400,0.0563,0.0578,0.0267
659,0.0394,0.0460,0.0583,0.0240
660,0.0380,0.0401,0.0619,0.0276
661,0.0388,0.0361,0.0607,0.0182
662,0.0500,0.0396,0.0631,0.0157
663,0.0365,0.0412,0.0701,0.0203
664,0.0386,0.0463,0.0665,0.0088
665,0.0387,0.0499,0.0684,0.0063
666,0.0357,0.0551,0.0777,0.0141
667,0.0514,0.0451,0.0664,0.0143
668,0.0599,0.0780,0.0827,0.0281
669,0.0578,0.0315,0.0770,0.0069
670,0.0431,0.0430,0.0576,0.0086
671,0.0351,0.0575,0.0846,0.0147
672,0.0393,0.0465,0.0758,0.0110
673,0.0395,0.0417,0.0766,0.0123
674,0.0526,0.0339,0.0675,0.0197
675,0.0399,0.0316,0.0774,0.0142
676,0.0402,0.0305,0.0772,0.0156
677,0.0349,0.0298,0.0932,0.0189
678,0.0406,0.0459,0.0770,0.0218
679,0.0525,0.0745,0.0714,0.0319
680,0.0578,0.0315,0.0770,0.0069
681,0.0356,0.0515,0.0928,0.0251
682,0.0450,0.0413,0.0536,0.0092
683,0.0390,0.0522,0.0732,0.0077
684,0.0352,0.0582,0.0824,0.0138
685,0.0517,0.0431,0.0669,0.0153
686,0.0390,0.0522,0.0732,0.0077
687,0.0352,0.0582,0.0824,0.0138
688,0.0390,0.0522,0.0732,0.0077
689,0.0390,0.0522,0.0732,0.0077
690,0.0517,0.0431,0.0669,0.0153
691,0.0578,0.0315,0.0770,0.0069
692,0.0390,0.0522,0.0732,0.0077
693,0.0390,0.0522,0.0732,0.0077
694,0.0387,0.0443,0.0560,0.0140
695,0.0390,0.0522,0.0732,0.0077
696,0.0517,0.0431,0.0669,0.0153
697,0.0352,0.0582,0.0824,0.0138
698,0.0390,0.0522,0.0732,0.0077
699,0.0390,0.0522,0.0732,0.0077
700,0.0352,0.0582,0.0824,0.0138
701,0.0517,0.0431,0.0669,0.0153
702,0.0537,0.0416,0.0692,0.0063
703,0.0390,0.0522,0.0732,0.0077
704,0.0352,0.0582,0.0824,0.0138
705,0.0390,0.0522,0.0732,0.0077
706,0.0489,0.0411,0.0481,0.0105
707,0.0517,0.0431,0.0669,0.0153
708,0.0390,0.0522,0.0732,0.0077
709,0.0390,0.0522,0.0732,0.0077
710,0.0352,0.0582,0.0824,0.0138
711,0.0390,0.0522,0.0732,0.0077
712,0.0517,0.0431,0.0669,0.0153
713,0.0440,0.0400,0.0798,0.0132
714,0.0352,0.0582,0.0824,0.0138
715,0.0390,0.0522,0.0732,0.0077
716,0.0390,0.0522,0.0732,0.0077
717,0.0352,0.0582,0.0824,0.0138
718,0.0626,0.0465,0.0533,0.0187
719,0.0390,0.0522,0.0732,0.0077
720,0.0352,0.0582,0.0824,0.0138
721,0.0390,0.0522,0.0732,0.0077
722,0.0390,0.0522,0.0732,0.0077
723,0.0517,0.0431,0.0669,0.0153
724,0.0578,0.0315,0.0770,0.0069
725,0.0710,0.0682,0.1098,0.0138
726,0.0642,0.0671,0.1078,0.0127
727,0.0658,0.0702,0.1076,0.0179
728,0.0529,0.0647,0.1026,0.0107
729,0.0612,0.0447,0.0538,0.0180
730,0.0448,0.0403,0.0439,0.0150
731,0.0449,0.0620,0.0957,0.0091
732,0.0422,0.0604,0.0917,0.0085
733,0.0409,0.0635,0.0950,0.0147
734,0.0495,0.0491,0.0764,0.0150
735,0.0578,0.0315,0.0770,0.0069
736,0.0387,0.0546,0.0781,0.0076
737,0.0348,0.0561,0.0777,0.0137
738,0.0413,0.0458,0.0628,0.0082
739,0.0431,0.0430,0.0576,0.0086
740,0.0581,0.0419,0.0558,0.0170
741,0.0470,0.0408,0.0505,0.0099
742,0.0542,0.0444,0.0445,0.0129
743,0.0406,0.0419,0.0509,0.0142
744,0.0507,0.0419,0.0465,0.0113
745,0.0641,0.0484,0.0529,0.0195
746,0.0578,0.0315,0.0770,0.0069
747,0.0467,0.0407,0.0417,0.0154
748,0.0559,0.0460,0.0440,0.0140
749,0.0400,0.0563,0.0578,0.0267
750,0.0388,0.0517,0.0595,0.0295
751,0.0494,0.0399,0.0625,0.0204
752,0.0494,0.0399,0.0625,0.0204
753,0.0494,0.0399,0.0625,0.0204
754,0.0494,0.0399,0.0625,0.0204
755,0.0494,0.0399,0.0625,0.0204
756,0.0494,0.0399,0.0625,0.0204
757,0.0578,0.0315,0.0770,0.0069
758,0.0386,0.0531,0.0678,0.0065
759,0.0386,0.0531,0.0678,0.0065
760,0.0363,0.0585,0.0760,0.0137
761,0.0387,0.0503,0.0630,0.0066
762,0.0508,0.0422,0.0591,0.0146
763,0.0350,0.0547,0.0669,0.0134
764,0.0405,0.0442,0.0532,0.0071
765,0.0418,0.0423,0.0496,0.0077
766,0.0363,0.0455,0.0510,0.0136
767,0.0573,0.0431,0.0518,0.0162
768,0.0440,0.0400,0.0798,0.0132
769,0.0464,0.0414,0.0437,0.0092
770,0.0405,0.0408,0.0403,0.0142
771,0.0496,0.0430,0.0423,0.0104
772,0.0512,0.0442,0.0421,0.0113
773,0.0519,0.0412,0.0565,0.0150
774,0.0414,0.0493,0.0530,0.0238
775,0.0407,0.0406,0.0534,0.0217
776,0.0395,0.0364,0.0552,0.0246
777,0.0396,0.0348,0.0554,0.0167
778,0.0490,0.0395,0.0594,0.0159
779,0.0595,0.0653,0.0823,0.0250
780,0.0578,0.0315,0.0770,0.0069
781,0.0379,0.0419,0.0633,0.0189
782,0.0389,0.0472,0.0609,0.0088
783,0.0388,0.0509,0.0628,0.0066
784,0.0368,0.0556,0.0710,0.0140
785,0.0496,0.0462,0.0622,0.0136
786,0.0405,0.0442,0.0532,0.0071
787,0.0360,0.0577,0.0784,0.0143
788,0.0386,0.0474,0.0707,0.0092
789,0.0386,0.0427,0.0717,0.0103
790,0.0505,0.0317,0.0638,0.0189
791,0.0578,0.0315,0.0770,0.0069
792,0.0388,0.0317,0.0727,0.0126
793,0.0390,0.0290,0.0727,0.0146
794,0.0353,0.0298,0.0882,0.0177
795,0.0394,0.0404,0.0730,0.0219
796,0.0506,0.0646,0.0683,0.0325
797,0.0357,0.0471,0.0883,0.0252
798,0.0418,0.0423,0.0496,0.0077
799,0.0386,0.0531,0.0678,0.0065
800,0.0363,0.0585,0.0760,0.0137
801,0.0498,0.0442,0.0626,0.0143
802,0.0578,0.0315,0.0770,0.0069
803,0.0386,0.0531,0.0678,0.0065
804,0.0363,0.0585,0.0760,0.0137
805,0.0386,0.0531,0.0678,0.0065
806,0.0386,0.0531,0.0678,0.0065
807,0.0498,0.0442,0.0626,0.0143
808,0.0386,0.0531,0.0678,0.0065
809,0.0386,0.0531,0.0678,0.0065
810,0.0363,0.0455,0.0510,0.0136
811,0.0386,0.0531,0.0678,0.0065
812,0.0498,0.0442,0.0626,0.0143
813,0.0578,0.0315,0.0770,0.0069
814,0.0363,0.0585,0.0760,0.0137
815,0.0386,0.0531,0.0678,0.0065
816,0.0386,0.0531,0.0678,0.0065
817,0.0363,0.0585,0.0760,0.0137
818,0.0498,0.0442,0.0626,0.0143
819,0.0386,0.0531,0.0678,0.0065
820,0.0363,0.0585,0.0760,0.0137
821,0.0386,0.0531,0.0678,0.0065
822,0.0448,0.0412,0.0450,0.0087
823,0.0498,0.0442,0.0626,0.0143
824,0.0469,0.0499,0.0771,0.0149
825,0.0386,0.0531,0.0678,0.0065
826,0.0386,0.0531,0.0678,0.0065
827,0.0363,0.0585,0.0760,0.0137
828,0.0386,0.0531,0.0678,0.0065
829,0.0498,0.0442,0.0626,0.0143
830,0.0363,0.0585,0.0760,0.0137
831,0.0386,0.0531,0.0678,0.0065
832,0.0386,0.0531,0.0678,0.0065
833,0.0363,0.0585,0.0760,0.0137
834,0.0586,0.0445,0.0515,0.0167
835,0.0578,0.0315,0.0770,0.0069
836,0.0386,0.0531,0.0678,0.0065
837,0.0363,0.0585,0.0760,0.0137
838,0.0386,0.0531,0.0678,0.0065
839,0.0386,0.0531,0.0678,0.0065
840,0.0498,0.0442,0.0626,0.0143
841,0.0702,0.0673,0.1004,0.0138
842,0.0636,0.0663,0.0990,0.0127
843,0.0649,0.0695,0.0979,0.0181
844,0.0531,0.0640,0.0946,0.0105
845,0.0573,0.0431,0.0518,0.0162
846,0.0578,0.0315,0.0770,0.0069
847,0.0405,0.0408,0.0403,0.0142
848,0.0457,0.0616,0.0886,0.0086
849,0.0432,0.0602,0.0850,0.0079
850,0.0417,0.0631,0.0875,0.0146
851,0.0488,0.0502,0.0716,0.0140
852,0.0389,0.0552,0.0724,0.0066
853,0.0354,0.0567,0.0717,0.0135
854,0.0394,0.0470,0.0580,0.0068
855,0.0405,0.0442,0.0532,0.0071
856,0.0545,0.0413,0.0533,0.0156
857,0.0578,0.0315,0.0770,0.0069
858,0.0432,0.0414,0.0470,0.0082
859,0.0496,0.0430,0.0423,0.0104
860,0.0375,0.0431,0.0464,0.0137
861,0.0464,0.0414,0.0437,0.0092
862,0.0600,0.0460,0.0513,0.0173
863,0.0421,0.0407,0.0385,0.0144
864,0.0512,0.0442,0.0421,0.0113
865,0.0414,0.0493,0.0530,0.0238
866,0.0403,0.0456,0.0531,0.0262
867,0.0489,0.0370,0.0591,0.0199
868,0.0578,0.0315,0.0770,0.0069
869,0.0489,0.0370,0.0591,0.0199
870,0.0489,0.0370,0.0591,0.0199
871,0.0489,0.0370,0.0591,0.0199
872,0.0489,0.0370,0.0591,0.0199
873,0.0489,0.0370,0.0591,0.0199
874,0.0401,0.0548,0.0551,0.0052
875,0.0401,0.0548,0.0551,0.0052
876,0.0379,0.0591,0.0606,0.0136
877,0.0396,0.0524,0.0510,0.0053
878,0.0488,0.0451,0.0513,0.0138
879,0.0440,0.0400,0.0798,0.0132
880,0.0369,0.0562,0.0531,0.0133
881,0.0389,0.0471,0.0435,0.0060
882,0.0388,0.0454,0.0412,0.0066
883,0.0355,0.0484,0.0399,0.0134
884,0.0509,0.0451,0.0486,0.0141
885,0.0400,0.0442,0.0387,0.0070
886,0.0354,0.0440,0.0330,0.0138
887,0.0416,0.0455,0.0391,0.0068
888,0.0427,0.0466,0.0395,0.0070
889,0.0489,0.0440,0.0498,0.0141
890,0.0592,0.0541,0.0819,0.0217
891,0.1208,0.0408,0.0940,0.0170
892,0.0439,0.0361,0.0433,0.0169
893,0.0431,0.0317,0.0434,0.0156
894,0.0404,0.0303,0.0403,0.0186
895,0.0420,0.0343,0.0441,0.0126
896,0.0496,0.0411,0.0521,0.0154
897,0.0390,0.0442,0.0473,0.0159
898,0.0409,0.0495,0.0480,0.0078
899,0.0407,0.0530,0.0498,0.0064
900,0.0382,0.0570,0.0551,0.0137
901,0.0489,0.0489,0.0531,0.0130
902,0.1108,0.0393,0.0934,0.0159
903,0.0389,0.0471,0.0435,0.0060
904,0.0377,0.0582,0.0633,0.0138
905,0.0398,0.0491,0.0583,0.0065
906,0.0397,0.0445,0.0597,0.0075
907,0.0489,0.0306,0.0554,0.0187
908,0.0397,0.0327,0.0614,0.0109
909,0.0397,0.0280,0.0618,0.0140
910,0.0374,0.0303,0.0759,0.0161
911,0.0398,0.0322,0.0633,0.0234
912,0.0492,0.0479,0.0610,0.0345
913,0.1017,0.0378,0.0925,0.0147
914,0.0378,0.0398,0.0776,0.0267
915,0.0388,0.0454,0.0412,0.0066
916,0.0401,0.0548,0.0551,0.0052
917,0.0379,0.0591,0.0606,0.0136
918,0.0489,0.0468,0.0536,0.0134
919,0.0401,0.0548,0.0551,0.0052
920,0.0379,0.0591,0.0606,0.0136
921,0.0401,0.0548,0.0551,0.0052
922,0.0401,0.0548,0.0551,0.0052
923,0.0489,0.0468,0.0536,0.0134
924,0.0934,0.0365,0.0913,0.0135
925,0.0401,0.0548,0.0551,0.0052
926,0.0401,0.0548,0.0551,0.0052
927,0.0355,0.0484,0.0399,0.0134
928,0.0401,0.0548,0.0551,0.0052
929,0.0489,0.0468,0.0536,0.0134
930,0.0379,0.0591,0.0606,0.0136
931,0.0401,0.0548,0.0551,0.0052
932,0.0401,0.0548,0.0551,0.0052
933,0.0379,0.0591,0.0606,0.0136
934,0.0489,0.0468,0.0536,0.0134
935,0.0457,0.0493,0.0770,0.0144
936,0.0401,0.0548,0.0551,0.0052
937,0.0379,0.0591,0.0606,0.0136
938,0.0401,0.0548,0.0551,0.0052
939,0.0394,0.0441,0.0390,0.0072
940,0.0489,0.0468,0.0536,0.0134
941,0.0401,0.0548,0.0551,0.0052
942,0.0401,0.0548,0.0551,0.0052
943,0.0379,0.0591,0.0606,0.0136
944,0.0401,0.0548,0.0551,0.0052
945,0.0489,0.0468,0.0536,0.0134
946,0.0552,0.0441,0.0692,0.0072
947,0.0379,0.0591,0.0606,0.0136
948,0.0401,0.0548,0.0551,0.0052
949,0.0401,0.0548,0.0551,0.0052
950,0.0379,0.0591,0.0606,0.0136
951,0.0517,0.0462,0.0489,0.0140
952,0.0401,0.0548,0.0551,0.0052
953,0.0379,0.0591,0.0606,0.0136
954,0.0401,0.0548,0.0551,0.0052
955,0.0401,0.0548,0.0551,0.0052
956,0.0489,0.0468,0.0536,0.0134
957,0.0793,0.0342,0.0881,0.0113
958,0.0691,0.0667,0.0787,0.0139
959,0.0618,0.0655,0.0781,0.0127
960,0.0644,0.0692,0.0756,0.0187
961,0.0514,0.0633,0.0755,0.0103
962,0.0509,0.0451,0.0486,0.0141
963,0.0354,0.0440,0.0330,0.0138
964,0.0455,0.0612,0.0712,0.0082
965,0.0437,0.0601,0.0686,0.0072
966,0.0407,0.0629,0.0693,0.0147
967,0.0496,0.0520,0.0604,0.0129
968,0.0735,0.0333,0.0861,0.0103
969,0.0407,0.0563,0.0587,0.0054
970,0.0374,0.0577,0.0570,0.0134
971,0.0391,0.0495,0.0469,0.0055
972,0.0389,0.0471,0.0435,0.0060
973,0.0496,0.0437,0.0486,0.0143
974,0.0390,0.0444,0.0398,0.0070
975,0.0416,0.0455,0.0391,0.0068
976,0.0352,0.0463,0.0366,0.0136
977,0.0400,0.0442,0.0387,0.0070
978,0.0526,0.0477,0.0493,0.0141
979,0.0685,0.0325,0.0839,0.0092
980,0.0358,0.0437,0.0324,0.0138
981,0.0427,0.0466,0.0395,0.0070
982,0.0439,0.0361,0.0433,0.0169
983,0.0410,0.0344,0.0389,0.0196
984,0.0502,0.0345,0.0527,0.0178
985,0.0502,0.0345,0.0527,0.0178
986,0.0502,0.0345,0.0527,0.0178
987,0.0502,0.0345,0.0527,0.0178
988,0.0502,0.0345,0.0527,0.0178
989,0.0502,0.0345,0.0527,0.0178
990,0.0488,0.0372,0.0834,0.0136
991,0.0408,0.0562,0.0438,0.0050
992,0.0408,0.0562,0.0438,0.0050
993,0.0368,0.0603,0.0469,0.0136
994,0.0407,0.0541,0.0408,0.0051
995,0.0495,0.0477,0.0458,0.0140
996,0.0372,0.0577,0.0410,0.0133
997,0.0400,0.0497,0.0364,0.0064
998,0.0396,0.0483,0.0356,0.0072
999,0.0368,0.0508,0.0313,0.0135
1000,0.0488,0.0490,0.0477,0.0139
1001,0.0453,0.0506,0.0874,0.0180
1002,0.0606,0.0316,0.0792,0.0076
1003,0.0387,0.0480,0.0368,0.0074
1004,0.0353,0.0475,0.0294,0.0142
1005,0.0388,0.0498,0.0387,0.0063
1006,0.0391,0.0513,0.0396,0.0059
1007,0.0492,0.0469,0.0456,0.0145
1008,0.0432,0.0286,0.0386,0.0125
1009,0.0428,0.0282,0.0383,0.0114
1010,0.0378,0.0287,0.0303,0.0160
1011,0.0420,0.0362,0.0372,0.0094
1012,0.0507,0.0438,0.0484,0.0146
1013,0.0556,0.0320,0.0748,0.0063
1014,0.0369,0.0471,0.0343,0.0142
1015,0.0412,0.0519,0.0380,0.0066
1016,0.0411,0.0551,0.0391,0.0058
1017,0.0368,0.0588,0.0413,0.0136
1018,0.0499,0.0512,0.0464,0.0131
1019,0.0400,0.0497,0.0364,0.0064
1020,0.0368,0.0591,0.0497,0.0137
1021,0.0407,0.0505,0.0471,0.0057
1022,0.0408,0.0458,0.0487,0.0067
1023,0.0497,0.0318,0.0484,0.0198
1024,0.0540,0.0334,0.0729,0.0058
1025,0.0409,0.0340,0.0510,0.0113
1026,0.0409,0.0285,0.0518,0.0152
1027,0.0376,0.0312,0.0644,0.0161
1028,0.0412,0.0280,0.0543,0.0257
1029,0.0500,0.0381,0.0545,0.0369
1030,0.0388,0.0354,0.0675,0.0291
1031,0.0396,0.0483,0.0356,0.0072
1032,0.0408,0.0562,0.0438,0.0050
1033,0.0368,0.0603,0.0469,0.0136
1034,0.0498,0.0491,0.0466,0.0134
1035,0.0533,0.0356,0.0712,0.0056
1036,0.0408,0.0562,0.0438,0.0050
1037,0.0368,0.0603,0.0469,0.0136
1038,0.0408,0.0562,0.0438,0.0050
1039,0.0408,0.0562,0.0438,0.0050
1040,0.0498,0.0491,0.0466,0.0134
1041,0.0408,0.0562,0.0438,0.0050
1042,0.0408,0.0562,0.0438,0.0050
1043,0.0368,0.0508,0.0313,0.0135
1044,0.0408,0.0562,0.0438,0.0050
1045,0.0498,0.0491,0.0466,0.0134
1046,0.0438,0.0472,0.0771,0.0139
1047,0.0368,0.0603,0.0469,0.0136
1048,0.0408,0.0562,0.0438,0.0050
1049,0.0408,0.0562,0.0438,0.0050
1050,0.0368,0.0603,0.0469,0.0136
1051,0.0498,0.0491,0.0466,0.0134
1052,0.0408,0.0562,0.0438,0.0050
1053,0.0368,0.0603,0.0469,0.0136
1054,0.0408,0.0562,0.0438,0.0050
1055,0.0388,0.0476,0.0360,0.0077
1056,0.0498,0.0491,0.0466,0.0134
1057,0.0532,0.0399,0.0696,0.0060
1058,0.0408,0.0562,0.0438,0.0050
1059,0.0408,0.0562,0.0438,0.0050
1060,0.0368,0.0603,0.0469,0.0136
1061,0.0408,0.0562,0.0438,0.0050
1062,0.0498,0.0491,0.0466,0.0134
1063,0.0368,0.0603,0.0469,0.0136
1064,0.0408,0.0562,0.0438,0.0050
1065,0.0408,0.0562,0.0438,0.0050
1066,0.0368,0.0603,0.0469,0.0136
1067,0.0490,0.0505,0.0485,0.0135
1068,0.0562,0.0450,0.0694,0.0078
1069,0.0408,0.0562,0.0438,0.0050
1070,0.0368,0.0603,0.0469,0.0136
1071,0.0408,0.0562,0.0438,0.0050
1072,0.0408,0.0562,0.0438,0.0050
1073,0.0498,0.0491,0.0466,0.0134
1074,0.0724,0.0673,0.0606,0.0140
1075,0.0634,0.0661,0.0604,0.0127
1076,0.0696,0.0701,0.0574,0.0192
1077,0.0503,0.0639,0.0589,0.0102
1078,0.0488,0.0490,0.0477,0.0139
1079,0.0537,0.0416,0.0692,0.0063
1080,0.0353,0.0475,0.0294,0.0142
1081,0.0435,0.0618,0.0560,0.0079
1082,0.0420,0.0608,0.0540,0.0070
1083,0.0385,0.0638,0.0536,0.0149
1084,0.0505,0.0534,0.0507,0.0127
1085,0.0409,0.0576,0.0466,0.0051
1086,0.0371,0.0590,0.0441,0.0134
1087,0.0404,0.0516,0.0381,0.0056
1088,0.0400,0.0497,0.0364,0.0064
1089,0.0488,0.0472,0.0463,0.0145
1090,0.0544,0.0430,0.0692,0.0067
1091,0.0392,0.0476,0.0356,0.0077
1092,0.0388,0.0498,0.0387,0.0063
1093,0.0363,0.0491,0.0298,0.0138
1094,0.0387,0.0480,0.0368,0.0074
1095,0.0494,0.0523,0.0492,0.0132
1096,0.0349,0.0475,0.0301,0.0140
1097,0.0391,0.0513,0.0396,0.0059
1098,0.0432,0.0286,0.0386,0.0125
1099,0.0383,0.0283,0.0302,0.0169
1100,0.0513,0.0356,0.0500,0.0158
1101,0.0482,0.0504,0.0771,0.0155
1102,0.0513,0.0356,0.0500,0.0158
1103,0.0513,0.0356,0.0500,0.0158
1104,0.0513,0.0356,0.0500,0.0158
1105,0.0513,0.0356,0.0500,0.0158
1106,0.0513,0.0356,0.0500,0.0158
1107,0.0405,0.0571,0.0392,0.0049
1108,0.0405,0.0571,0.0392,0.0049
1109,0.0358,0.0610,0.0411,0.0136
1110,0.0406,0.0550,0.0368,0.0052
1111,0.0499,0.0489,0.0441,0.0142
1112,0.0573,0.0319,0.0817,0.0075
1113,0.0590,0.0384,0.0815,0.0149
1114,0.0562,0.0450,0.0694,0.0078
1115,0.0367,0.0586,0.0361,0.0133
1116,0.0404,0.0509,0.0341,0.0066
1117,0.0400,0.0496,0.0342,0.0076
1118,0.0371,0.0520,0.0286,0.0136
1119,0.0487,0.0510,0.0480,0.0141
1120,0.0389,0.0498,0.0370,0.0078
1121,0.0358,0.0491,0.0293,0.0143
1122,0.0386,0.0520,0.0395,0.0066
1123,0.0386,0.0536,0.0406,0.0060
1124,0.0496,0.0482,0.0445,0.0148
1125,0.0572,0.0455,0.0695,0.0087
1126,0.0422,0.0268,0.0386,0.0120
1127,0.0418,0.0281,0.0381,0.0105
1128,0.0363,0.0293,0.0284,0.0161
1129,0.0412,0.0377,0.0360,0.0085
1130,0.0508,0.0453,0.0480,0.0141
1131,0.0358,0.0487,0.0299,0.0141
1132,0.0406,0.0532,0.0347,0.0062
1133,0.0406,0.0562,0.0353,0.0057
1134,0.0357,0.0599,0.0358,0.0136
1135,0.0502,0.0523,0.0443,0.0132
1136,0.0614,0.0835,0.0803,0.0274
1137,0.0404,0.0509,0.0341,0.0066
1138,0.0359,0.0597,0.0439,0.0137
1139,0.0406,0.0512,0.0424,0.0057
1140,0.0407,0.0466,0.0439,0.0069
1141,0.0501,0.0327,0.0456,0.0205
1142,0.0409,0.0348,0.0464,0.0120
1143,0.0411,0.0290,0.0474,0.0161
1144,0.0371,0.0317,0.0592,0.0165
1145,0.0415,0.0268,0.0500,0.0270
1146,0.0505,0.0347,0.0516,0.0381
1147,0.0607,0.0710,0.0799,0.0249
1148,0.0385,0.0338,0.0628,0.0303
1149,0.0400,0.0496,0.0342,0.0076
1150,0.0405,0.0571,0.0392,0.0049
1151,0.0358,0.0610,0.0411,0.0136
1152,0.0502,0.0502,0.0443,0.0136
1153,0.0405,0.0571,0.0392,0.0049
1154,0.0358,0.0610,0.0411,0.0136
1155,0.0405,0.0571,0.0392,0.0049
1156,0.0405,0.0571,0.0392,0.0049
1157,0.0502,0.0502,0.0443,0.0136
1158,0.0464,0.0587,0.0872,0.0225
1159,0.0405,0.0571,0.0392,0.0049
1160,0.0405,0.0571,0.0392,0.0049
1161,0.0371,0.0520,0.0286,0.0136
1162,0.0405,0.0571,0.0392,0.0049
1163,0.0502,0.0502,0.0443,0.0136
1164,0.0358,0.0610,0.0411,0.0136
1165,0.0405,0.0571,0.0392,0.0049
1166,0.0405,0.0571,0.0392,0.0049
1167,0.0358,0.0610,0.0411,0.0136
1168,0.0502,0.0502,0.0443,0.0136
1169,0.0464,0.0587,0.0872,0.0225
1170,0.0405,0.0571,0.0392,0.0049
1171,0.0358,0.0610,0.0411,0.0136
1172,0.0405,0.0571,0.0392,0.0049
1173,0.0392,0.0493,0.0358,0.0081
1174,0.0502,0.0502,0.0443,0.0136
1175,0.0405,0.0571,0.0392,0.0049
1176,0.0405,0.0571,0.0392,0.0049
1177,0.0358,0.0610,0.0411,0.0136
1178,0.0405,0.0571,0.0392,0.0049
1179,0.0502,0.0502,0.0443,0.0136
1180,0.0464,0.0587,0.0872,0.0225
1181,0.0358,0.0610,0.0411,0.0136
1182,0.0405,0.0571,0.0392,0.0049
1183,0.0405,0.0571,0.0392,0.0049
1184,0.0358,0.0610,0.0411,0.0136
1185,0.0487,0.0526,0.0490,0.0136
1186,0.0405,0.0571,0.0392,0.0049
1187,0.0358,0.0610,0.0411,0.0136
1188,0.0405,0.0571,0.0392,0.0049
1189,0.0405,0.0571,0.0392,0.0049
1190,0.0502,0.0502,0.0443,0.0136
1191,0.0464,0.0587,0.0872,0.0225
1192,0.0760,0.0679,0.0532,0.0140
1193,0.0661,0.0667,0.0530,0.0128
1194,0.0743,0.0708,0.0500,0.0194
1195,0.0512,0.0645,0.0519,0.0102
1196,0.0487,0.0510,0.0480,0.0141
1197,0.0358,0.0491,0.0293,0.0143
1198,0.0431,0.0624,0.0495,0.0079
1199,0.0412,0.0614,0.0478,0.0069
1200,0.0384,0.0645,0.0470,0.0150
1201,0.0504,0.0542,0.0469,0.0127
1202,0.0464,0.0587,0.0872,0.0225
1203,0.0403,0.0583,0.0416,0.0050
1204,0.0362,0.0598,0.0387,0.0134
1205,0.0406,0.0526,0.0350,0.0057
1206,0.0404,0.0509,0.0341,0.0066
1207,0.0490,0.0488,0.0461,0.0148
1208,0.0396,0.0492,0.0349,0.0081
1209,0.0386,0.0520,0.0395,0.0066
1210,0.0367,0.0504,0.0280,0.0139
1211,0.0389,0.0498,0.0370,0.0078
1212,0.0488,0.0546,0.0499,0.0132
1213,0.0464,0.0587,0.0872,0.0225
1214,0.0353,0.0494,0.0305,0.0142
1215,0.0386,0.0536,0.0406,0.0060
1216,0.0422,0.0268,0.0386,0.0120
1217,0.0366,0.0271,0.0290,0.0173
1218,0.0513,0.0369,0.0502,0.0151
1219,0.0513,0.0369,0.0502,0.0151
1220,0.0513,0.0369,0.0502,0.0151
1221,0.0513,0.0369,0.0502,0.0151
1222,0.0513,0.0369,0.0502,0.0151
1223,0.0513,0.0369,0.0502,0.0151
1224,0.0588,0.0347,0.0814,0.0114
1225,0.0586,0.0314,0.0669,0.0062
1226,0.0586,0.0314,0.0669,0.0062
1227,0.0586,0.0314,0.0669,0.0062
1228,0.0566,0.0313,0.0661,0.0055
1229,0.0433,0.0385,0.0738,0.0126
1230,0.0550,0.0317,0.0656,0.0049
1231,0.0539,0.0327,0.0654,0.0048
1232,0.0531,0.0337,0.0658,0.0050
1233,0.0525,0.0346,0.0662,0.0053
1234,0.0413,0.0406,0.0759,0.0129
1235,0.0585,0.0329,0.0814,0.0086
1236,0.0521,0.0355,0.0674,0.0053
1237,0.0521,0.0356,0.0680,0.0053
1238,0.0523,0.0356,0.0686,0.0053
1239,0.0527,0.0353,0.0691,0.0056
1240,0.0423,0.0394,0.0741,0.0128
1241,0.0612,0.0673,0.0769,0.0200
1242,0.0608,0.0574,0.0761,0.0182
1243,0.0606,0.0486,0.0749,0.0164
1244,0.0604,0.0412,0.0734,0.0145
1245,0.0472,0.0408,0.0819,0.0161
1246,0.0582,0.0322,0.0815,0.0067
1247,0.0602,0.0326,0.0704,0.0107
1248,0.0600,0.0314,0.0692,0.0090
1249,0.0598,0.0312,0.0683,0.0076
1250,0.0595,0.0314,0.0677,0.0066
1251,0.0454,0.0372,0.0747,0.0123
1252,0.0539,0.0327,0.0654,0.0048
1253,0.0581,0.0313,0.0669,0.0065
1254,0.0576,0.0316,0.0669,0.0069
1255,0.0571,0.0329,0.0670,0.0074
1256,0.0432,0.0498,0.0707,0.0170
1257,0.0448,0.0406,0.0836,0.0131
1258,0.0559,0.0416,0.0669,0.0097
1259,0.0554,0.0497,0.0668,0.0123
1260,0.0550,0.0598,0.0668,0.0164
1261,0.0547,0.0713,0.0669,0.0213
1262,0.0421,0.0929,0.0695,0.0323
1263,0.0543,0.0959,0.0680,0.0314
1264,0.0531,0.0337,0.0658,0.0050
1265,0.0586,0.0314,0.0669,0.0062
1266,0.0586,0.0314,0.0669,0.0062
1267,0.0449,0.0376,0.0737,0.0125
1268,0.0539,0.0378,0.0743,0.0065
1269,0.0586,0.0314,0.0669,0.0062
1270,0.0586,0.0314,0.0669,0.0062
1271,0.0586,0.0314,0.0669,0.0062
1272,0.0586,0.0314,0.0669,0.0062
1273,0.0449,0.0376,0.0737,0.0125
1274,0.0586,0.0314,0.0669,0.0062
1275,0.0586,0.0314,0.0669,0.0062
1276,0.0525,0.0346,0.0662,0.0053
1277,0.0586,0.0314,0.0669,0.0062
1278,0.0449,0.0376,0.0737,0.0125
1279,0.0568,0.0322,0.0818,0.0092
1280,0.0586,0.0314,0.0669,0.0062
1281,0.0586,0.0314,0.0669,0.0062
1282,0.0586,0.0314,0.0669,0.0062
1283,0.0586,0.0314,0.0669,0.0062
1284,0.0449,0.0376,0.0737,0.0125
1285,0.0586,0.0314,0.0669,0.0062
1286,0.0586,0.0314,0.0669,0.0062
1287,0.0586,0.0314,0.0669,0.0062
1288,0.0522,0.0351,0.0667,0.0054
1289,0.0449,0.0376,0.0737,0.0125
1290,0.0562,0.0332,0.0821,0.0107
1291,0.0586,0.0314,0.0669,0.0062
1292,0.0586,0.0314,0.0669,0.0062
1293,0.0586,0.0314,0.0669,0.0062
1294,0.0586,0.0314,0.0669,0.0062
1295,0.0449,0.0376,0.0737,0.0125
1296,0.0586,0.0314,0.0669,0.0062
1297,0.0586,0.0314,0.0669,0.0062
1298,0.0586,0.0314,0.0669,0.0062
1299,0.0586,0.0314,0.0669,0.0062
1300,0.0416,0.0405,0.0764,0.0130
1301,0.0557,0.0357,0.0820,0.0120
1302,0.0586,0.0314,0.0669,0.0062
1303,0.0586,0.0314,0.0669,0.0062
1304,0.0586,0.0314,0.0669,0.0062
1305,0.0586,0.0314,0.0669,0.0062
1306,0.0449,0.0376,0.0737,0.0125
1307,0.1232,0.0417,0.0746,0.0174
1308,0.1118,0.0401,0.0746,0.0161
1309,0.1017,0.0385,0.0743,0.0149
1310,0.0927,0.0371,0.0739,0.0137
1311,0.0413,0.0406,0.0759,0.0129
1312,0.0437,0.0609,0.0800,0.0184
1313,0.0521,0.0356,0.0680,0.0053
1314,0.0782,0.0347,0.0724,0.0113
1315,0.0725,0.0338,0.0714,0.0101
1316,0.0679,0.0329,0.0703,0.0090
1317,0.0499,0.0366,0.0747,0.0127
1318,0.0611,0.0317,0.0680,0.0070
1319,0.0566,0.0313,0.0661,0.0055
1320,0.0550,0.0317,0.0656,0.0049
1321,0.0539,0.0327,0.0654,0.0048
1322,0.0412,0.0404,0.0749,0.0130
1323,0.0553,0.0328,0.0791,0.0071
1324,0.0546,0.0478,0.0817,0.0137
1325,0.0525,0.0346,0.0662,0.0053
1326,0.0523,0.0356,0.0686,0.0053
1327,0.0522,0.0351,0.0667,0.0054
1328,0.0521,0.0355,0.0674,0.0053
1329,0.0421,0.0402,0.0767,0.0131
1330,0.0523,0.0356,0.0686,0.0053
1331,0.0527,0.0353,0.0691,0.0056
1332,0.0612,0.0673,0.0769,0.0200
1333,0.0608,0.0574,0.0761,0.0182
1334,0.0481,0.0485,0.0847,0.0191
1335,0.0541,0.0582,0.0812,0.0149
1336,0.0481,0.0485,0.0847,0.0191
1337,0.0481,0.0485,0.0847,0.0191
1338,0.0481,0.0485,0.0847,0.0191
1339,0.0481,0.0485,0.0847,0.0191
1340,0.0481,0.0485,0.0847,0.0191
1341,0.0579,0.0320,0.0607,0.0060
1342,0.0579,0.0320,0.0607,0.0060
1343,0.0579,0.0320,0.0607,0.0060
1344,0.0563,0.0315,0.0611,0.0053
1345,0.0441,0.0372,0.0718,0.0127
1346,0.0537,0.0711,0.0805,0.0171
1347,0.0552,0.0315,0.0620,0.0048
1348,0.0544,0.0318,0.0631,0.0049
1349,0.0538,0.0322,0.0644,0.0054
1350,0.0532,0.0326,0.0657,0.0058
1351,0.0410,0.0375,0.0767,0.0127
1352,0.0525,0.0328,0.0680,0.0056
1353,0.0522,0.0327,0.0690,0.0053
1354,0.0520,0.0325,0.0699,0.0050
1355,0.0519,0.0322,0.0707,0.0048
1356,0.0432,0.0376,0.0729,0.0130
1357,0.0534,0.0855,0.0801,0.0204
1358,0.0591,0.0556,0.0781,0.0169
1359,0.0589,0.0478,0.0771,0.0148
1360,0.0589,0.0410,0.0753,0.0132
1361,0.0589,0.0358,0.0731,0.0116
1362,0.0471,0.0377,0.0820,0.0148
1363,0.0590,0.0312,0.0683,0.0090
1364,0.0590,0.0312,0.0661,0.0080
1365,0.0588,0.0317,0.0643,0.0072
1366,0.0586,0.0321,0.0628,0.0066
1367,0.0458,0.0366,0.0722,0.0123
1368,0.0424,0.1166,0.0786,0.0304
1369,0.0544,0.0318,0.0631,0.0049
1370,0.0575,0.0316,0.0600,0.0058
1371,0.0571,0.0315,0.0596,0.0058
1372,0.0567,0.0322,0.0594,0.0061
1373,0.0440,0.0459,0.0666,0.0177
1374,0.0558,0.0392,0.0591,0.0094
1375,0.0555,0.0462,0.0591,0.0130
1376,0.0552,0.0550,0.0592,0.0177
1377,0.0549,0.0653,0.0594,0.0232
1378,0.0432,0.0834,0.0644,0.0345
1379,0.0529,0.1158,0.0804,0.0288
1380,0.0547,0.0875,0.0605,0.0339
1381,0.0538,0.0322,0.0644,0.0054
1382,0.0579,0.0320,0.0607,0.0060
1383,0.0579,0.0320,0.0607,0.0060
1384,0.0454,0.0368,0.0707,0.0124
1385,0.0579,0.0320,0.0607,0.0060
1386,0.0579,0.0320,0.0607,0.0060
1387,0.0579,0.0320,0.0607,0.0060
1388,0.0579,0.0320,0.0607,0.0060
1389,0.0454,0.0368,0.0707,0.0124
1390,0.0542,0.0410,0.0728,0.0067
1391,0.0579,0.0320,0.0607,0.0060
1392,0.0579,0.0320,0.0607,0.0060
1393,0.0532,0.0326,0.0657,0.0058
1394,0.0579,0.0320,0.0607,0.0060
1395,0.0454,0.0368,0.0707,0.0124
1396,0.0579,0.0320,0.0607,0.0060
1397,0.0579,0.0320,0.0607,0.0060
1398,0.0579,0.0320,0.0607,0.0060
1399,0.0579,0.0320,0.0607,0.0060
1400,0.0454,0.0368,0.0707,0.0124
1401,0.0573,0.0319,0.0817,0.0075
1402,0.0579,0.0320,0.0607,0.0060
1403,0.0579,0.0320,0.0607,0.0060
1404,0.0579,0.0320,0.0607,0.0060
1405,0.0528,0.0328,0.0669,0.0058
1406,0.0454,0.0368,0.0707,0.0124
1407,0.0579,0.0320,0.0607,0.0060
1408,0.0579,0.0320,0.0607,0.0060
1409,0.0579,0.0320,0.0607,0.0060
1410,0.0579,0.0320,0.0607,0.0060
1411,0.0454,0.0368,0.0707,0.0124
1412,0.0573,0.0319,0.0817,0.0075
1413,0.0579,0.0320,0.0607,0.0060
1414,0.0579,0.0320,0.0607,0.0060
1415,0.0579,0.0320,0.0607,0.0060
1416,0.0579,0.0320,0.0607,0.0060
1417,0.0408,0.0373,0.0774,0.0126
1418,0.0579,0.0320,0.0607,0.0060
1419,0.0579,0.0320,0.0607,0.0060
1420,0.0579,0.0320,0.0607,0.0060
1421,0.0579,0.0320,0.0607,0.0060
1422,0.0454,0.0368,0.0707,0.0124
1423,0.0446,0.0417,0.0829,0.0140
1424,0.1305,0.0435,0.0625,0.0175
1425,0.1176,0.0417,0.0625,0.0163
1426,0.1058,0.0401,0.0624,0.0151
1427,0.0953,0.0386,0.0622,0.0138
1428,0.0410,0.0375,0.0767,0.0127
1429,0.0522,0.0327,0.0690,0.0053
1430,0.0784,0.0360,0.0618,0.0113
1431,0.0720,0.0349,0.0615,0.0101
1432,0.0669,0.0340,0.0611,0.0090
1433,0.0495,0.0367,0.0692,0.0124
1434,0.0443,0.0447,0.0811,0.0140
1435,0.0573,0.0319,0.0817,0.0075
1436,0.0601,0.0325,0.0607,0.0069
1437,0.0563,0.0315,0.0611,0.0053
1438,0.0552,0.0315,0.0620,0.0048
1439,0.0544,0.0318,0.0631,0.0049
1440,0.0418,0.0378,0.0750,0.0131
1441,0.0532,0.0326,0.0657,0.0058
1442,0.0520,0.0325,0.0699,0.0050
1443,0.0528,0.0328,0.0669,0.0058
1444,0.0525,0.0328,0.0680,0.0056
1445,0.0407,0.0371,0.0780,0.0125
1446,0.0573,0.0319,0.0817,0.0075
1447,0.0520,0.0325,0.0699,0.0050
1448,0.0519,0.0322,0.0707,0.0048
1449,0.0591,0.0556,0.0781,0.0169
1450,0.0589,0.0478,0.0771,0.0148
1451,0.0476,0.0421,0.0858,0.0167
1452,0.0476,0.0421,0.0858,0.0167
1453,0.0476,0.0421,0.0858,0.0167
1454,0.0476,0.0421,0.0858,0.0167
1455,0.0476,0.0421,0.0858,0.0167
1456,0.0476,0.0421,0.0858,0.0167
1457,0.0573,0.0319,0.0817,0.0075
1458,0.0574,0.0325,0.0593,0.0059
1459,0.0574,0.0325,0.0593,0.0059
1460,0.0574,0.0325,0.0593,0.0059
1461,0.0559,0.0319,0.0602,0.0052
1462,0.0441,0.0370,0.0719,0.0128
1463,0.0548,0.0317,0.0617,0.0048
1464,0.0542,0.0318,0.0633,0.0049
1465,0.0538,0.0321,0.0650,0.0055
1466,0.0534,0.0323,0.0665,0.0060
1467,0.0413,0.0371,0.0777,0.0129
1468,0.0573,0.0319,0.0817,0.0075
1469,0.0528,0.0324,0.0692,0.0059
1470,0.0525,0.0323,0.0703,0.0056
1471,0.0522,0.0322,0.0713,0.0052
1472,0.0520,0.0321,0.0721,0.0049
1473,0.0433,0.0372,0.0733,0.0132
1474,0.0582,0.0512,0.0803,0.0172
1475,0.0581,0.0442,0.0791,0.0148
1476,0.0582,0.0384,0.0772,0.0129
1477,0.0583,0.0342,0.0746,0.0113
1478,0.0465,0.0370,0.0833,0.0144
1479,0.0446,0.0417,0.0829,0.0140
1480,0.0584,0.0312,0.0690,0.0089
1481,0.0584,0.0316,0.0665,0.0079
1482,0.0583,0.0323,0.0642,0.0072
1483,0.0581,0.0328,0.0623,0.0067
1484,0.0454,0.0367,0.0721,0.0123
1485,0.0542,0.0318,0.0633,0.0049
1486,0.0570,0.0320,0.0583,0.0057
1487,0.0566,0.0317,0.0576,0.0055
1488,0.0562,0.0321,0.0571,0.0058
1489,0.0440,0.0446,0.0655,0.0182
1490,0.0573,0.0319,0.0817,0.0075
1491,0.0554,0.0383,0.0565,0.0098
1492,0.0550,0.0448,0.0564,0.0137
1493,0.0548,0.0532,0.0564,0.0187
1494,0.0546,0.0630,0.0566,0.0244
1495,0.0433,0.0799,0.0626,0.0356
1496,0.0544,0.0843,0.0575,0.0353
1497,0.0538,0.0321,0.0650,0.0055
1498,0.0574,0.0325,0.0593,0.0059
1499,0.0574,0.0325,0.0593,0.0059
1500,0.0451,0.0368,0.0704,0.0124
1501,0.0573,0.0319,0.0817,0.0075
1502,0.0574,0.0325,0.0593,0.0059
1503,0.0574,0.0325,0.0593,0.0059
1504,0.0574,0.0325,0.0593,0.0059
1505,0.0574,0.0325,0.0593,0.0059
1506,0.0451,0.0368,0.0704,0.0124
1507,0.0574,0.0325,0.0593,0.0059
1508,0.0574,0.0325,0.0593,0.0059
1509,0.0534,0.0323,0.0665,0.0060
1510,0.0574,0.0325,0.0593,0.0059
1511,0.0451,0.0368,0.0704,0.0124
1512,0.0549,0.0439,0.0717,0.0072
1513,0.0574,0.0325,0.0593,0.0059
1514,0.0574,0.0325,0.0593,0.0059
1515,0.0574,0.0325,0.0593,0.0059
1516,0.0574,0.0325,0.0593,0.0059
1517,0.0451,0.0368,0.0704,0.0124
1518,0.0574,0.0325,0.0593,0.0059
1519,0.0574,0.0325,0.0593,0.0059
1520,0.0574,0.0325,0.0593,0.0059
1521,0.0530,0.0324,0.0679,0.0061
1522,0.0451,0.0368,0.0704,0.0124
1523,0.0573,0.0319,0.0817,0.0075
1524,0.0574,0.0325,0.0593,0.0059
1525,0.0574,0.0325,0.0593,0.0059
1526,0.0574,0.0325,0.0593,0.0059
1527,0.0574,0.0325,0.0593,0.0059
1528,0.0451,0.0368,0.0704,0.0124
1529,0.0574,0.0325,0.0593,0.0059
1530,0.0574,0.0325,0.0593,0.0059
1531,0.0574,0.0325,0.0593,0.0059
1532,0.0574,0.0325,0.0593,0.0059
1533,0.0410,0.0370,0.0785,0.0126
1534,0.0446,0.0417,0.0829,0.0140
1535,0.0574,0.0325,0.0593,0.0059
1536,0.0574,0.0325,0.0593,0.0059
1537,0.0574,0.0325,0.0593,0.0059
1538,0.0574,0.0325,0.0593,0.0059
1539,0.0451,0.0368,0.0704,0.0124
1540,0.1356,0.0445,0.0593,0.0176
1541,0.1220,0.0428,0.0592,0.0164
1542,0.1095,0.0411,0.0591,0.0152
1543,0.0983,0.0396,0.0590,0.0139
1544,0.0413,0.0371,0.0777,0.0129
1545,0.0542,0.0347,0.0766,0.0067
1546,0.0573,0.0319,0.0817,0.0075
1547,0.0525,0.0323,0.0703,0.0056
1548,0.0799,0.0369,0.0588,0.0113
1549,0.0728,0.0358,0.0587,0.0101
1550,0.0672,0.0348,0.0587,0.0089
1551,0.0489,0.0370,0.0680,0.0123
1552,0.0597,0.0332,0.0589,0.0068
1553,0.0559,0.0319,0.0602,0.0052
1554,0.0548,0.0317,0.0617,0.0048
1555,0.0542,0.0318,0.0633,0.0049
1556,0.0421,0.0373,0.0758,0.0133
1557,0.0573,0.0319,0.0817,0.0075
1558,0.0534,0.0323,0.0665,0.0060
1559,0.0522,0.0322,0.0713,0.0052
1560,0.0530,0.0324,0.0679,0.0061
1561,0.0528,0.0324,0.0692,0.0059
1562,0.0408,0.0369,0.0791,0.0124
1563,0.0522,0.0322,0.0713,0.0052
1564,0.0520,0.0321,0.0721,0.0049
1565,0.0582,0.0512,0.0803,0.0172
1566,0.0581,0.0442,0.0791,0.0148
1567,0.0469,0.0401,0.0874,0.0161
1568,0.0573,0.0319,0.0817,0.0075
1569,0.0469,0.0401,0.0874,0.0161
1570,0.0469,0.0401,0.0874,0.0161
1571,0.0469,0.0401,0.0874,0.0161
1572,0.0469,0.0401,0.0874,0.0161
1573,0.0469,0.0401,0.0874,0.0161
1574,0.0418,0.0316,0.0685,0.0068
1575,0.0418,0.0316,0.0685,0.0068
1576,0.0533,0.0267,0.0698,0.0146
1577,0.0397,0.0340,0.0658,0.0064
1578,0.0393,0.0479,0.0686,0.0137
1579,0.0573,0.0319,0.0817,0.0075
1580,0.0486,0.0291,0.0640,0.0139
1581,0.0378,0.0423,0.0604,0.0057
1582,0.0379,0.0465,0.0585,0.0059
1583,0.0456,0.0389,0.0548,0.0134
1584,0.0432,0.0615,0.0650,0.0151
1585,0.0403,0.0557,0.0558,0.0072
1586,0.0465,0.0509,0.0495,0.0137
1587,0.0426,0.0593,0.0554,0.0084
1588,0.0438,0.0606,0.0553,0.0093
1589,0.0395,0.0517,0.0673,0.0138
1590,0.0446,0.0417,0.0829,0.0140
1591,0.0472,0.1012,0.0671,0.0315
1592,0.0462,0.0876,0.0669,0.0288
1593,0.0561,0.0776,0.0607,0.0305
1594,0.0449,0.0626,0.0664,0.0225
1595,0.0413,0.0566,0.0738,0.0190
1596,0.0556,0.0416,0.0628,0.0226
1597,0.0437,0.0386,0.0666,0.0118
1598,0.0433,0.0350,0.0670,0.0085
1599,0.0544,0.0288,0.0667,0.0155
1600,0.0400,0.0421,0.0711,0.0127
1601,0.0573,0.0319,0.0817,0.0075
1602,0.0378,0.0423,0.0604,0.0057
1603,0.0527,0.0263,0.0714,0.0155
1604,0.0406,0.0343,0.0699,0.0106
1605,0.0401,0.0383,0.0703,0.0121
1606,0.0392,0.0663,0.0687,0.0181
1607,0.0392,0.0531,0.0707,0.0140
1608,0.0388,0.0645,0.0704,0.0149
1609,0.0488,0.0540,0.0792,0.0202
1610,0.0384,0.0930,0.0700,0.0192
1611,0.0391,0.1237,0.0691,0.0282
1612,0.0573,0.0319,0.0817,0.0075
1613,0.0477,0.1006,0.0796,0.0233
1614,0.0379,0.0465,0.0585,0.0059
1615,0.0418,0.0316,0.0685,0.0068
1616,0.0533,0.0267,0.0698,0.0146
1617,0.0398,0.0435,0.0707,0.0136
1618,0.0418,0.0316,0.0685,0.0068
1619,0.0533,0.0267,0.0698,0.0146
1620,0.0418,0.0316,0.0685,0.0068
1621,0.0418,0.0316,0.0685,0.0068
1622,0.0398,0.0435,0.0707,0.0136
1623,0.0573,0.0319,0.0817,0.0075
1624,0.0418,0.0316,0.0685,0.0068
1625,0.0418,0.0316,0.0685,0.0068
1626,0.0456,0.0389,0.0548,0.0134
1627,0.0418,0.0316,0.0685,0.0068
1628,0.0398,0.0435,0.0707,0.0136
1629,0.0533,0.0267,0.0698,0.0146
1630,0.0418,0.0316,0.0685,0.0068
1631,0.0418,0.0316,0.0685,0.0068
1632,0.0533,0.0267,0.0698,0.0146
1633,0.0398,0.0435,0.0707,0.0136
1634,0.0559,0.0464,0.0710,0.0077
1635,0.0418,0.0316,0.0685,0.0068
1636,0.0533,0.0267,0.0698,0.0146
1637,0.0418,0.0316,0.0685,0.0068
1638,0.0393,0.0531,0.0563,0.0068
1639,0.0398,0.0435,0.0707,0.0136
1640,0.0418,0.0316,0.0685,0.0068
1641,0.0418,0.0316,0.0685,0.0068
1642,0.0533,0.0267,0.0698,0.0146
1643,0.0418,0.0316,0.0685,0.0068
1644,0.0398,0.0435,0.0707,0.0136
1645,0.0446,0.0417,0.0829,0.0140
1646,0.0533,0.0267,0.0698,0.0146
1647,0.0418,0.0316,0.0685,0.0068
1648,0.0418,0.0316,0.0685,0.0068
1649,0.0533,0.0267,0.0698,0.0146
1650,0.0444,0.0630,0.0648,0.0156
1651,0.0418,0.0316,0.0685,0.0068
1652,0.0533,0.0267,0.0698,0.0146
1653,0.0418,0.0316,0.0685,0.0068
1654,0.0418,0.0316,0.0685,0.0068
1655,0.0398,0.0435,0.0707,0.0136
1656,0.0539,0.0378,0.0743,0.0065
1657,0.0573,0.0319,0.0817,0.0075
1658,0.1049,0.0332,0.0871,0.0170
1659,0.0949,0.0317,0.0868,0.0158
1660,0.1044,0.0334,0.0809,0.0205
1661,0.0775,0.0294,0.0849,0.0133
1662,0.0432,0.0615,0.0650,0.0151
1663,0.0465,0.0509,0.0495,0.0137
1664,0.0634,0.0281,0.0815,0.0111
1665,0.0576,0.0279,0.0794,0.0101
1666,0.0656,0.0267,0.0767,0.0163
1667,0.0433,0.0363,0.0756,0.0141
1668,0.0573,0.0319,0.0817,0.0075
1669,0.0446,0.0299,0.0714,0.0075
1670,0.0506,0.0276,0.0670,0.0142
1671,0.0383,0.0375,0.0631,0.0059
1672,0.0378,0.0423,0.0604,0.0057
1673,0.0410,0.0575,0.0656,0.0144
1674,0.0384,0.0502,0.0572,0.0063
1675,0.0426,0.0593,0.0554,0.0084
1676,0.0456,0.0436,0.0523,0.0135
1677,0.0403,0.0557,0.0558,0.0072
1678,0.0457,0.0642,0.0647,0.0162
1679,0.0573,0.0319,0.0817,0.0075
1680,0.0472,0.0535,0.0488,0.0138
1681,0.0438,0.0606,0.0553,0.0093
1682,0.0472,0.1012,0.0671,0.0315
1683,0.0565,0.0946,0.0603,0.0326
1684,0.0423,0.0723,0.0753,0.0251
1685,0.0423,0.0723,0.0753,0.0251
1686,0.0423,0.0723,0.0753,0.0251
1687,0.0423,0.0723,0.0753,0.0251
1688,0.0423,0.0723,0.0753,0.0251
1689,0.0423,0.0723,0.0753,0.0251
1690,0.0573,0.0319,0.0817,0.0075
1691,0.0428,0.0299,0.0627,0.0064
1692,0.0428,0.0299,0.0627,0.0064
1693,0.0535,0.0258,0.0621,0.0147
1694,0.0408,0.0318,0.0605,0.0058
1695,0.0394,0.0438,0.0655,0.0131
1696,0.0494,0.0275,0.0574,0.0139
1697,0.0383,0.0386,0.0564,0.0050
1698,0.0379,0.0419,0.0553,0.0052
1699,0.0462,0.0356,0.0500,0.0134
1700,0.0406,0.0538,0.0638,0.0140
1701,0.0446,0.0417,0.0829,0.0140
1702,0.0385,0.0488,0.0540,0.0061
1703,0.0458,0.0450,0.0468,0.0136
1704,0.0398,0.0513,0.0542,0.0069
1705,0.0407,0.0519,0.0544,0.0075
1706,0.0391,0.0466,0.0647,0.0132
1707,0.0477,0.0920,0.0641,0.0271
1708,0.0469,0.0794,0.0638,0.0249
1709,0.0555,0.0707,0.0554,0.0265
1710,0.0457,0.0569,0.0624,0.0197
1711,0.0425,0.0514,0.0712,0.0182
1712,0.0573,0.0319,0.0817,0.0075
1713,0.0553,0.0377,0.0560,0.0203
1714,0.0447,0.0356,0.0614,0.0107
1715,0.0443,0.0325,0.0615,0.0080
1716,0.0544,0.0274,0.0591,0.0151
1717,0.0407,0.0391,0.0673,0.0124
1718,0.0383,0.0386,0.0564,0.0050
1719,0.0529,0.0254,0.0638,0.0154
1720,0.0417,0.0323,0.0640,0.0094
1721,0.0412,0.0358,0.0646,0.0106
1722,0.0395,0.0609,0.0651,0.0172
1723,0.0573,0.0319,0.0817,0.0075
1724,0.0403,0.0498,0.0651,0.0123
1725,0.0399,0.0605,0.0651,0.0134
1726,0.0496,0.0513,0.0726,0.0189
1727,0.0395,0.0870,0.0652,0.0187
1728,0.0395,0.1144,0.0657,0.0283
1729,0.0487,0.0957,0.0738,0.0229
1730,0.0379,0.0419,0.0553,0.0052
1731,0.0428,0.0299,0.0627,0.0064
1732,0.0535,0.0258,0.0621,0.0147
1733,0.0404,0.0404,0.0668,0.0130
1734,0.0573,0.0319,0.0817,0.0075
1735,0.0428,0.0299,0.0627,0.0064
1736,0.0535,0.0258,0.0621,0.0147
1737,0.0428,0.0299,0.0627,0.0064
1738,0.0428,0.0299,0.0627,0.0064
1739,0.0404,0.0404,0.0668,0.0130
1740,0.0428,0.0299,0.0627,0.0064
1741,0.0428,0.0299,0.0627,0.0064
1742,0.0462,0.0356,0.0500,0.0134
1743,0.0428,0.0299,0.0627,0.0064
1744,0.0404,0.0404,0.0668,0.0130
1745,0.0573,0.0319,0.0817,0.0075
1746,0.0535,0.0258,0.0621,0.0147
1747,0.0428,0.0299,0.0627,0.0064
1748,0.0428,0.0299,0.0627,0.0064
1749,0.0535,0.0258,0.0621,0.0147
1750,0.0404,0.0404,0.0668,0.0130
1751,0.0428,0.0299,0.0627,0.0064
1752,0.0535,0.0258,0.0621,0.0147
1753,0.0428,0.0299,0.0627,0.0064
1754,0.0380,0.0470,0.0541,0.0059
1755,0.0404,0.0404,0.0668,0.0130
1756,0.0509,0.0569,0.0779,0.0164
1757,0.0428,0.0299,0.0627,0.0064
1758,0.0428,0.0299,0.0627,0.0064
1759,0.0535,0.0258,0.0621,0.0147
1760,0.0428,0.0299,0.0627,0.0064
1761,0.0404,0.0404,0.0668,0.0130
1762,0.0535,0.0258,0.0621,0.0147
1763,0.0428,0.0299,0.0627,0.0064
1764,0.0428,0.0299,0.0627,0.0064
1765,0.0535,0.0258,0.0621,0.0147
1766,0.0415,0.0546,0.0638,0.0143
1767,0.0542,0.0410,0.0728,0.0067
1768,0.0573,0.0319,0.0817,0.0075
1769,0.0428,0.0299,0.0627,0.0064
1770,0.0535,0.0258,0.0621,0.0147
1771,0.0428,0.0299,0.0627,0.0064
1772,0.0428,0.0299,0.0627,0.0064
1773,0.0404,0.0404,0.0668,0.0130
1774,0.1051,0.0333,0.0765,0.0172
1775,0.0946,0.0318,0.0765,0.0160
1776,0.1052,0.0337,0.0697,0.0209
1777,0.0766,0.0293,0.0754,0.0135
1778,0.0406,0.0538,0.0638,0.0140
1779,0.0573,0.0319,0.0817,0.0075
1780,0.0458,0.0450,0.0468,0.0136
1781,0.0628,0.0278,0.0730,0.0111
1782,0.0572,0.0274,0.0713,0.0100
1783,0.0647,0.0265,0.0675,0.0164
1784,0.0444,0.0343,0.0706,0.0135
1785,0.0455,0.0286,0.0650,0.0072
1786,0.0511,0.0264,0.0599,0.0142
1787,0.0393,0.0347,0.0584,0.0052
1788,0.0383,0.0386,0.0564,0.0050
1789,0.0394,0.0510,0.0639,0.0136
1790,0.0573,0.0319,0.0817,0.0075
1791,0.0378,0.0447,0.0545,0.0056
1792,0.0398,0.0513,0.0542,0.0069
1793,0.0458,0.0393,0.0483,0.0134
1794,0.0385,0.0488,0.0540,0.0061
1795,0.0424,0.0553,0.0639,0.0148
1796,0.0460,0.0470,0.0466,0.0136
1797,0.0407,0.0519,0.0544,0.0075
1798,0.0477,0.0920,0.0641,0.0271
1799,0.0558,0.0860,0.0556,0.0282
1800,0.0436,0.0654,0.0732,0.0233
1801,0.0573,0.0319,0.0817,0.0075
1802,0.0436,0.0654,0.0732,0.0233
1803,0.0436,0.0654,0.0732,0.0233
1804,0.0436,0.0654,0.0732,0.0233
1805,0.0436,0.0654,0.0732,0.0233
1806,0.0436,0.0654,0.0732,0.0233
1807,0.0431,0.0266,0.0504,0.0059
1808,0.0431,0.0266,0.0504,0.0059
1809,0.0516,0.0241,0.0454,0.0149
1810,0.0419,0.0276,0.0497,0.0052
1811,0.0413,0.0364,0.0599,0.0125
1812,0.0446,0.0417,0.0829,0.0140
1813,0.0490,0.0244,0.0433,0.0140
1814,0.0403,0.0318,0.0494,0.0045
1815,0.0397,0.0337,0.0499,0.0049
1816,0.0478,0.0292,0.0414,0.0134
1817,0.0392,0.0406,0.0627,0.0128
1818,0.0384,0.0370,0.0520,0.0053
1819,0.0468,0.0347,0.0434,0.0137
1820,0.0380,0.0374,0.0535,0.0051
1821,0.0379,0.0372,0.0542,0.0052
1822,0.0406,0.0380,0.0604,0.0128
1823,0.1211,0.0408,0.1033,0.0169
1824,0.0452,0.0727,0.0616,0.0183
1825,0.0449,0.0625,0.0607,0.0168
1826,0.0519,0.0554,0.0489,0.0196
1827,0.0445,0.0446,0.0574,0.0135
1828,0.0440,0.0412,0.0680,0.0159
1829,0.0525,0.0295,0.0443,0.0164
1830,0.0441,0.0295,0.0524,0.0081
1831,0.0439,0.0278,0.0514,0.0067
1832,0.0522,0.0246,0.0437,0.0146
1833,0.0426,0.0336,0.0606,0.0122
1834,0.1113,0.0393,0.1024,0.0157
1835,0.0403,0.0318,0.0494,0.0045
1836,0.0513,0.0238,0.0467,0.0153
1837,0.0424,0.0283,0.0511,0.0072
1838,0.0422,0.0312,0.0515,0.0078
1839,0.0414,0.0513,0.0573,0.0163
1840,0.0416,0.0434,0.0523,0.0094
1841,0.0415,0.0529,0.0526,0.0114
1842,0.0492,0.0456,0.0568,0.0165
1843,0.0414,0.0761,0.0536,0.0191
1844,0.0416,0.0977,0.0579,0.0295
1845,0.1022,0.0379,0.1011,0.0146
1846,0.0490,0.0860,0.0597,0.0232
1847,0.0397,0.0337,0.0499,0.0049
1848,0.0431,0.0266,0.0504,0.0059
1849,0.0516,0.0241,0.0454,0.0149
1850,0.0423,0.0345,0.0597,0.0124
1851,0.0431,0.0266,0.0504,0.0059
1852,0.0516,0.0241,0.0454,0.0149
1853,0.0431,0.0266,0.0504,0.0059
1854,0.0431,0.0266,0.0504,0.0059
1855,0.0423,0.0345,0.0597,0.0124
1856,0.0939,0.0365,0.0995,0.0135
1857,0.0431,0.0266,0.0504,0.0059
1858,0.0431,0.0266,0.0504,0.0059
1859,0.0478,0.0292,0.0414,0.0134
1860,0.0431,0.0266,0.0504,0.0059
1861,0.0423,0.0345,0.0597,0.0124
1862,0.0516,0.0241,0.0454,0.0149
1863,0.0431,0.0266,0.0504,0.0059
1864,0.0431,0.0266,0.0504,0.0059
1865,0.0516,0.0241,0.0454,0.0149
1866,0.0423,0.0345,0.0597,0.0124
1867,0.0494,0.0556,0.0780,0.0158
1868,0.0431,0.0266,0.0504,0.0059
1869,0.0516,0.0241,0.0454,0.0149
1870,0.0431,0.0266,0.0504,0.0059
1871,0.0388,0.0363,0.0512,0.0054
1872,0.0423,0.0345,0.0597,0.0124
1873,0.0431,0.0266,0.0504,0.0059
1874,0.0431,0.0266,0.0504,0.0059
1875,0.0516,0.0241,0.0454,0.0149
1876,0.0431,0.0266,0.0504,0.0059
1877,0.0423,0.0345,0.0597,0.0124
1878,0.0549,0.0439,0.0717,0.0072
1879,0.0582,0.0503,0.0703,0.0090
1880,0.0516,0.0241,0.0454,0.0149
1881,0.0431,0.0266,0.0504,0.0059
1882,0.0431,0.0266,0.0504,0.0059
1883,0.0516,0.0241,0.0454,0.0149
1884,0.0391,0.0406,0.0632,0.0128
1885,0.0431,0.0266,0.0504,0.0059
1886,0.0516,0.0241,0.0454,0.0149
1887,0.0431,0.0266,0.0504,0.0059
1888,0.0431,0.0266,0.0504,0.0059
1889,0.0423,0.0345,0.0597,0.0124
1890,0.0794,0.0342,0.0953,0.0114
1891,0.1108,0.0342,0.0550,0.0176
1892,0.0981,0.0324,0.0554,0.0164
1893,0.1127,0.0350,0.0472,0.0218
1894,0.0767,0.0294,0.0554,0.0138
1895,0.0392,0.0406,0.0627,0.0128
1896,0.0468,0.0347,0.0434,0.0137
1897,0.0608,0.0273,0.0546,0.0113
1898,0.0550,0.0266,0.0540,0.0101
1899,0.0632,0.0263,0.0475,0.0169
1900,0.0452,0.0308,0.0603,0.0128
1901,0.0733,0.0332,0.0928,0.0104
1902,0.0448,0.0262,0.0513,0.0068
1903,0.0500,0.0241,0.0443,0.0144
1904,0.0410,0.0295,0.0494,0.0046
1905,0.0403,0.0318,0.0494,0.0045
1906,0.0397,0.0400,0.0615,0.0129
1907,0.0392,0.0353,0.0505,0.0053
1908,0.0380,0.0374,0.0535,0.0051
1909,0.0475,0.0315,0.0418,0.0135
1910,0.0384,0.0370,0.0520,0.0053
1911,0.0392,0.0404,0.0636,0.0130
1912,0.0681,0.0324,0.0901,0.0095
1913,0.0464,0.0356,0.0444,0.0137
1914,0.0379,0.0372,0.0542,0.0052
1915,0.0452,0.0727,0.0616,0.0183
1916,0.0518,0.0680,0.0506,0.0209
1917,0.0448,0.0515,0.0712,0.0188
1918,0.0448,0.0515,0.0712,0.0188
1919,0.0448,0.0515,0.0712,0.0188
1920,0.0448,0.0515,0.0712,0.0188
1921,0.0448,0.0515,0.0712,0.0188
1922,0.0448,0.0515,0.0712,0.0188
1923,0.0484,0.0378,0.0875,0.0143
1924,0.0410,0.0246,0.0438,0.0058
1925,0.0410,0.0246,0.0438,0.0058
1926,0.0505,0.0236,0.0357,0.0151
1927,0.0403,0.0249,0.0447,0.0050
1928,0.0416,0.0315,0.0584,0.0125
1929,0.0471,0.0226,0.0360,0.0141
1930,0.0401,0.0271,0.0476,0.0045
1931,0.0402,0.0283,0.0493,0.0050
1932,0.0472,0.0248,0.0396,0.0134
1933,0.0403,0.0330,0.0642,0.0127
1934,0.0601,0.0317,0.0845,0.0081
1935,0.0397,0.0296,0.0538,0.0055
1936,0.0476,0.0279,0.0452,0.0138
1937,0.0391,0.0292,0.0560,0.0050
1938,0.0387,0.0287,0.0568,0.0047
1939,0.0414,0.0324,0.0598,0.0128
1940,0.0414,0.0576,0.0658,0.0146
1941,0.0414,0.0491,0.0645,0.0128
1942,0.0505,0.0432,0.0524,0.0181
1943,0.0414,0.0348,0.0596,0.0101
1944,0.0425,0.0337,0.0698,0.0142
1945,0.0553,0.0328,0.0791,0.0071
1946,0.0517,0.0238,0.0431,0.0153
1947,0.0416,0.0254,0.0508,0.0069
1948,0.0415,0.0250,0.0484,0.0063
1949,0.0514,0.0235,0.0373,0.0148
1950,0.0420,0.0297,0.0586,0.0122
1951,0.0401,0.0271,0.0476,0.0045
1952,0.0500,0.0230,0.0358,0.0154
1953,0.0406,0.0255,0.0428,0.0060
1954,0.0404,0.0277,0.0426,0.0061
1955,0.0417,0.0446,0.0528,0.0166
1956,0.0542,0.0347,0.0766,0.0067
1957,0.0402,0.0384,0.0429,0.0084
1958,0.0402,0.0470,0.0432,0.0114
1959,0.0470,0.0407,0.0436,0.0154
1960,0.0406,0.0680,0.0443,0.0207
1961,0.0424,0.0862,0.0518,0.0314
1962,0.0470,0.0783,0.0475,0.0248
1963,0.0402,0.0283,0.0493,0.0050
1964,0.0410,0.0246,0.0438,0.0058
1965,0.0505,0.0236,0.0357,0.0151
1966,0.0419,0.0304,0.0570,0.0123
1967,0.0539,0.0378,0.0743,0.0065
1968,0.0410,0.0246,0.0438,0.0058
1969,0.0505,0.0236,0.0357,0.0151
1970,0.0410,0.0246,0.0438,0.0058
1971,0.0410,0.0246,0.0438,0.0058
1972,0.0419,0.0304,0.0570,0.0123
1973,0.0410,0.0246,0.0438,0.0058
1974,0.0410,0.0246,0.0438,0.0058
1975,0.0472,0.0248,0.0396,0.0134
1976,0.0410,0.0246,0.0438,0.0058
1977,0.0419,0.0304,0.0570,0.0123
1978,0.0467,0.0523,0.0785,0.0149
1979,0.0505,0.0236,0.0357,0.0151
1980,0.0410,0.0246,0.0438,0.0058
1981,0.0410,0.0246,0.0438,0.0058
1982,0.0505,0.0236,0.0357,0.0151
1983,0.0419,0.0304,0.0570,0.0123
1984,0.0410,0.0246,0.0438,0.0058
1985,0.0505,0.0236,0.0357,0.0151
1986,0.0410,0.0246,0.0438,0.0058
1987,0.0400,0.0296,0.0524,0.0057
1988,0.0419,0.0304,0.0570,0.0123
1989,0.0494,0.0556,0.0780,0.0158
1990,0.0549,0.0439,0.0717,0.0072
1991,0.0410,0.0246,0.0438,0.0058
1992,0.0410,0.0246,0.0438,0.0058
1993,0.0505,0.0236,0.0357,0.0151
1994,0.0410,0.0246,0.0438,0.0058
1995,0.0419,0.0304,0.0570,0.0123
1996,0.0505,0.0236,0.0357,0.0151
1997,0.0410,0.0246,0.0438,0.0058
1998,0.0410,0.0246,0.0438,0.0058
1999,0.0505,0.0236,0.0357,0.0151
2000,0.0400,0.0326,0.0650,0.0125
2001,0.0594,0.0518,0.0703,0.0098
2002,0.0410,0.0246,0.0438,0.0058
2003,0.0505,0.0236,0.0357,0.0151
2004,0.0410,0.0246,0.0438,0.0058
2005,0.0410,0.0246,0.0438,0.0058
2006,0.0419,0.0304,0.0570,0.0123
2007,0.1227,0.0358,0.0434,0.0178
2008,0.1083,0.0338,0.0434,0.0166
2009,0.1265,0.0371,0.0357,0.0226
2010,0.0830,0.0304,0.0435,0.0140
2011,0.0403,0.0330,0.0642,0.0127
2012,0.0559,0.0464,0.0710,0.0077
2013,0.0476,0.0279,0.0452,0.0138
2014,0.0632,0.0276,0.0435,0.0115
2015,0.0556,0.0265,0.0434,0.0103
2016,0.0671,0.0271,0.0358,0.0174
2017,0.0435,0.0285,0.0548,0.0124
2018,0.0427,0.0247,0.0435,0.0068
2019,0.0482,0.0229,0.0358,0.0146
2020,0.0400,0.0259,0.0460,0.0045
2021,0.0401,0.0271,0.0476,0.0045
2022,0.0409,0.0332,0.0622,0.0130
2023,0.0570,0.0485,0.0706,0.0083
2024,0.0401,0.0291,0.0510,0.0055
2025,0.0391,0.0292,0.0560,0.0050
2026,0.0475,0.0261,0.0415,0.0135
2027,0.0397,0.0296,0.0538,0.0055
2028,0.0397,0.0321,0.0656,0.0124
2029,0.0474,0.0283,0.0468,0.0138
2030,0.0387,0.0287,0.0568,0.0047
2031,0.0414,0.0576,0.0658,0.0146
2032,0.0500,0.0540,0.0552,0.0196
2033,0.0427,0.0408,0.0741,0.0158
2034,0.0523,0.0579,0.0778,0.0172
2035,0.0427,0.0408,0.0741,0.0158
2036,0.0427,0.0408,0.0741,0.0158
2037,0.0427,0.0408,0.0741,0.0158
2038,0.0427,0.0408,0.0741,0.0158
2039,0.0427,0.0408,0.0741,0.0158
2040,0.0403,0.0241,0.0434,0.0058
2041,0.0403,0.0241,0.0434,0.0058
2042,0.0516,0.0238,0.0349,0.0153
2043,0.0393,0.0240,0.0448,0.0050
2044,0.0410,0.0297,0.0592,0.0125
2045,0.0594,0.0518,0.0703,0.0098
2046,0.0467,0.0223,0.0360,0.0142
2047,0.0393,0.0254,0.0488,0.0045
2048,0.0396,0.0263,0.0510,0.0051
2049,0.0464,0.0232,0.0413,0.0134
2050,0.0407,0.0304,0.0658,0.0127
2051,0.0399,0.0271,0.0559,0.0057
2052,0.0474,0.0256,0.0479,0.0138
2053,0.0395,0.0265,0.0582,0.0051
2054,0.0392,0.0260,0.0591,0.0047
2055,0.0411,0.0304,0.0609,0.0129
2056,0.0606,0.0529,0.0702,0.0109
2057,0.0406,0.0514,0.0696,0.0150
2058,0.0406,0.0437,0.0683,0.0128
2059,0.0519,0.0383,0.0567,0.0190
2060,0.0408,0.0310,0.0629,0.0098
2061,0.0414,0.0309,0.0723,0.0138
2062,0.0534,0.0222,0.0461,0.0157
2063,0.0410,0.0242,0.0527,0.0070
2064,0.0410,0.0243,0.0498,0.0065
2065,0.0528,0.0237,0.0382,0.0151
2066,0.0411,0.0284,0.0594,0.0122
2067,0.0605,0.0915,0.0830,0.0310
2068,0.0393,0.0254,0.0488,0.0045
2069,0.0509,0.0231,0.0340,0.0154
2070,0.0397,0.0244,0.0412,0.0055
2071,0.0394,0.0262,0.0406,0.0056
2072,0.0411,0.0419,0.0520,0.0170
2073,0.0392,0.0362,0.0402,0.0085
2074,0.0392,0.0444,0.0403,0.0119
2075,0.0466,0.0386,0.0387,0.0152
2076,0.0395,0.0647,0.0411,0.0218
2077,0.0420,0.0816,0.0497,0.0325
2078,0.0599,0.0780,0.0827,0.0281
2079,0.0460,0.0749,0.0427,0.0258
2080,0.0396,0.0263,0.0510,0.0051
2081,0.0403,0.0241,0.0434,0.0058
2082,0.0516,0.0238,0.0349,0.0153
2083,0.0411,0.0289,0.0575,0.0122
2084,0.0403,0.0241,0.0434,0.0058
2085,0.0516,0.0238,0.0349,0.0153
2086,0.0403,0.0241,0.0434,0.0058
2087,0.0403,0.0241,0.0434,0.0058
2088,0.0411,0.0289,0.0575,0.0122
2089,0.0457,0.0643,0.0891,0.0238
2090,0.0403,0.0241,0.0434,0.0058
2091,0.0403,0.0241,0.0434,0.0058
2092,0.0464,0.0232,0.0413,0.0134
2093,0.0403,0.0241,0.0434,0.0058
2094,0.0411,0.0289,0.0575,0.0122
2095,0.0516,0.0238,0.0349,0.0153
2096,0.0403,0.0241,0.0434,0.0058
2097,0.0403,0.0241,0.0434,0.0058
2098,0.0516,0.0238,0.0349,0.0153
2099,0.0411,0.0289,0.0575,0.0122
Highest RMSE Cases
Vdc  Max RMSE=  0.1356 at Case 1540; 705 > 0.05
Idc  Max RMSE=  0.1237 at Case 1611; 484 > 0.05
Vd   Max RMSE=  0.1098 at Case 725; 1410 > 0.05
Vq   Max RMSE=  0.0381 at Case 1146; 0 > 0.05
Total Error Summary
Vdc  RMSE=  0.0490
Idc  RMSE=  0.0435
Vd   RMSE=  0.0602
Vq   RMSE=  0.0130
