Read Model from: ./ucf10t1s/
Export Model to: ./ucf10t1s/ucf10t1s_fhf.json
idx_in [0, 1, 2, 3, 4, 5, 6]
idx_out [7, 8, 9, 10]
make_mimo_block stable2ndx
H1s[0][0]  Real Poles: [-1160.08914716  -820.72715753] Freqs [Hz]: []
H1s[0][1]  Real Poles: [-1051.36013031 -1051.36013031] Freqs [Hz]: [34.53665934374434]
H1s[0][2]  Real Poles: [-1288.59985695  -616.32041558] Freqs [Hz]: []
H1s[0][3]  Real Poles: [-935.13852358 -935.13852358] Freqs [Hz]: [47.070066208087354]
H1s[1][0]  Real Poles: [-1167.46590304  -885.80556942] Freqs [Hz]: []
H1s[1][1]  Real Poles: [-1115.59747159 -1115.59747159] Freqs [Hz]: [38.32330872554924]
H1s[1][2]  Real Poles: [-1112.80407757 -1112.80407757] Freqs [Hz]: [49.50333088188794]
H1s[1][3]  Real Poles: [-1244.60435713  -740.1629802 ] Freqs [Hz]: []
H1s[2][0]  Real Poles: [-967.3551172 -967.3551172] Freqs [Hz]: [37.70169050058102]
H1s[2][1]  Real Poles: [-849.4194448 -849.4194448] Freqs [Hz]: [51.77208884665691]
H1s[2][2]  Real Poles: [-1169.62988675 -1169.62988675] Freqs [Hz]: [53.28994526704896]
H1s[2][3]  Real Poles: [-905.30169755 -905.30169755] Freqs [Hz]: [27.865381179248413]
H1s[3][0]  Real Poles: [-605.54978251 -605.54978251] Freqs [Hz]: [58.63789552746548]
H1s[3][1]  Real Poles: [-972.22234122 -972.22234122] Freqs [Hz]: [43.297802340777345]
H1s[3][2]  Real Poles: [-940.95097482 -940.95097482] Freqs [Hz]: [12.761842239758067]
H1s[3][3]  Real Poles: [-885.5336979 -885.5336979] Freqs [Hz]: [51.20399232379082]
model_folder = ./ucf10t1s/
model_root = ucf10t1s
data_path = d:/data/ucf3/ucf9c.hdf5
idx_in [0, 1, 2, 3, 4, 5, 6]
idx_out [7, 8, 9, 10]
read 2100 dataframes
dt=0.001000 data_len=4001 n_io=11 n_case=2100
['G', 'Ud', 'Uq', 'Id', 'Iq', 'GIrms', 'Ctrl'] ['Vdc', 'Idc', 'Vd', 'Vq'] (2100, 4001, 11)
make_mimo_block stable2ndx
prepending initial conditions (2100, 500, 11) (2100, 4001, 11) float32 float32
results in (2100, 4501, 11)
Idx,Vdc,Idc,Vd,Vq
#,RMSE,RMSE,RMSE,RMSE
Total,0.0450,0.0184,0.0539,0.0105
0,0.0450,0.0175,0.0683,0.0058
1,0.0450,0.0175,0.0683,0.0058
2,0.0505,0.0188,0.0655,0.0072
3,0.0494,0.0351,0.0725,0.0150
4,0.0360,0.0113,0.0383,0.0030
5,0.0438,0.0162,0.0313,0.0106
6,0.0360,0.0113,0.0383,0.0030
7,0.0350,0.0121,0.0546,0.0082
8,0.0371,0.0111,0.0548,0.0095
9,0.0360,0.0113,0.0383,0.0030
10,0.0360,0.0113,0.0383,0.0030
11,0.0438,0.0162,0.0313,0.0106
12,0.0360,0.0113,0.0383,0.0030
13,0.0371,0.0111,0.0548,0.0095
14,0.0494,0.0351,0.0725,0.0150
15,0.0438,0.0162,0.0313,0.0106
16,0.0360,0.0113,0.0383,0.0030
17,0.0360,0.0113,0.0383,0.0030
18,0.0438,0.0162,0.0313,0.0106
19,0.0337,0.0121,0.0723,0.0119
20,0.0360,0.0113,0.0383,0.0030
21,0.0438,0.0162,0.0313,0.0106
22,0.0360,0.0113,0.0383,0.0030
23,0.0360,0.0113,0.0383,0.0030
24,0.0371,0.0111,0.0548,0.0095
25,0.0494,0.0351,0.0725,0.0150
26,0.1191,0.0181,0.0375,0.0206
27,0.1031,0.0176,0.0374,0.0186
28,0.1263,0.0238,0.0311,0.0210
29,0.0754,0.0166,0.0374,0.0146
30,0.0341,0.0122,0.0704,0.0121
31,0.0418,0.0146,0.0461,0.0124
32,0.0548,0.0153,0.0373,0.0107
33,0.0475,0.0146,0.0372,0.0089
34,0.0599,0.0195,0.0319,0.0133
35,0.0379,0.0112,0.0500,0.0090
36,0.0494,0.0351,0.0725,0.0150
37,0.0369,0.0121,0.0375,0.0040
38,0.0420,0.0150,0.0312,0.0102
39,0.0358,0.0102,0.0424,0.0036
40,0.0359,0.0106,0.0454,0.0051
41,0.0352,0.0122,0.0659,0.0122
42,0.0355,0.0116,0.0518,0.0077
43,0.0337,0.0126,0.0618,0.0079
44,0.0421,0.0131,0.0397,0.0114
45,0.0345,0.0124,0.0573,0.0084
46,0.0335,0.0119,0.0739,0.0115
47,0.0494,0.0351,0.0725,0.0150
48,0.0414,0.0152,0.0488,0.0125
49,0.0335,0.0125,0.0637,0.0074
50,0.0364,0.0132,0.0432,0.0159
51,0.0458,0.0177,0.0363,0.0176
52,0.0377,0.0131,0.0548,0.0122
53,0.0377,0.0131,0.0548,0.0122
54,0.0377,0.0131,0.0548,0.0122
55,0.0377,0.0131,0.0548,0.0122
56,0.0377,0.0131,0.0548,0.0122
57,0.0377,0.0131,0.0548,0.0122
58,0.0459,0.0159,0.0655,0.0049
59,0.0362,0.0182,0.0555,0.0061
60,0.0362,0.0182,0.0555,0.0061
61,0.0422,0.0232,0.0677,0.0112
62,0.0346,0.0160,0.0509,0.0056
63,0.0411,0.0133,0.0499,0.0109
64,0.0369,0.0191,0.0577,0.0105
65,0.0343,0.0130,0.0434,0.0054
66,0.0356,0.0135,0.0417,0.0058
67,0.0332,0.0148,0.0427,0.0104
68,0.0521,0.0188,0.0540,0.0119
69,0.0459,0.0159,0.0655,0.0049
70,0.0423,0.0188,0.0430,0.0070
71,0.0366,0.0198,0.0373,0.0110
72,0.0478,0.0229,0.0459,0.0072
73,0.0507,0.0248,0.0473,0.0073
74,0.0427,0.0133,0.0496,0.0111
75,0.0671,0.0446,0.0507,0.0208
76,0.0633,0.0374,0.0509,0.0185
77,0.0648,0.0274,0.0566,0.0220
78,0.0550,0.0244,0.0526,0.0145
79,0.0464,0.0242,0.0524,0.0122
80,0.0459,0.0159,0.0655,0.0049
81,0.0555,0.0190,0.0636,0.0172
82,0.0445,0.0143,0.0559,0.0081
83,0.0418,0.0142,0.0563,0.0057
84,0.0469,0.0207,0.0670,0.0115
85,0.0402,0.0133,0.0519,0.0099
86,0.0343,0.0130,0.0434,0.0054
87,0.0404,0.0245,0.0674,0.0131
88,0.0345,0.0218,0.0537,0.0113
89,0.0343,0.0228,0.0523,0.0135
90,0.0409,0.0183,0.0486,0.0140
91,0.0437,0.0138,0.0633,0.0044
92,0.0350,0.0233,0.0493,0.0156
93,0.0358,0.0226,0.0476,0.0152
94,0.0397,0.0265,0.0608,0.0251
95,0.0375,0.0245,0.0447,0.0130
96,0.0423,0.0355,0.0455,0.0169
97,0.0427,0.0304,0.0557,0.0194
98,0.0356,0.0135,0.0417,0.0058
99,0.0362,0.0182,0.0555,0.0061
100,0.0422,0.0232,0.0677,0.0112
101,0.0402,0.0143,0.0514,0.0108
102,0.0336,0.0131,0.0704,0.0106
103,0.0362,0.0182,0.0555,0.0061
104,0.0422,0.0232,0.0677,0.0112
105,0.0362,0.0182,0.0555,0.0061
106,0.0362,0.0182,0.0555,0.0061
107,0.0402,0.0143,0.0514,0.0108
108,0.0362,0.0182,0.0555,0.0061
109,0.0362,0.0182,0.0555,0.0061
110,0.0332,0.0148,0.0427,0.0104
111,0.0362,0.0182,0.0555,0.0061
112,0.0402,0.0143,0.0514,0.0108
113,0.0531,0.0209,0.0669,0.0073
114,0.0423,0.0122,0.0619,0.0042
115,0.0422,0.0232,0.0677,0.0112
116,0.0362,0.0182,0.0555,0.0061
117,0.0362,0.0182,0.0555,0.0061
118,0.0422,0.0232,0.0677,0.0112
119,0.0402,0.0143,0.0514,0.0108
120,0.0362,0.0182,0.0555,0.0061
121,0.0422,0.0232,0.0677,0.0112
122,0.0362,0.0182,0.0555,0.0061
123,0.0397,0.0167,0.0419,0.0068
124,0.0402,0.0143,0.0514,0.0108
125,0.0418,0.0116,0.0612,0.0045
126,0.0362,0.0182,0.0555,0.0061
127,0.0362,0.0182,0.0555,0.0061
128,0.0422,0.0232,0.0677,0.0112
129,0.0362,0.0182,0.0555,0.0061
130,0.0402,0.0143,0.0514,0.0108
131,0.0422,0.0232,0.0677,0.0112
132,0.0362,0.0182,0.0555,0.0061
133,0.0362,0.0182,0.0555,0.0061
134,0.0422,0.0232,0.0677,0.0112
135,0.0547,0.0206,0.0554,0.0119
136,0.0421,0.0122,0.0617,0.0053
137,0.0362,0.0182,0.0555,0.0061
138,0.0422,0.0232,0.0677,0.0112
139,0.0362,0.0182,0.0555,0.0061
140,0.0362,0.0182,0.0555,0.0061
141,0.0402,0.0143,0.0514,0.0108
142,0.0889,0.0323,0.0934,0.0215
143,0.0806,0.0315,0.0915,0.0195
144,0.0846,0.0355,0.0927,0.0202
145,0.0662,0.0296,0.0860,0.0157
146,0.0521,0.0188,0.0540,0.0119
147,0.0431,0.0135,0.0627,0.0060
148,0.0366,0.0198,0.0373,0.0110
149,0.0546,0.0271,0.0787,0.0123
150,0.0497,0.0257,0.0743,0.0107
151,0.0535,0.0287,0.0809,0.0135
152,0.0411,0.0188,0.0577,0.0116
153,0.0386,0.0203,0.0602,0.0070
154,0.0393,0.0212,0.0628,0.0108
155,0.0340,0.0140,0.0467,0.0053
156,0.0343,0.0130,0.0434,0.0054
157,0.0470,0.0155,0.0511,0.0117
158,0.0431,0.0170,0.0772,0.0117
159,0.0374,0.0149,0.0414,0.0064
160,0.0478,0.0229,0.0459,0.0072
161,0.0336,0.0158,0.0394,0.0106
162,0.0423,0.0188,0.0430,0.0070
163,0.0573,0.0224,0.0568,0.0120
164,0.0388,0.0221,0.0377,0.0111
165,0.0507,0.0248,0.0473,0.0073
166,0.0671,0.0446,0.0507,0.0208
167,0.0680,0.0348,0.0541,0.0235
168,0.0533,0.0348,0.0524,0.0153
169,0.0463,0.0167,0.0655,0.0065
170,0.0533,0.0348,0.0524,0.0153
171,0.0533,0.0348,0.0524,0.0153
172,0.0533,0.0348,0.0524,0.0153
173,0.0533,0.0348,0.0524,0.0153
174,0.0533,0.0348,0.0524,0.0153
175,0.0378,0.0167,0.0518,0.0053
176,0.0378,0.0167,0.0518,0.0053
177,0.0429,0.0214,0.0628,0.0111
178,0.0359,0.0148,0.0476,0.0047
179,0.0398,0.0126,0.0484,0.0103
180,0.0483,0.0183,0.0671,0.0066
181,0.0383,0.0180,0.0537,0.0104
182,0.0339,0.0124,0.0412,0.0046
183,0.0341,0.0128,0.0403,0.0052
184,0.0337,0.0144,0.0399,0.0103
185,0.0469,0.0165,0.0542,0.0113
186,0.0380,0.0168,0.0428,0.0065
187,0.0343,0.0184,0.0364,0.0109
188,0.0425,0.0199,0.0461,0.0064
189,0.0449,0.0213,0.0477,0.0064
190,0.0404,0.0126,0.0487,0.0106
191,0.0505,0.0199,0.0687,0.0065
192,0.0625,0.0370,0.0465,0.0192
193,0.0595,0.0312,0.0468,0.0170
194,0.0591,0.0237,0.0510,0.0199
195,0.0529,0.0213,0.0484,0.0133
196,0.0470,0.0216,0.0500,0.0122
197,0.0522,0.0189,0.0581,0.0160
198,0.0447,0.0139,0.0517,0.0079
199,0.0426,0.0138,0.0523,0.0058
200,0.0462,0.0199,0.0619,0.0114
201,0.0404,0.0126,0.0497,0.0095
202,0.0529,0.0213,0.0701,0.0064
203,0.0339,0.0124,0.0412,0.0046
204,0.0417,0.0224,0.0628,0.0127
205,0.0363,0.0192,0.0503,0.0101
206,0.0361,0.0200,0.0492,0.0122
207,0.0400,0.0167,0.0474,0.0131
208,0.0370,0.0199,0.0464,0.0142
209,0.0378,0.0196,0.0450,0.0140
210,0.0431,0.0223,0.0573,0.0240
211,0.0395,0.0235,0.0426,0.0122
212,0.0419,0.0356,0.0445,0.0168
213,0.0345,0.0132,0.0714,0.0110
214,0.0462,0.0302,0.0527,0.0187
215,0.0341,0.0128,0.0403,0.0052
216,0.0378,0.0167,0.0518,0.0053
217,0.0429,0.0214,0.0628,0.0111
218,0.0399,0.0133,0.0493,0.0101
219,0.0378,0.0167,0.0518,0.0053
220,0.0429,0.0214,0.0628,0.0111
221,0.0378,0.0167,0.0518,0.0053
222,0.0378,0.0167,0.0518,0.0053
223,0.0399,0.0133,0.0493,0.0101
224,0.0558,0.0230,0.0684,0.0074
225,0.0684,0.0369,0.0647,0.0188
226,0.0378,0.0167,0.0518,0.0053
227,0.0378,0.0167,0.0518,0.0053
228,0.0337,0.0144,0.0399,0.0103
229,0.0378,0.0167,0.0518,0.0053
230,0.0399,0.0133,0.0493,0.0101
231,0.0429,0.0214,0.0628,0.0111
232,0.0378,0.0167,0.0518,0.0053
233,0.0378,0.0167,0.0518,0.0053
234,0.0429,0.0214,0.0628,0.0111
235,0.0399,0.0133,0.0493,0.0101
236,0.0657,0.0308,0.0648,0.0163
237,0.0378,0.0167,0.0518,0.0053
238,0.0429,0.0214,0.0628,0.0111
239,0.0378,0.0167,0.0518,0.0053
240,0.0363,0.0153,0.0413,0.0063
241,0.0399,0.0133,0.0493,0.0101
242,0.0378,0.0167,0.0518,0.0053
243,0.0378,0.0167,0.0518,0.0053
244,0.0429,0.0214,0.0628,0.0111
245,0.0378,0.0167,0.0518,0.0053
246,0.0399,0.0133,0.0493,0.0101
247,0.0630,0.0253,0.0650,0.0143
248,0.0429,0.0214,0.0628,0.0111
249,0.0378,0.0167,0.0518,0.0053
250,0.0378,0.0167,0.0518,0.0053
251,0.0429,0.0214,0.0628,0.0111
252,0.0490,0.0177,0.0558,0.0113
253,0.0378,0.0167,0.0518,0.0053
254,0.0429,0.0214,0.0628,0.0111
255,0.0378,0.0167,0.0518,0.0053
256,0.0378,0.0167,0.0518,0.0053
257,0.0399,0.0133,0.0493,0.0101
258,0.0602,0.0204,0.0652,0.0124
259,0.0863,0.0288,0.0844,0.0216
260,0.0780,0.0281,0.0832,0.0196
261,0.0819,0.0326,0.0834,0.0205
262,0.0645,0.0263,0.0789,0.0157
263,0.0469,0.0165,0.0542,0.0113
264,0.0343,0.0184,0.0364,0.0109
265,0.0542,0.0242,0.0727,0.0120
266,0.0500,0.0229,0.0689,0.0104
267,0.0520,0.0264,0.0745,0.0135
268,0.0424,0.0170,0.0547,0.0108
269,0.0429,0.0217,0.0709,0.0120
270,0.0402,0.0184,0.0561,0.0063
271,0.0405,0.0198,0.0583,0.0107
272,0.0345,0.0131,0.0439,0.0044
273,0.0339,0.0124,0.0412,0.0046
274,0.0430,0.0141,0.0509,0.0112
275,0.0349,0.0139,0.0405,0.0059
276,0.0425,0.0199,0.0461,0.0064
277,0.0333,0.0152,0.0373,0.0105
278,0.0380,0.0168,0.0428,0.0065
279,0.0513,0.0190,0.0573,0.0112
280,0.0554,0.0134,0.0660,0.0090
281,0.0357,0.0201,0.0372,0.0110
282,0.0449,0.0213,0.0477,0.0064
283,0.0625,0.0370,0.0465,0.0192
284,0.0614,0.0288,0.0488,0.0213
285,0.0528,0.0300,0.0498,0.0149
286,0.0528,0.0300,0.0498,0.0149
287,0.0528,0.0300,0.0498,0.0149
288,0.0528,0.0300,0.0498,0.0149
289,0.0528,0.0300,0.0498,0.0149
290,0.0528,0.0300,0.0498,0.0149
291,0.0533,0.0123,0.0662,0.0070
292,0.0395,0.0141,0.0427,0.0043
293,0.0395,0.0141,0.0427,0.0043
294,0.0405,0.0189,0.0504,0.0111
295,0.0381,0.0127,0.0397,0.0036
296,0.0409,0.0114,0.0459,0.0098
297,0.0387,0.0164,0.0435,0.0103
298,0.0357,0.0115,0.0370,0.0043
299,0.0348,0.0118,0.0377,0.0053
300,0.0357,0.0138,0.0341,0.0104
301,0.0408,0.0132,0.0553,0.0111
302,0.0513,0.0123,0.0663,0.0051
303,0.0342,0.0138,0.0433,0.0067
304,0.0336,0.0161,0.0355,0.0113
305,0.0358,0.0152,0.0475,0.0062
306,0.0371,0.0157,0.0494,0.0058
307,0.0402,0.0115,0.0474,0.0104
308,0.0498,0.0230,0.0378,0.0168
309,0.0485,0.0202,0.0381,0.0143
310,0.0446,0.0187,0.0390,0.0163
311,0.0455,0.0158,0.0392,0.0106
312,0.0464,0.0165,0.0452,0.0117
313,0.0493,0.0131,0.0662,0.0033
314,0.0427,0.0194,0.0453,0.0132
315,0.0421,0.0132,0.0419,0.0068
316,0.0412,0.0132,0.0425,0.0055
317,0.0412,0.0191,0.0491,0.0109
318,0.0422,0.0114,0.0453,0.0092
319,0.0357,0.0115,0.0370,0.0043
320,0.0404,0.0188,0.0506,0.0123
321,0.0396,0.0146,0.0419,0.0078
322,0.0402,0.0145,0.0412,0.0095
323,0.0429,0.0134,0.0450,0.0115
324,0.0346,0.0129,0.0704,0.0098
325,0.0423,0.0138,0.0395,0.0111
326,0.0435,0.0148,0.0386,0.0109
327,0.0478,0.0158,0.0480,0.0214
328,0.0457,0.0238,0.0375,0.0102
329,0.0453,0.0376,0.0426,0.0169
330,0.0524,0.0330,0.0452,0.0166
331,0.0348,0.0118,0.0377,0.0053
332,0.0395,0.0141,0.0427,0.0043
333,0.0405,0.0189,0.0504,0.0111
334,0.0419,0.0116,0.0453,0.0094
335,0.0585,0.0250,0.0697,0.0075
336,0.0418,0.0116,0.0612,0.0045
337,0.0395,0.0141,0.0427,0.0043
338,0.0405,0.0189,0.0504,0.0111
339,0.0395,0.0141,0.0427,0.0043
340,0.0395,0.0141,0.0427,0.0043
341,0.0419,0.0116,0.0453,0.0094
342,0.0395,0.0141,0.0427,0.0043
343,0.0395,0.0141,0.0427,0.0043
344,0.0357,0.0138,0.0341,0.0104
345,0.0395,0.0141,0.0427,0.0043
346,0.0419,0.0116,0.0453,0.0094
347,0.0445,0.0174,0.0650,0.0073
348,0.0405,0.0189,0.0504,0.0111
349,0.0395,0.0141,0.0427,0.0043
350,0.0395,0.0141,0.0427,0.0043
351,0.0405,0.0189,0.0504,0.0111
352,0.0419,0.0116,0.0453,0.0094
353,0.0395,0.0141,0.0427,0.0043
354,0.0405,0.0189,0.0504,0.0111
355,0.0395,0.0141,0.0427,0.0043
356,0.0340,0.0131,0.0411,0.0066
357,0.0419,0.0116,0.0453,0.0094
358,0.0434,0.0188,0.0645,0.0097
359,0.0395,0.0141,0.0427,0.0043
360,0.0395,0.0141,0.0427,0.0043
361,0.0405,0.0189,0.0504,0.0111
362,0.0395,0.0141,0.0427,0.0043
363,0.0419,0.0116,0.0453,0.0094
364,0.0405,0.0189,0.0504,0.0111
365,0.0395,0.0141,0.0427,0.0043
366,0.0395,0.0141,0.0427,0.0043
367,0.0405,0.0189,0.0504,0.0111
368,0.0418,0.0137,0.0572,0.0109
369,0.0427,0.0198,0.0637,0.0116
370,0.0395,0.0141,0.0427,0.0043
371,0.0405,0.0189,0.0504,0.0111
372,0.0395,0.0141,0.0427,0.0043
373,0.0395,0.0141,0.0427,0.0043
374,0.0419,0.0116,0.0453,0.0094
375,0.0839,0.0227,0.0626,0.0218
376,0.0738,0.0222,0.0627,0.0197
377,0.0821,0.0276,0.0612,0.0212
378,0.0588,0.0209,0.0611,0.0156
379,0.0408,0.0132,0.0553,0.0111
380,0.0319,0.0185,0.0690,0.0131
381,0.0336,0.0161,0.0355,0.0113
382,0.0497,0.0193,0.0575,0.0118
383,0.0466,0.0184,0.0549,0.0100
384,0.0459,0.0227,0.0586,0.0137
385,0.0447,0.0136,0.0475,0.0097
386,0.0409,0.0152,0.0457,0.0054
387,0.0395,0.0176,0.0470,0.0106
388,0.0368,0.0117,0.0377,0.0036
389,0.0357,0.0115,0.0370,0.0043
390,0.0398,0.0122,0.0512,0.0111
391,0.0423,0.0205,0.0620,0.0135
392,0.0342,0.0125,0.0392,0.0061
393,0.0358,0.0152,0.0475,0.0062
394,0.0347,0.0143,0.0334,0.0108
395,0.0342,0.0138,0.0433,0.0067
396,0.0430,0.0141,0.0589,0.0106
397,0.0335,0.0171,0.0372,0.0113
398,0.0371,0.0157,0.0494,0.0058
399,0.0498,0.0230,0.0378,0.0168
400,0.0455,0.0198,0.0374,0.0182
401,0.0494,0.0209,0.0448,0.0136
402,0.0427,0.0209,0.0610,0.0131
403,0.0494,0.0209,0.0448,0.0136
404,0.0494,0.0209,0.0448,0.0136
405,0.0494,0.0209,0.0448,0.0136
406,0.0494,0.0209,0.0448,0.0136
407,0.0494,0.0209,0.0448,0.0136
408,0.0374,0.0129,0.0350,0.0039
409,0.0374,0.0129,0.0350,0.0039
410,0.0359,0.0178,0.0394,0.0112
411,0.0371,0.0119,0.0339,0.0033
412,0.0419,0.0108,0.0454,0.0100
413,0.0433,0.0226,0.0600,0.0121
414,0.0356,0.0157,0.0348,0.0103
415,0.0363,0.0111,0.0353,0.0047
416,0.0357,0.0113,0.0375,0.0061
417,0.0355,0.0135,0.0310,0.0105
418,0.0401,0.0116,0.0577,0.0116
419,0.0344,0.0123,0.0455,0.0076
420,0.0342,0.0148,0.0368,0.0118
421,0.0346,0.0127,0.0503,0.0071
422,0.0351,0.0128,0.0523,0.0066
423,0.0413,0.0110,0.0479,0.0108
424,0.0438,0.0269,0.0591,0.0116
425,0.0388,0.0156,0.0331,0.0171
426,0.0386,0.0146,0.0332,0.0137
427,0.0353,0.0186,0.0314,0.0156
428,0.0380,0.0134,0.0334,0.0089
429,0.0436,0.0131,0.0429,0.0110
430,0.0367,0.0205,0.0352,0.0115
431,0.0377,0.0131,0.0343,0.0055
432,0.0376,0.0131,0.0346,0.0047
433,0.0366,0.0190,0.0382,0.0106
434,0.0424,0.0109,0.0432,0.0093
435,0.0332,0.0409,0.0652,0.0179
436,0.0363,0.0111,0.0353,0.0047
437,0.0358,0.0171,0.0397,0.0122
438,0.0385,0.0122,0.0347,0.0063
439,0.0397,0.0117,0.0344,0.0075
440,0.0454,0.0125,0.0441,0.0108
441,0.0431,0.0119,0.0339,0.0085
442,0.0450,0.0146,0.0336,0.0083
443,0.0456,0.0152,0.0390,0.0190
444,0.0482,0.0268,0.0333,0.0089
445,0.0487,0.0410,0.0415,0.0174
446,0.0381,0.0139,0.0719,0.0116
447,0.0446,0.0431,0.0577,0.0138
448,0.0527,0.0378,0.0378,0.0148
449,0.0357,0.0113,0.0375,0.0061
450,0.0374,0.0129,0.0350,0.0039
451,0.0359,0.0178,0.0394,0.0112
452,0.0425,0.0108,0.0434,0.0093
453,0.0374,0.0129,0.0350,0.0039
454,0.0359,0.0178,0.0394,0.0112
455,0.0374,0.0129,0.0350,0.0039
456,0.0374,0.0129,0.0350,0.0039
457,0.0425,0.0108,0.0434,0.0093
458,0.0421,0.0122,0.0617,0.0053
459,0.0374,0.0129,0.0350,0.0039
460,0.0374,0.0129,0.0350,0.0039
461,0.0355,0.0135,0.0310,0.0105
462,0.0374,0.0129,0.0350,0.0039
463,0.0425,0.0108,0.0434,0.0093
464,0.0359,0.0178,0.0394,0.0112
465,0.0374,0.0129,0.0350,0.0039
466,0.0374,0.0129,0.0350,0.0039
467,0.0359,0.0178,0.0394,0.0112
468,0.0425,0.0108,0.0434,0.0093
469,0.0459,0.0159,0.0655,0.0049
470,0.0374,0.0129,0.0350,0.0039
471,0.0359,0.0178,0.0394,0.0112
472,0.0374,0.0129,0.0350,0.0039
473,0.0347,0.0120,0.0429,0.0075
474,0.0425,0.0108,0.0434,0.0093
475,0.0374,0.0129,0.0350,0.0039
476,0.0374,0.0129,0.0350,0.0039
477,0.0359,0.0178,0.0394,0.0112
478,0.0374,0.0129,0.0350,0.0039
479,0.0425,0.0108,0.0434,0.0093
480,0.0459,0.0159,0.0655,0.0049
481,0.0359,0.0178,0.0394,0.0112
482,0.0374,0.0129,0.0350,0.0039
483,0.0374,0.0129,0.0350,0.0039
484,0.0359,0.0178,0.0394,0.0112
485,0.0403,0.0118,0.0597,0.0113
486,0.0374,0.0129,0.0350,0.0039
487,0.0359,0.0178,0.0394,0.0112
488,0.0374,0.0129,0.0350,0.0039
489,0.0374,0.0129,0.0350,0.0039
490,0.0425,0.0108,0.0434,0.0093
491,0.0337,0.0137,0.0702,0.0104
492,0.0920,0.0191,0.0443,0.0219
493,0.0790,0.0188,0.0451,0.0198
494,0.0944,0.0247,0.0435,0.0219
495,0.0586,0.0179,0.0453,0.0156
496,0.0401,0.0116,0.0577,0.0116
497,0.0342,0.0148,0.0368,0.0118
498,0.0459,0.0168,0.0436,0.0117
499,0.0422,0.0161,0.0421,0.0099
500,0.0435,0.0208,0.0446,0.0140
501,0.0438,0.0118,0.0419,0.0092
502,0.0459,0.0159,0.0655,0.0049
503,0.0379,0.0138,0.0366,0.0050
504,0.0356,0.0167,0.0371,0.0106
505,0.0367,0.0112,0.0339,0.0037
506,0.0363,0.0111,0.0353,0.0047
507,0.0403,0.0113,0.0530,0.0117
508,0.0352,0.0117,0.0402,0.0070
509,0.0346,0.0127,0.0503,0.0071
510,0.0351,0.0138,0.0323,0.0111
511,0.0344,0.0123,0.0455,0.0076
512,0.0408,0.0119,0.0615,0.0109
513,0.0459,0.0159,0.0655,0.0049
514,0.0339,0.0153,0.0393,0.0118
515,0.0351,0.0128,0.0523,0.0066
516,0.0388,0.0156,0.0331,0.0171
517,0.0350,0.0180,0.0308,0.0184
518,0.0445,0.0148,0.0426,0.0127
519,0.0445,0.0148,0.0426,0.0127
520,0.0445,0.0148,0.0426,0.0127
521,0.0445,0.0148,0.0426,0.0127
522,0.0445,0.0148,0.0426,0.0127
523,0.0445,0.0148,0.0426,0.0127
524,0.0459,0.0159,0.0655,0.0049
525,0.0359,0.0127,0.0325,0.0038
526,0.0359,0.0127,0.0325,0.0038
527,0.0350,0.0175,0.0352,0.0112
528,0.0359,0.0117,0.0324,0.0033
529,0.0417,0.0107,0.0460,0.0102
530,0.0340,0.0156,0.0319,0.0103
531,0.0357,0.0110,0.0357,0.0050
532,0.0355,0.0112,0.0386,0.0064
533,0.0346,0.0134,0.0310,0.0106
534,0.0402,0.0112,0.0593,0.0119
535,0.0459,0.0159,0.0655,0.0049
536,0.0346,0.0118,0.0473,0.0080
537,0.0342,0.0143,0.0385,0.0120
538,0.0346,0.0119,0.0521,0.0075
539,0.0350,0.0119,0.0541,0.0071
540,0.0413,0.0108,0.0489,0.0111
541,0.0353,0.0146,0.0327,0.0180
542,0.0354,0.0140,0.0327,0.0142
543,0.0347,0.0197,0.0300,0.0163
544,0.0357,0.0134,0.0324,0.0087
545,0.0422,0.0120,0.0430,0.0106
546,0.0337,0.0137,0.0702,0.0104
547,0.0371,0.0212,0.0321,0.0113
548,0.0363,0.0133,0.0322,0.0050
549,0.0362,0.0132,0.0323,0.0043
550,0.0365,0.0191,0.0343,0.0105
551,0.0418,0.0108,0.0432,0.0094
552,0.0357,0.0110,0.0357,0.0050
553,0.0344,0.0167,0.0355,0.0121
554,0.0369,0.0117,0.0324,0.0057
555,0.0381,0.0111,0.0324,0.0067
556,0.0455,0.0127,0.0445,0.0108
557,0.0724,0.0447,0.0676,0.0202
558,0.0459,0.0159,0.0655,0.0049
559,0.0419,0.0122,0.0322,0.0074
560,0.0440,0.0156,0.0322,0.0072
561,0.0428,0.0162,0.0353,0.0179
562,0.0477,0.0287,0.0321,0.0087
563,0.0493,0.0428,0.0416,0.0178
564,0.0508,0.0402,0.0347,0.0141
565,0.0355,0.0112,0.0386,0.0064
566,0.0359,0.0127,0.0325,0.0038
567,0.0350,0.0175,0.0352,0.0112
568,0.0420,0.0107,0.0434,0.0094
569,0.0459,0.0159,0.0655,0.0049
570,0.0359,0.0127,0.0325,0.0038
571,0.0350,0.0175,0.0352,0.0112
572,0.0359,0.0127,0.0325,0.0038
573,0.0359,0.0127,0.0325,0.0038
574,0.0420,0.0107,0.0434,0.0094
575,0.0359,0.0127,0.0325,0.0038
576,0.0359,0.0127,0.0325,0.0038
577,0.0346,0.0134,0.0310,0.0106
578,0.0359,0.0127,0.0325,0.0038
579,0.0420,0.0107,0.0434,0.0094
580,0.0431,0.0135,0.0627,0.0060
581,0.0350,0.0175,0.0352,0.0112
582,0.0359,0.0127,0.0325,0.0038
583,0.0359,0.0127,0.0325,0.0038
584,0.0350,0.0175,0.0352,0.0112
585,0.0420,0.0107,0.0434,0.0094
586,0.0359,0.0127,0.0325,0.0038
587,0.0350,0.0175,0.0352,0.0112
588,0.0359,0.0127,0.0325,0.0038
589,0.0348,0.0116,0.0445,0.0079
590,0.0420,0.0107,0.0434,0.0094
591,0.0459,0.0159,0.0655,0.0049
592,0.0359,0.0127,0.0325,0.0038
593,0.0359,0.0127,0.0325,0.0038
594,0.0350,0.0175,0.0352,0.0112
595,0.0359,0.0127,0.0325,0.0038
596,0.0420,0.0107,0.0434,0.0094
597,0.0350,0.0175,0.0352,0.0112
598,0.0359,0.0127,0.0325,0.0038
599,0.0359,0.0127,0.0325,0.0038
600,0.0350,0.0175,0.0352,0.0112
601,0.0403,0.0113,0.0614,0.0116
602,0.0337,0.0137,0.0702,0.0104
603,0.0359,0.0127,0.0325,0.0038
604,0.0350,0.0175,0.0352,0.0112
605,0.0359,0.0127,0.0325,0.0038
606,0.0359,0.0127,0.0325,0.0038
607,0.0420,0.0107,0.0434,0.0094
608,0.0995,0.0179,0.0376,0.0219
609,0.0854,0.0176,0.0384,0.0198
610,0.1037,0.0237,0.0375,0.0222
611,0.0623,0.0169,0.0390,0.0157
612,0.0402,0.0112,0.0593,0.0119
613,0.0459,0.0159,0.0655,0.0049
614,0.0342,0.0143,0.0385,0.0120
615,0.0468,0.0160,0.0380,0.0117
616,0.0419,0.0154,0.0370,0.0098
617,0.0462,0.0202,0.0391,0.0142
618,0.0426,0.0114,0.0403,0.0090
619,0.0362,0.0134,0.0334,0.0049
620,0.0341,0.0165,0.0335,0.0106
621,0.0358,0.0111,0.0335,0.0038
622,0.0357,0.0110,0.0357,0.0050
623,0.0406,0.0111,0.0544,0.0120
624,0.0459,0.0159,0.0655,0.0049
625,0.0352,0.0114,0.0416,0.0074
626,0.0346,0.0119,0.0521,0.0075
627,0.0346,0.0136,0.0330,0.0111
628,0.0346,0.0118,0.0473,0.0080
629,0.0406,0.0114,0.0632,0.0112
630,0.0340,0.0147,0.0412,0.0120
631,0.0350,0.0119,0.0541,0.0071
632,0.0353,0.0146,0.0327,0.0180
633,0.0339,0.0190,0.0300,0.0195
634,0.0424,0.0130,0.0428,0.0126
635,0.0459,0.0159,0.0655,0.0049
636,0.0424,0.0130,0.0428,0.0126
637,0.0424,0.0130,0.0428,0.0126
638,0.0424,0.0130,0.0428,0.0126
639,0.0424,0.0130,0.0428,0.0126
640,0.0424,0.0130,0.0428,0.0126
641,0.0357,0.0232,0.0594,0.0079
642,0.0357,0.0232,0.0594,0.0079
643,0.0355,0.0276,0.0747,0.0124
644,0.0369,0.0206,0.0539,0.0074
645,0.0498,0.0158,0.0494,0.0115
646,0.0459,0.0159,0.0655,0.0049
647,0.0338,0.0234,0.0629,0.0115
648,0.0420,0.0150,0.0443,0.0068
649,0.0453,0.0136,0.0418,0.0070
650,0.0380,0.0160,0.0451,0.0111
651,0.0659,0.0155,0.0518,0.0124
652,0.0558,0.0149,0.0413,0.0080
653,0.0477,0.0162,0.0370,0.0115
654,0.0625,0.0182,0.0438,0.0084
655,0.0658,0.0201,0.0452,0.0087
656,0.0530,0.0142,0.0485,0.0117
657,0.0337,0.0137,0.0702,0.0104
658,0.0575,0.0431,0.0569,0.0194
659,0.0531,0.0353,0.0565,0.0165
660,0.0570,0.0266,0.0660,0.0192
661,0.0447,0.0219,0.0578,0.0115
662,0.0412,0.0201,0.0537,0.0108
663,0.0463,0.0199,0.0722,0.0140
664,0.0371,0.0150,0.0607,0.0056
665,0.0361,0.0164,0.0609,0.0045
666,0.0386,0.0239,0.0747,0.0109
667,0.0458,0.0162,0.0526,0.0108
668,0.0690,0.0372,0.0676,0.0177
669,0.0459,0.0159,0.0655,0.0049
670,0.0420,0.0150,0.0443,0.0068
671,0.0345,0.0293,0.0741,0.0142
672,0.0362,0.0275,0.0572,0.0116
673,0.0364,0.0287,0.0556,0.0130
674,0.0484,0.0226,0.0483,0.0133
675,0.0368,0.0291,0.0522,0.0135
676,0.0373,0.0277,0.0501,0.0127
677,0.0342,0.0325,0.0659,0.0221
678,0.0382,0.0252,0.0468,0.0112
679,0.0469,0.0296,0.0455,0.0189
680,0.0459,0.0159,0.0655,0.0049
681,0.0370,0.0292,0.0599,0.0163
682,0.0453,0.0136,0.0418,0.0070
683,0.0357,0.0232,0.0594,0.0079
684,0.0355,0.0276,0.0747,0.0124
685,0.0469,0.0183,0.0518,0.0115
686,0.0357,0.0232,0.0594,0.0079
687,0.0355,0.0276,0.0747,0.0124
688,0.0357,0.0232,0.0594,0.0079
689,0.0357,0.0232,0.0594,0.0079
690,0.0469,0.0183,0.0518,0.0115
691,0.0459,0.0159,0.0655,0.0049
692,0.0357,0.0232,0.0594,0.0079
693,0.0357,0.0232,0.0594,0.0079
694,0.0380,0.0160,0.0451,0.0111
695,0.0357,0.0232,0.0594,0.0079
696,0.0469,0.0183,0.0518,0.0115
697,0.0355,0.0276,0.0747,0.0124
698,0.0357,0.0232,0.0594,0.0079
699,0.0357,0.0232,0.0594,0.0079
700,0.0355,0.0276,0.0747,0.0124
701,0.0469,0.0183,0.0518,0.0115
702,0.0445,0.0150,0.0640,0.0064
703,0.0357,0.0232,0.0594,0.0079
704,0.0355,0.0276,0.0747,0.0124
705,0.0357,0.0232,0.0594,0.0079
706,0.0523,0.0137,0.0406,0.0077
707,0.0469,0.0183,0.0518,0.0115
708,0.0357,0.0232,0.0594,0.0079
709,0.0357,0.0232,0.0594,0.0079
710,0.0355,0.0276,0.0747,0.0124
711,0.0357,0.0232,0.0594,0.0079
712,0.0469,0.0183,0.0518,0.0115
713,0.0337,0.0137,0.0702,0.0104
714,0.0355,0.0276,0.0747,0.0124
715,0.0357,0.0232,0.0594,0.0079
716,0.0357,0.0232,0.0594,0.0079
717,0.0355,0.0276,0.0747,0.0124
718,0.0689,0.0169,0.0532,0.0125
719,0.0357,0.0232,0.0594,0.0079
720,0.0355,0.0276,0.0747,0.0124
721,0.0357,0.0232,0.0594,0.0079
722,0.0357,0.0232,0.0594,0.0079
723,0.0469,0.0183,0.0518,0.0115
724,0.0459,0.0159,0.0655,0.0049
725,0.0780,0.0347,0.1069,0.0229
726,0.0699,0.0343,0.1039,0.0209
727,0.0748,0.0373,0.1083,0.0217
728,0.0561,0.0333,0.0963,0.0171
729,0.0659,0.0155,0.0518,0.0124
730,0.0477,0.0162,0.0370,0.0115
731,0.0455,0.0315,0.0869,0.0137
732,0.0415,0.0303,0.0817,0.0123
733,0.0446,0.0324,0.0906,0.0148
734,0.0429,0.0240,0.0601,0.0124
735,0.0459,0.0159,0.0655,0.0049
736,0.0356,0.0254,0.0650,0.0087
737,0.0342,0.0256,0.0689,0.0118
738,0.0390,0.0177,0.0487,0.0069
739,0.0420,0.0150,0.0443,0.0068
740,0.0595,0.0136,0.0493,0.0122
741,0.0488,0.0132,0.0407,0.0074
742,0.0625,0.0182,0.0438,0.0084
743,0.0409,0.0150,0.0408,0.0111
744,0.0558,0.0149,0.0413,0.0080
745,0.0719,0.0185,0.0546,0.0127
746,0.0459,0.0159,0.0655,0.0049
747,0.0511,0.0177,0.0369,0.0117
748,0.0658,0.0201,0.0452,0.0087
749,0.0575,0.0431,0.0569,0.0194
750,0.0610,0.0342,0.0638,0.0213
751,0.0445,0.0309,0.0541,0.0139
752,0.0445,0.0309,0.0541,0.0139
753,0.0445,0.0309,0.0541,0.0139
754,0.0445,0.0309,0.0541,0.0139
755,0.0445,0.0309,0.0541,0.0139
756,0.0445,0.0309,0.0541,0.0139
757,0.0459,0.0159,0.0655,0.0049
758,0.0348,0.0211,0.0561,0.0068
759,0.0348,0.0211,0.0561,0.0068
760,0.0364,0.0252,0.0705,0.0121
761,0.0350,0.0189,0.0509,0.0061
762,0.0452,0.0149,0.0479,0.0107
763,0.0337,0.0218,0.0595,0.0111
764,0.0380,0.0142,0.0421,0.0055
765,0.0404,0.0130,0.0401,0.0058
766,0.0352,0.0154,0.0424,0.0106
767,0.0588,0.0138,0.0518,0.0116
768,0.0337,0.0137,0.0702,0.0104
769,0.0492,0.0135,0.0409,0.0068
770,0.0425,0.0152,0.0359,0.0110
771,0.0555,0.0157,0.0439,0.0071
772,0.0585,0.0169,0.0454,0.0072
773,0.0477,0.0137,0.0475,0.0109
774,0.0552,0.0357,0.0528,0.0190
775,0.0515,0.0294,0.0526,0.0160
776,0.0537,0.0232,0.0609,0.0181
777,0.0444,0.0193,0.0538,0.0111
778,0.0416,0.0180,0.0512,0.0108
779,0.0653,0.0301,0.0678,0.0156
780,0.0459,0.0159,0.0655,0.0049
781,0.0451,0.0199,0.0675,0.0134
782,0.0378,0.0147,0.0569,0.0056
783,0.0366,0.0159,0.0573,0.0045
784,0.0392,0.0227,0.0703,0.0109
785,0.0428,0.0151,0.0504,0.0100
786,0.0380,0.0142,0.0421,0.0055
787,0.0353,0.0265,0.0702,0.0137
788,0.0342,0.0245,0.0542,0.0103
789,0.0341,0.0256,0.0528,0.0115
790,0.0435,0.0208,0.0470,0.0126
791,0.0459,0.0159,0.0655,0.0049
792,0.0343,0.0253,0.0495,0.0122
793,0.0348,0.0242,0.0477,0.0115
794,0.0348,0.0276,0.0629,0.0212
795,0.0359,0.0231,0.0449,0.0107
796,0.0431,0.0293,0.0445,0.0190
797,0.0377,0.0273,0.0573,0.0158
798,0.0404,0.0130,0.0401,0.0058
799,0.0348,0.0211,0.0561,0.0068
800,0.0364,0.0252,0.0705,0.0121
801,0.0432,0.0168,0.0498,0.0106
802,0.0459,0.0159,0.0655,0.0049
803,0.0348,0.0211,0.0561,0.0068
804,0.0364,0.0252,0.0705,0.0121
805,0.0348,0.0211,0.0561,0.0068
806,0.0348,0.0211,0.0561,0.0068
807,0.0432,0.0168,0.0498,0.0106
808,0.0348,0.0211,0.0561,0.0068
809,0.0348,0.0211,0.0561,0.0068
810,0.0352,0.0154,0.0424,0.0106
811,0.0348,0.0211,0.0561,0.0068
812,0.0432,0.0168,0.0498,0.0106
813,0.0459,0.0159,0.0655,0.0049
814,0.0364,0.0252,0.0705,0.0121
815,0.0348,0.0211,0.0561,0.0068
816,0.0348,0.0211,0.0561,0.0068
817,0.0364,0.0252,0.0705,0.0121
818,0.0432,0.0168,0.0498,0.0106
819,0.0348,0.0211,0.0561,0.0068
820,0.0364,0.0252,0.0705,0.0121
821,0.0348,0.0211,0.0561,0.0068
822,0.0462,0.0128,0.0399,0.0066
823,0.0432,0.0168,0.0498,0.0106
824,0.0458,0.0181,0.0787,0.0116
825,0.0348,0.0211,0.0561,0.0068
826,0.0348,0.0211,0.0561,0.0068
827,0.0364,0.0252,0.0705,0.0121
828,0.0348,0.0211,0.0561,0.0068
829,0.0432,0.0168,0.0498,0.0106
830,0.0364,0.0252,0.0705,0.0121
831,0.0348,0.0211,0.0561,0.0068
832,0.0348,0.0211,0.0561,0.0068
833,0.0364,0.0252,0.0705,0.0121
834,0.0616,0.0147,0.0534,0.0116
835,0.0459,0.0159,0.0655,0.0049
836,0.0348,0.0211,0.0561,0.0068
837,0.0364,0.0252,0.0705,0.0121
838,0.0348,0.0211,0.0561,0.0068
839,0.0348,0.0211,0.0561,0.0068
840,0.0432,0.0168,0.0498,0.0106
841,0.0767,0.0306,0.0994,0.0229
842,0.0689,0.0303,0.0970,0.0208
843,0.0730,0.0339,0.1005,0.0220
844,0.0560,0.0293,0.0903,0.0169
845,0.0588,0.0138,0.0518,0.0116
846,0.0459,0.0159,0.0655,0.0049
847,0.0425,0.0152,0.0359,0.0110
848,0.0462,0.0279,0.0820,0.0133
849,0.0424,0.0269,0.0772,0.0117
850,0.0448,0.0294,0.0854,0.0147
851,0.0412,0.0218,0.0574,0.0114
852,0.0355,0.0228,0.0615,0.0078
853,0.0348,0.0236,0.0652,0.0115
854,0.0361,0.0164,0.0460,0.0056
855,0.0380,0.0142,0.0421,0.0055
856,0.0531,0.0129,0.0489,0.0115
857,0.0459,0.0159,0.0655,0.0049
858,0.0432,0.0126,0.0396,0.0063
859,0.0555,0.0157,0.0439,0.0071
860,0.0372,0.0145,0.0387,0.0106
861,0.0492,0.0135,0.0409,0.0068
862,0.0644,0.0158,0.0548,0.0117
863,0.0454,0.0162,0.0361,0.0111
864,0.0585,0.0169,0.0454,0.0072
865,0.0552,0.0357,0.0528,0.0190
866,0.0570,0.0284,0.0588,0.0204
867,0.0450,0.0265,0.0515,0.0139
868,0.0459,0.0159,0.0655,0.0049
869,0.0450,0.0265,0.0515,0.0139
870,0.0450,0.0265,0.0515,0.0139
871,0.0450,0.0265,0.0515,0.0139
872,0.0450,0.0265,0.0515,0.0139
873,0.0450,0.0265,0.0515,0.0139
874,0.0353,0.0173,0.0478,0.0052
875,0.0353,0.0173,0.0478,0.0052
876,0.0368,0.0214,0.0598,0.0118
877,0.0345,0.0156,0.0435,0.0043
878,0.0404,0.0129,0.0449,0.0098
879,0.0337,0.0137,0.0702,0.0104
880,0.0346,0.0189,0.0504,0.0107
881,0.0342,0.0126,0.0374,0.0041
882,0.0349,0.0119,0.0369,0.0048
883,0.0332,0.0144,0.0364,0.0102
884,0.0473,0.0120,0.0525,0.0110
885,0.0393,0.0118,0.0407,0.0060
886,0.0357,0.0139,0.0341,0.0107
887,0.0437,0.0124,0.0447,0.0058
888,0.0460,0.0128,0.0465,0.0055
889,0.0411,0.0123,0.0456,0.0103
890,0.0618,0.0237,0.0682,0.0136
891,0.1112,0.0292,0.0926,0.0207
892,0.0476,0.0221,0.0434,0.0192
893,0.0455,0.0192,0.0433,0.0158
894,0.0442,0.0189,0.0491,0.0172
895,0.0414,0.0151,0.0445,0.0104
896,0.0423,0.0142,0.0458,0.0108
897,0.0403,0.0206,0.0558,0.0123
898,0.0379,0.0143,0.0477,0.0055
899,0.0372,0.0149,0.0483,0.0045
900,0.0381,0.0211,0.0591,0.0109
901,0.0404,0.0129,0.0456,0.0092
902,0.1008,0.0285,0.0910,0.0187
903,0.0342,0.0126,0.0374,0.0041
904,0.0362,0.0216,0.0597,0.0130
905,0.0345,0.0185,0.0464,0.0077
906,0.0344,0.0186,0.0455,0.0087
907,0.0394,0.0157,0.0442,0.0115
908,0.0350,0.0172,0.0429,0.0093
909,0.0357,0.0164,0.0416,0.0088
910,0.0388,0.0181,0.0550,0.0189
911,0.0372,0.0196,0.0399,0.0099
912,0.0406,0.0297,0.0424,0.0195
913,0.0914,0.0275,0.0890,0.0168
914,0.0423,0.0266,0.0509,0.0145
915,0.0349,0.0119,0.0369,0.0048
916,0.0353,0.0173,0.0478,0.0052
917,0.0368,0.0214,0.0598,0.0118
918,0.0401,0.0139,0.0454,0.0095
919,0.0353,0.0173,0.0478,0.0052
920,0.0368,0.0214,0.0598,0.0118
921,0.0353,0.0173,0.0478,0.0052
922,0.0353,0.0173,0.0478,0.0052
923,0.0401,0.0139,0.0454,0.0095
924,0.0828,0.0265,0.0866,0.0149
925,0.0353,0.0173,0.0478,0.0052
926,0.0353,0.0173,0.0478,0.0052
927,0.0332,0.0144,0.0364,0.0102
928,0.0353,0.0173,0.0478,0.0052
929,0.0401,0.0139,0.0454,0.0095
930,0.0368,0.0214,0.0598,0.0118
931,0.0353,0.0173,0.0478,0.0052
932,0.0353,0.0173,0.0478,0.0052
933,0.0368,0.0214,0.0598,0.0118
934,0.0401,0.0139,0.0454,0.0095
935,0.0431,0.0170,0.0772,0.0117
936,0.0353,0.0173,0.0478,0.0052
937,0.0368,0.0214,0.0598,0.0118
938,0.0353,0.0173,0.0478,0.0052
939,0.0375,0.0116,0.0389,0.0059
940,0.0401,0.0139,0.0454,0.0095
941,0.0353,0.0173,0.0478,0.0052
942,0.0353,0.0173,0.0478,0.0052
943,0.0368,0.0214,0.0598,0.0118
944,0.0353,0.0173,0.0478,0.0052
945,0.0401,0.0139,0.0454,0.0095
946,0.0483,0.0183,0.0671,0.0066
947,0.0368,0.0214,0.0598,0.0118
948,0.0353,0.0173,0.0478,0.0052
949,0.0353,0.0173,0.0478,0.0052
950,0.0368,0.0214,0.0598,0.0118
951,0.0494,0.0124,0.0544,0.0108
952,0.0353,0.0173,0.0478,0.0052
953,0.0368,0.0214,0.0598,0.0118
954,0.0353,0.0173,0.0478,0.0052
955,0.0353,0.0173,0.0478,0.0052
956,0.0401,0.0139,0.0454,0.0095
957,0.0682,0.0242,0.0809,0.0114
958,0.0743,0.0236,0.0804,0.0230
959,0.0660,0.0234,0.0793,0.0208
960,0.0714,0.0282,0.0810,0.0227
961,0.0535,0.0227,0.0751,0.0166
962,0.0473,0.0120,0.0525,0.0110
963,0.0357,0.0139,0.0341,0.0107
964,0.0452,0.0217,0.0689,0.0128
965,0.0424,0.0211,0.0652,0.0110
966,0.0426,0.0246,0.0717,0.0148
967,0.0411,0.0170,0.0504,0.0099
968,0.0621,0.0227,0.0778,0.0098
969,0.0365,0.0184,0.0522,0.0064
970,0.0356,0.0202,0.0553,0.0111
971,0.0341,0.0138,0.0397,0.0039
972,0.0342,0.0126,0.0374,0.0041
973,0.0437,0.0118,0.0486,0.0110
974,0.0360,0.0116,0.0376,0.0055
975,0.0437,0.0124,0.0447,0.0058
976,0.0335,0.0138,0.0342,0.0103
977,0.0393,0.0118,0.0407,0.0060
978,0.0516,0.0128,0.0560,0.0106
979,0.0569,0.0212,0.0746,0.0083
980,0.0373,0.0143,0.0353,0.0107
981,0.0460,0.0128,0.0465,0.0055
982,0.0476,0.0221,0.0434,0.0192
983,0.0460,0.0197,0.0472,0.0200
984,0.0446,0.0185,0.0458,0.0138
985,0.0446,0.0185,0.0458,0.0138
986,0.0446,0.0185,0.0458,0.0138
987,0.0446,0.0185,0.0458,0.0138
988,0.0446,0.0185,0.0458,0.0138
989,0.0446,0.0185,0.0458,0.0138
990,0.0377,0.0173,0.0722,0.0110
991,0.0354,0.0151,0.0399,0.0045
992,0.0354,0.0151,0.0399,0.0045
993,0.0353,0.0196,0.0494,0.0118
994,0.0348,0.0138,0.0368,0.0036
995,0.0399,0.0117,0.0432,0.0099
996,0.0342,0.0176,0.0419,0.0106
997,0.0341,0.0118,0.0343,0.0041
998,0.0340,0.0114,0.0353,0.0053
999,0.0333,0.0139,0.0319,0.0102
1000,0.0426,0.0115,0.0541,0.0113
1001,0.0423,0.0244,0.0724,0.0120
1002,0.0489,0.0177,0.0682,0.0059
1003,0.0358,0.0111,0.0419,0.0067
1004,0.0339,0.0134,0.0340,0.0110
1005,0.0384,0.0113,0.0466,0.0062
1006,0.0401,0.0114,0.0487,0.0058
1007,0.0399,0.0114,0.0450,0.0106
1008,0.0396,0.0156,0.0360,0.0210
1009,0.0388,0.0147,0.0360,0.0170
1010,0.0359,0.0193,0.0392,0.0185
1011,0.0372,0.0139,0.0369,0.0107
1012,0.0418,0.0121,0.0420,0.0107
1013,0.0437,0.0138,0.0633,0.0044
1014,0.0358,0.0218,0.0453,0.0121
1015,0.0365,0.0144,0.0393,0.0053
1016,0.0363,0.0146,0.0398,0.0045
1017,0.0359,0.0205,0.0486,0.0110
1018,0.0405,0.0118,0.0422,0.0092
1019,0.0341,0.0118,0.0343,0.0041
1020,0.0349,0.0190,0.0495,0.0127
1021,0.0351,0.0147,0.0390,0.0060
1022,0.0354,0.0141,0.0383,0.0067
1023,0.0404,0.0122,0.0424,0.0114
1024,0.0423,0.0122,0.0619,0.0042
1025,0.0369,0.0123,0.0368,0.0070
1026,0.0380,0.0125,0.0361,0.0069
1027,0.0398,0.0140,0.0467,0.0168
1028,0.0402,0.0203,0.0354,0.0099
1029,0.0423,0.0320,0.0408,0.0204
1030,0.0447,0.0302,0.0441,0.0137
1031,0.0340,0.0114,0.0353,0.0053
1032,0.0354,0.0151,0.0399,0.0045
1033,0.0353,0.0196,0.0494,0.0118
1034,0.0402,0.0122,0.0422,0.0093
1035,0.0418,0.0116,0.0612,0.0045
1036,0.0354,0.0151,0.0399,0.0045
1037,0.0353,0.0196,0.0494,0.0118
1038,0.0354,0.0151,0.0399,0.0045
1039,0.0354,0.0151,0.0399,0.0045
1040,0.0402,0.0122,0.0422,0.0093
1041,0.0354,0.0151,0.0399,0.0045
1042,0.0354,0.0151,0.0399,0.0045
1043,0.0333,0.0139,0.0319,0.0102
1044,0.0354,0.0151,0.0399,0.0045
1045,0.0402,0.0122,0.0422,0.0093
1046,0.0382,0.0147,0.0741,0.0116
1047,0.0353,0.0196,0.0494,0.0118
1048,0.0354,0.0151,0.0399,0.0045
1049,0.0354,0.0151,0.0399,0.0045
1050,0.0353,0.0196,0.0494,0.0118
1051,0.0402,0.0122,0.0422,0.0093
1052,0.0354,0.0151,0.0399,0.0045
1053,0.0353,0.0196,0.0494,0.0118
1054,0.0354,0.0151,0.0399,0.0045
1055,0.0349,0.0111,0.0395,0.0066
1056,0.0402,0.0122,0.0422,0.0093
1057,0.0431,0.0135,0.0627,0.0060
1058,0.0354,0.0151,0.0399,0.0045
1059,0.0354,0.0151,0.0399,0.0045
1060,0.0353,0.0196,0.0494,0.0118
1061,0.0354,0.0151,0.0399,0.0045
1062,0.0402,0.0122,0.0422,0.0093
1063,0.0353,0.0196,0.0494,0.0118
1064,0.0354,0.0151,0.0399,0.0045
1065,0.0354,0.0151,0.0399,0.0045
1066,0.0353,0.0196,0.0494,0.0118
1067,0.0439,0.0118,0.0562,0.0111
1068,0.0505,0.0199,0.0687,0.0065
1069,0.0354,0.0151,0.0399,0.0045
1070,0.0353,0.0196,0.0494,0.0118
1071,0.0354,0.0151,0.0399,0.0045
1072,0.0354,0.0151,0.0399,0.0045
1073,0.0402,0.0122,0.0422,0.0093
1074,0.0780,0.0196,0.0628,0.0231
1075,0.0678,0.0195,0.0626,0.0209
1076,0.0782,0.0249,0.0636,0.0234
1077,0.0524,0.0191,0.0604,0.0166
1078,0.0426,0.0115,0.0541,0.0113
1079,0.0445,0.0150,0.0640,0.0064
1080,0.0339,0.0134,0.0340,0.0110
1081,0.0432,0.0184,0.0561,0.0126
1082,0.0404,0.0179,0.0533,0.0107
1083,0.0407,0.0221,0.0588,0.0151
1084,0.0414,0.0141,0.0441,0.0093
1085,0.0362,0.0160,0.0433,0.0057
1086,0.0347,0.0186,0.0457,0.0111
1087,0.0344,0.0125,0.0347,0.0034
1088,0.0341,0.0118,0.0343,0.0041
1089,0.0408,0.0113,0.0495,0.0115
1090,0.0463,0.0167,0.0655,0.0065
1091,0.0343,0.0112,0.0372,0.0062
1092,0.0384,0.0113,0.0466,0.0062
1093,0.0332,0.0135,0.0314,0.0105
1094,0.0358,0.0111,0.0419,0.0067
1095,0.0454,0.0122,0.0581,0.0107
1096,0.0347,0.0135,0.0361,0.0110
1097,0.0401,0.0114,0.0487,0.0058
1098,0.0396,0.0156,0.0360,0.0210
1099,0.0365,0.0185,0.0378,0.0219
1100,0.0426,0.0137,0.0419,0.0140
1101,0.0486,0.0193,0.0800,0.0116
1102,0.0426,0.0137,0.0419,0.0140
1103,0.0426,0.0137,0.0419,0.0140
1104,0.0426,0.0137,0.0419,0.0140
1105,0.0426,0.0137,0.0419,0.0140
1106,0.0426,0.0137,0.0419,0.0140
1107,0.0350,0.0145,0.0365,0.0043
1108,0.0350,0.0145,0.0365,0.0043
1109,0.0348,0.0191,0.0448,0.0118
1110,0.0346,0.0134,0.0341,0.0034
1111,0.0400,0.0113,0.0430,0.0101
1112,0.0450,0.0175,0.0683,0.0058
1113,0.0557,0.0145,0.0691,0.0096
1114,0.0505,0.0199,0.0687,0.0065
1115,0.0337,0.0173,0.0382,0.0106
1116,0.0341,0.0116,0.0336,0.0044
1117,0.0340,0.0112,0.0354,0.0056
1118,0.0333,0.0139,0.0306,0.0102
1119,0.0417,0.0115,0.0553,0.0117
1120,0.0352,0.0110,0.0431,0.0072
1121,0.0337,0.0133,0.0348,0.0112
1122,0.0373,0.0111,0.0480,0.0067
1123,0.0386,0.0112,0.0501,0.0062
1124,0.0399,0.0111,0.0453,0.0109
1125,0.0529,0.0213,0.0701,0.0064
1126,0.0365,0.0150,0.0335,0.0223
1127,0.0360,0.0145,0.0335,0.0180
1128,0.0337,0.0206,0.0356,0.0197
1129,0.0355,0.0142,0.0341,0.0112
1130,0.0413,0.0116,0.0410,0.0107
1131,0.0352,0.0225,0.0409,0.0124
1132,0.0358,0.0147,0.0359,0.0054
1133,0.0358,0.0147,0.0363,0.0045
1134,0.0356,0.0205,0.0439,0.0111
1135,0.0405,0.0116,0.0413,0.0092
1136,0.0684,0.0369,0.0647,0.0188
1137,0.0341,0.0116,0.0336,0.0044
1138,0.0343,0.0183,0.0449,0.0126
1139,0.0348,0.0136,0.0358,0.0055
1140,0.0352,0.0128,0.0354,0.0059
1141,0.0408,0.0113,0.0421,0.0116
1142,0.0370,0.0112,0.0343,0.0061
1143,0.0383,0.0123,0.0339,0.0063
1144,0.0390,0.0138,0.0428,0.0160
1145,0.0407,0.0218,0.0335,0.0102
1146,0.0432,0.0337,0.0403,0.0210
1147,0.0657,0.0308,0.0648,0.0163
1148,0.0445,0.0324,0.0409,0.0135
1149,0.0340,0.0112,0.0354,0.0056
1150,0.0350,0.0145,0.0365,0.0043
1151,0.0348,0.0191,0.0448,0.0118
1152,0.0403,0.0117,0.0414,0.0093
1153,0.0350,0.0145,0.0365,0.0043
1154,0.0348,0.0191,0.0448,0.0118
1155,0.0350,0.0145,0.0365,0.0043
1156,0.0350,0.0145,0.0365,0.0043
1157,0.0403,0.0117,0.0414,0.0093
1158,0.0490,0.0302,0.0709,0.0146
1159,0.0350,0.0145,0.0365,0.0043
1160,0.0350,0.0145,0.0365,0.0043
1161,0.0333,0.0139,0.0306,0.0102
1162,0.0350,0.0145,0.0365,0.0043
1163,0.0403,0.0117,0.0414,0.0093
1164,0.0348,0.0191,0.0448,0.0118
1165,0.0350,0.0145,0.0365,0.0043
1166,0.0350,0.0145,0.0365,0.0043
1167,0.0348,0.0191,0.0448,0.0118
1168,0.0403,0.0117,0.0414,0.0093
1169,0.0490,0.0302,0.0709,0.0146
1170,0.0350,0.0145,0.0365,0.0043
1171,0.0348,0.0191,0.0448,0.0118
1172,0.0350,0.0145,0.0365,0.0043
1173,0.0346,0.0110,0.0404,0.0070
1174,0.0403,0.0117,0.0414,0.0093
1175,0.0350,0.0145,0.0365,0.0043
1176,0.0350,0.0145,0.0365,0.0043
1177,0.0348,0.0191,0.0448,0.0118
1178,0.0350,0.0145,0.0365,0.0043
1179,0.0403,0.0117,0.0414,0.0093
1180,0.0490,0.0302,0.0709,0.0146
1181,0.0348,0.0191,0.0448,0.0118
1182,0.0350,0.0145,0.0365,0.0043
1183,0.0350,0.0145,0.0365,0.0043
1184,0.0348,0.0191,0.0448,0.0118
1185,0.0427,0.0118,0.0575,0.0114
1186,0.0350,0.0145,0.0365,0.0043
1187,0.0348,0.0191,0.0448,0.0118
1188,0.0350,0.0145,0.0365,0.0043
1189,0.0350,0.0145,0.0365,0.0043
1190,0.0403,0.0117,0.0414,0.0093
1191,0.0490,0.0302,0.0709,0.0146
1192,0.0828,0.0183,0.0550,0.0232
1193,0.0715,0.0182,0.0551,0.0210
1194,0.0847,0.0239,0.0561,0.0237
1195,0.0540,0.0179,0.0537,0.0167
1196,0.0417,0.0115,0.0553,0.0117
1197,0.0337,0.0133,0.0348,0.0112
1198,0.0433,0.0173,0.0502,0.0126
1199,0.0401,0.0169,0.0478,0.0106
1200,0.0417,0.0214,0.0529,0.0152
1201,0.0412,0.0133,0.0416,0.0091
1202,0.0490,0.0302,0.0709,0.0146
1203,0.0356,0.0153,0.0393,0.0056
1204,0.0341,0.0182,0.0415,0.0111
1205,0.0343,0.0122,0.0330,0.0035
1206,0.0341,0.0116,0.0336,0.0044
1207,0.0404,0.0111,0.0504,0.0118
1208,0.0342,0.0111,0.0378,0.0066
1209,0.0373,0.0111,0.0480,0.0067
1210,0.0332,0.0135,0.0310,0.0105
1211,0.0352,0.0110,0.0431,0.0072
1212,0.0438,0.0123,0.0594,0.0110
1213,0.0490,0.0302,0.0709,0.0146
1214,0.0343,0.0133,0.0372,0.0112
1215,0.0386,0.0112,0.0501,0.0062
1216,0.0365,0.0150,0.0335,0.0223
1217,0.0337,0.0197,0.0342,0.0235
1218,0.0415,0.0125,0.0408,0.0142
1219,0.0415,0.0125,0.0408,0.0142
1220,0.0415,0.0125,0.0408,0.0142
1221,0.0415,0.0125,0.0408,0.0142
1222,0.0415,0.0125,0.0408,0.0142
1223,0.0415,0.0125,0.0408,0.0142
1224,0.0531,0.0128,0.0693,0.0072
1225,0.0471,0.0130,0.0592,0.0036
1226,0.0471,0.0130,0.0592,0.0036
1227,0.0471,0.0130,0.0592,0.0036
1228,0.0452,0.0116,0.0583,0.0030
1229,0.0333,0.0119,0.0691,0.0102
1230,0.0436,0.0106,0.0582,0.0032
1231,0.0424,0.0105,0.0589,0.0041
1232,0.0417,0.0111,0.0605,0.0052
1233,0.0413,0.0120,0.0623,0.0061
1234,0.0345,0.0136,0.0783,0.0114
1235,0.0507,0.0128,0.0693,0.0049
1236,0.0418,0.0136,0.0662,0.0066
1237,0.0425,0.0144,0.0681,0.0065
1238,0.0436,0.0151,0.0700,0.0062
1239,0.0449,0.0156,0.0715,0.0058
1240,0.0325,0.0121,0.0709,0.0108
1241,0.0580,0.0221,0.0594,0.0170
1242,0.0568,0.0191,0.0594,0.0140
1243,0.0557,0.0165,0.0593,0.0117
1244,0.0545,0.0143,0.0593,0.0099
1245,0.0424,0.0166,0.0680,0.0116
1246,0.0485,0.0139,0.0692,0.0031
1247,0.0525,0.0118,0.0593,0.0072
1248,0.0515,0.0115,0.0594,0.0060
1249,0.0504,0.0117,0.0595,0.0047
1250,0.0493,0.0120,0.0595,0.0034
1251,0.0359,0.0117,0.0678,0.0095
1252,0.0424,0.0105,0.0589,0.0041
1253,0.0463,0.0135,0.0589,0.0054
1254,0.0457,0.0139,0.0587,0.0072
1255,0.0455,0.0140,0.0583,0.0088
1256,0.0338,0.0155,0.0677,0.0117
1257,0.0353,0.0136,0.0718,0.0103
1258,0.0462,0.0144,0.0574,0.0103
1259,0.0470,0.0162,0.0569,0.0100
1260,0.0479,0.0203,0.0564,0.0095
1261,0.0486,0.0269,0.0559,0.0098
1262,0.0358,0.0426,0.0642,0.0182
1263,0.0492,0.0459,0.0549,0.0138
1264,0.0417,0.0111,0.0605,0.0052
1265,0.0471,0.0130,0.0592,0.0036
1266,0.0471,0.0130,0.0592,0.0036
1267,0.0348,0.0120,0.0678,0.0097
1268,0.0428,0.0122,0.0625,0.0054
1269,0.0471,0.0130,0.0592,0.0036
1270,0.0471,0.0130,0.0592,0.0036
1271,0.0471,0.0130,0.0592,0.0036
1272,0.0471,0.0130,0.0592,0.0036
1273,0.0348,0.0120,0.0678,0.0097
1274,0.0471,0.0130,0.0592,0.0036
1275,0.0471,0.0130,0.0592,0.0036
1276,0.0413,0.0120,0.0623,0.0061
1277,0.0471,0.0130,0.0592,0.0036
1278,0.0348,0.0120,0.0678,0.0097
1279,0.0436,0.0196,0.0676,0.0085
1280,0.0471,0.0130,0.0592,0.0036
1281,0.0471,0.0130,0.0592,0.0036
1282,0.0471,0.0130,0.0592,0.0036
1283,0.0471,0.0130,0.0592,0.0036
1284,0.0348,0.0120,0.0678,0.0097
1285,0.0471,0.0130,0.0592,0.0036
1286,0.0471,0.0130,0.0592,0.0036
1287,0.0471,0.0130,0.0592,0.0036
1288,0.0414,0.0128,0.0642,0.0066
1289,0.0348,0.0120,0.0678,0.0097
1290,0.0425,0.0215,0.0670,0.0109
1291,0.0471,0.0130,0.0592,0.0036
1292,0.0471,0.0130,0.0592,0.0036
1293,0.0471,0.0130,0.0592,0.0036
1294,0.0471,0.0130,0.0592,0.0036
1295,0.0348,0.0120,0.0678,0.0097
1296,0.0471,0.0130,0.0592,0.0036
1297,0.0471,0.0130,0.0592,0.0036
1298,0.0471,0.0130,0.0592,0.0036
1299,0.0471,0.0130,0.0592,0.0036
1300,0.0359,0.0140,0.0800,0.0112
1301,0.0418,0.0227,0.0660,0.0130
1302,0.0471,0.0130,0.0592,0.0036
1303,0.0471,0.0130,0.0592,0.0036
1304,0.0471,0.0130,0.0592,0.0036
1305,0.0471,0.0130,0.0592,0.0036
1306,0.0348,0.0120,0.0678,0.0097
1307,0.1099,0.0230,0.0738,0.0209
1308,0.0982,0.0224,0.0733,0.0189
1309,0.0880,0.0217,0.0725,0.0169
1310,0.0792,0.0209,0.0713,0.0149
1311,0.0345,0.0136,0.0783,0.0114
1312,0.0343,0.0200,0.0698,0.0139
1313,0.0425,0.0144,0.0681,0.0065
1314,0.0653,0.0190,0.0682,0.0111
1315,0.0600,0.0180,0.0663,0.0094
1316,0.0558,0.0168,0.0643,0.0077
1317,0.0398,0.0138,0.0673,0.0098
1318,0.0495,0.0143,0.0606,0.0048
1319,0.0452,0.0116,0.0583,0.0030
1320,0.0436,0.0106,0.0582,0.0032
1321,0.0424,0.0105,0.0589,0.0041
1322,0.0326,0.0129,0.0746,0.0115
1323,0.0432,0.0152,0.0657,0.0054
1324,0.0414,0.0239,0.0640,0.0148
1325,0.0413,0.0120,0.0623,0.0061
1326,0.0436,0.0151,0.0700,0.0062
1327,0.0414,0.0128,0.0642,0.0066
1328,0.0418,0.0136,0.0662,0.0066
1329,0.0376,0.0142,0.0814,0.0109
1330,0.0436,0.0151,0.0700,0.0062
1331,0.0449,0.0156,0.0715,0.0058
1332,0.0580,0.0221,0.0594,0.0170
1333,0.0568,0.0191,0.0594,0.0140
1334,0.0458,0.0210,0.0679,0.0136
1335,0.0418,0.0238,0.0628,0.0143
1336,0.0458,0.0210,0.0679,0.0136
1337,0.0458,0.0210,0.0679,0.0136
1338,0.0458,0.0210,0.0679,0.0136
1339,0.0458,0.0210,0.0679,0.0136
1340,0.0458,0.0210,0.0679,0.0136
1341,0.0459,0.0116,0.0545,0.0032
1342,0.0459,0.0116,0.0545,0.0032
1343,0.0459,0.0116,0.0545,0.0032
1344,0.0446,0.0105,0.0550,0.0027
1345,0.0343,0.0114,0.0691,0.0104
1346,0.0423,0.0246,0.0615,0.0132
1347,0.0436,0.0099,0.0564,0.0033
1348,0.0428,0.0101,0.0583,0.0045
1349,0.0422,0.0106,0.0608,0.0060
1350,0.0417,0.0111,0.0633,0.0070
1351,0.0325,0.0121,0.0803,0.0119
1352,0.0413,0.0120,0.0680,0.0075
1353,0.0415,0.0123,0.0702,0.0073
1354,0.0418,0.0125,0.0722,0.0070
1355,0.0424,0.0125,0.0738,0.0065
1356,0.0334,0.0116,0.0716,0.0112
1357,0.0429,0.0278,0.0605,0.0123
1358,0.0498,0.0137,0.0570,0.0177
1359,0.0495,0.0128,0.0570,0.0140
1360,0.0494,0.0120,0.0566,0.0110
1361,0.0493,0.0116,0.0561,0.0086
1362,0.0400,0.0131,0.0670,0.0110
1363,0.0490,0.0114,0.0552,0.0057
1364,0.0487,0.0115,0.0549,0.0048
1365,0.0482,0.0115,0.0547,0.0040
1366,0.0474,0.0116,0.0546,0.0032
1367,0.0362,0.0111,0.0668,0.0097
1368,0.0348,0.0409,0.0657,0.0179
1369,0.0428,0.0101,0.0583,0.0045
1370,0.0453,0.0115,0.0544,0.0042
1371,0.0451,0.0111,0.0544,0.0056
1372,0.0454,0.0108,0.0543,0.0067
1373,0.0365,0.0146,0.0676,0.0113
1374,0.0471,0.0122,0.0542,0.0077
1375,0.0484,0.0158,0.0542,0.0075
1376,0.0497,0.0217,0.0540,0.0076
1377,0.0508,0.0295,0.0537,0.0089
1378,0.0394,0.0455,0.0638,0.0188
1379,0.0438,0.0426,0.0589,0.0139
1380,0.0519,0.0498,0.0527,0.0143
1381,0.0422,0.0106,0.0608,0.0060
1382,0.0459,0.0116,0.0545,0.0032
1383,0.0459,0.0116,0.0545,0.0032
1384,0.0355,0.0112,0.0670,0.0096
1385,0.0459,0.0116,0.0545,0.0032
1386,0.0459,0.0116,0.0545,0.0032
1387,0.0459,0.0116,0.0545,0.0032
1388,0.0459,0.0116,0.0545,0.0032
1389,0.0355,0.0112,0.0670,0.0096
1390,0.0440,0.0129,0.0625,0.0059
1391,0.0459,0.0116,0.0545,0.0032
1392,0.0459,0.0116,0.0545,0.0032
1393,0.0417,0.0111,0.0633,0.0070
1394,0.0459,0.0116,0.0545,0.0032
1395,0.0355,0.0112,0.0670,0.0096
1396,0.0459,0.0116,0.0545,0.0032
1397,0.0459,0.0116,0.0545,0.0032
1398,0.0459,0.0116,0.0545,0.0032
1399,0.0459,0.0116,0.0545,0.0032
1400,0.0355,0.0112,0.0670,0.0096
1401,0.0450,0.0175,0.0683,0.0058
1402,0.0459,0.0116,0.0545,0.0032
1403,0.0459,0.0116,0.0545,0.0032
1404,0.0459,0.0116,0.0545,0.0032
1405,0.0414,0.0116,0.0657,0.0075
1406,0.0355,0.0112,0.0670,0.0096
1407,0.0459,0.0116,0.0545,0.0032
1408,0.0459,0.0116,0.0545,0.0032
1409,0.0459,0.0116,0.0545,0.0032
1410,0.0459,0.0116,0.0545,0.0032
1411,0.0355,0.0112,0.0670,0.0096
1412,0.0450,0.0175,0.0683,0.0058
1413,0.0459,0.0116,0.0545,0.0032
1414,0.0459,0.0116,0.0545,0.0032
1415,0.0459,0.0116,0.0545,0.0032
1416,0.0459,0.0116,0.0545,0.0032
1417,0.0330,0.0121,0.0820,0.0116
1418,0.0459,0.0116,0.0545,0.0032
1419,0.0459,0.0116,0.0545,0.0032
1420,0.0459,0.0116,0.0545,0.0032
1421,0.0459,0.0116,0.0545,0.0032
1422,0.0355,0.0112,0.0670,0.0096
1423,0.0348,0.0148,0.0715,0.0111
1424,0.1166,0.0193,0.0596,0.0210
1425,0.1026,0.0189,0.0595,0.0189
1426,0.0903,0.0183,0.0593,0.0169
1427,0.0796,0.0177,0.0589,0.0149
1428,0.0325,0.0121,0.0803,0.0119
1429,0.0415,0.0123,0.0702,0.0073
1430,0.0632,0.0163,0.0576,0.0110
1431,0.0574,0.0154,0.0568,0.0092
1432,0.0530,0.0145,0.0559,0.0074
1433,0.0391,0.0120,0.0640,0.0093
1434,0.0360,0.0138,0.0713,0.0112
1435,0.0450,0.0175,0.0683,0.0058
1436,0.0476,0.0126,0.0547,0.0043
1437,0.0446,0.0105,0.0550,0.0027
1438,0.0436,0.0099,0.0564,0.0033
1439,0.0428,0.0101,0.0583,0.0045
1440,0.0323,0.0120,0.0762,0.0120
1441,0.0417,0.0111,0.0633,0.0070
1442,0.0418,0.0125,0.0722,0.0070
1443,0.0414,0.0116,0.0657,0.0075
1444,0.0413,0.0120,0.0680,0.0075
1445,0.0338,0.0120,0.0836,0.0112
1446,0.0450,0.0175,0.0683,0.0058
1447,0.0418,0.0125,0.0722,0.0070
1448,0.0424,0.0125,0.0738,0.0065
1449,0.0498,0.0137,0.0570,0.0177
1450,0.0495,0.0128,0.0570,0.0140
1451,0.0413,0.0147,0.0669,0.0130
1452,0.0413,0.0147,0.0669,0.0130
1453,0.0413,0.0147,0.0669,0.0130
1454,0.0413,0.0147,0.0669,0.0130
1455,0.0413,0.0147,0.0669,0.0130
1456,0.0413,0.0147,0.0669,0.0130
1457,0.0450,0.0175,0.0683,0.0058
1458,0.0449,0.0113,0.0532,0.0030
1459,0.0449,0.0113,0.0532,0.0030
1460,0.0449,0.0113,0.0532,0.0030
1461,0.0438,0.0103,0.0543,0.0026
1462,0.0342,0.0113,0.0698,0.0105
1463,0.0430,0.0098,0.0563,0.0034
1464,0.0425,0.0100,0.0588,0.0048
1465,0.0421,0.0104,0.0616,0.0063
1466,0.0418,0.0108,0.0644,0.0074
1467,0.0324,0.0117,0.0816,0.0122
1468,0.0450,0.0175,0.0683,0.0058
1469,0.0414,0.0115,0.0694,0.0080
1470,0.0414,0.0116,0.0715,0.0078
1471,0.0417,0.0117,0.0736,0.0074
1472,0.0421,0.0116,0.0753,0.0069
1473,0.0335,0.0115,0.0725,0.0115
1474,0.0475,0.0123,0.0570,0.0188
1475,0.0475,0.0118,0.0569,0.0147
1476,0.0477,0.0115,0.0564,0.0113
1477,0.0479,0.0114,0.0558,0.0086
1478,0.0388,0.0120,0.0672,0.0108
1479,0.0348,0.0148,0.0715,0.0111
1480,0.0482,0.0115,0.0544,0.0052
1481,0.0480,0.0117,0.0539,0.0043
1482,0.0474,0.0117,0.0536,0.0037
1483,0.0467,0.0116,0.0534,0.0031
1484,0.0357,0.0110,0.0670,0.0097
1485,0.0425,0.0100,0.0588,0.0048
1486,0.0443,0.0110,0.0532,0.0039
1487,0.0440,0.0105,0.0533,0.0050
1488,0.0443,0.0101,0.0533,0.0059
1489,0.0367,0.0148,0.0680,0.0113
1490,0.0450,0.0175,0.0683,0.0058
1491,0.0462,0.0124,0.0535,0.0066
1492,0.0477,0.0167,0.0536,0.0065
1493,0.0492,0.0230,0.0535,0.0070
1494,0.0505,0.0311,0.0532,0.0089
1495,0.0402,0.0471,0.0640,0.0193
1496,0.0519,0.0518,0.0521,0.0149
1497,0.0421,0.0104,0.0616,0.0063
1498,0.0449,0.0113,0.0532,0.0030
1499,0.0449,0.0113,0.0532,0.0030
1500,0.0351,0.0111,0.0672,0.0097
1501,0.0450,0.0175,0.0683,0.0058
1502,0.0449,0.0113,0.0532,0.0030
1503,0.0449,0.0113,0.0532,0.0030
1504,0.0449,0.0113,0.0532,0.0030
1505,0.0449,0.0113,0.0532,0.0030
1506,0.0351,0.0111,0.0672,0.0097
1507,0.0449,0.0113,0.0532,0.0030
1508,0.0449,0.0113,0.0532,0.0030
1509,0.0418,0.0108,0.0644,0.0074
1510,0.0449,0.0113,0.0532,0.0030
1511,0.0351,0.0111,0.0672,0.0097
1512,0.0459,0.0145,0.0631,0.0065
1513,0.0449,0.0113,0.0532,0.0030
1514,0.0449,0.0113,0.0532,0.0030
1515,0.0449,0.0113,0.0532,0.0030
1516,0.0449,0.0113,0.0532,0.0030
1517,0.0351,0.0111,0.0672,0.0097
1518,0.0449,0.0113,0.0532,0.0030
1519,0.0449,0.0113,0.0532,0.0030
1520,0.0449,0.0113,0.0532,0.0030
1521,0.0415,0.0112,0.0669,0.0078
1522,0.0351,0.0111,0.0672,0.0097
1523,0.0450,0.0175,0.0683,0.0058
1524,0.0449,0.0113,0.0532,0.0030
1525,0.0449,0.0113,0.0532,0.0030
1526,0.0449,0.0113,0.0532,0.0030
1527,0.0449,0.0113,0.0532,0.0030
1528,0.0351,0.0111,0.0672,0.0097
1529,0.0449,0.0113,0.0532,0.0030
1530,0.0449,0.0113,0.0532,0.0030
1531,0.0449,0.0113,0.0532,0.0030
1532,0.0449,0.0113,0.0532,0.0030
1533,0.0327,0.0116,0.0834,0.0119
1534,0.0348,0.0148,0.0715,0.0111
1535,0.0449,0.0113,0.0532,0.0030
1536,0.0449,0.0113,0.0532,0.0030
1537,0.0449,0.0113,0.0532,0.0030
1538,0.0449,0.0113,0.0532,0.0030
1539,0.0351,0.0111,0.0672,0.0097
1540,0.1228,0.0181,0.0550,0.0210
1541,0.1078,0.0177,0.0549,0.0190
1542,0.0944,0.0172,0.0547,0.0169
1543,0.0826,0.0167,0.0545,0.0149
1544,0.0324,0.0117,0.0816,0.0122
1545,0.0424,0.0131,0.0637,0.0052
1546,0.0450,0.0175,0.0683,0.0058
1547,0.0414,0.0116,0.0715,0.0078
1548,0.0642,0.0154,0.0538,0.0110
1549,0.0575,0.0147,0.0534,0.0091
1550,0.0526,0.0139,0.0531,0.0073
1551,0.0381,0.0116,0.0632,0.0092
1552,0.0466,0.0122,0.0528,0.0042
1553,0.0438,0.0103,0.0543,0.0026
1554,0.0430,0.0098,0.0563,0.0034
1555,0.0425,0.0100,0.0588,0.0048
1556,0.0325,0.0117,0.0773,0.0123
1557,0.0450,0.0175,0.0683,0.0058
1558,0.0418,0.0108,0.0644,0.0074
1559,0.0417,0.0117,0.0736,0.0074
1560,0.0415,0.0112,0.0669,0.0078
1561,0.0414,0.0115,0.0694,0.0080
1562,0.0332,0.0114,0.0849,0.0115
1563,0.0417,0.0117,0.0736,0.0074
1564,0.0421,0.0116,0.0753,0.0069
1565,0.0475,0.0123,0.0570,0.0188
1566,0.0475,0.0118,0.0569,0.0147
1567,0.0394,0.0127,0.0672,0.0129
1568,0.0450,0.0175,0.0683,0.0058
1569,0.0394,0.0127,0.0672,0.0129
1570,0.0394,0.0127,0.0672,0.0129
1571,0.0394,0.0127,0.0672,0.0129
1572,0.0394,0.0127,0.0672,0.0129
1573,0.0394,0.0127,0.0672,0.0129
1574,0.0396,0.0159,0.0564,0.0049
1575,0.0396,0.0159,0.0564,0.0049
1576,0.0534,0.0210,0.0628,0.0105
1577,0.0366,0.0139,0.0533,0.0044
1578,0.0331,0.0136,0.0586,0.0107
1579,0.0450,0.0175,0.0683,0.0058
1580,0.0472,0.0168,0.0545,0.0100
1581,0.0332,0.0127,0.0490,0.0046
1582,0.0330,0.0142,0.0486,0.0054
1583,0.0413,0.0143,0.0438,0.0102
1584,0.0410,0.0213,0.0643,0.0118
1585,0.0367,0.0210,0.0516,0.0067
1586,0.0408,0.0217,0.0422,0.0111
1587,0.0410,0.0254,0.0547,0.0068
1588,0.0435,0.0274,0.0561,0.0067
1589,0.0336,0.0144,0.0591,0.0111
1590,0.0348,0.0148,0.0715,0.0111
1591,0.0715,0.0448,0.0529,0.0219
1592,0.0682,0.0377,0.0533,0.0199
1593,0.0729,0.0267,0.0528,0.0236
1594,0.0607,0.0248,0.0546,0.0164
1595,0.0465,0.0262,0.0597,0.0137
1596,0.0658,0.0178,0.0585,0.0189
1597,0.0501,0.0137,0.0568,0.0097
1598,0.0470,0.0130,0.0571,0.0069
1599,0.0581,0.0188,0.0620,0.0121
1600,0.0346,0.0132,0.0594,0.0097
1601,0.0450,0.0175,0.0683,0.0058
1602,0.0332,0.0127,0.0490,0.0046
1603,0.0514,0.0222,0.0626,0.0123
1604,0.0368,0.0191,0.0551,0.0109
1605,0.0362,0.0202,0.0541,0.0135
1606,0.0335,0.0180,0.0571,0.0144
1607,0.0367,0.0212,0.0518,0.0163
1608,0.0375,0.0214,0.0504,0.0162
1609,0.0499,0.0244,0.0570,0.0263
1610,0.0393,0.0271,0.0479,0.0140
1611,0.0360,0.0418,0.0533,0.0164
1612,0.0450,0.0175,0.0683,0.0058
1613,0.0525,0.0339,0.0524,0.0210
1614,0.0330,0.0142,0.0486,0.0054
1615,0.0396,0.0159,0.0564,0.0049
1616,0.0534,0.0210,0.0628,0.0105
1617,0.0336,0.0137,0.0591,0.0106
1618,0.0396,0.0159,0.0564,0.0049
1619,0.0534,0.0210,0.0628,0.0105
1620,0.0396,0.0159,0.0564,0.0049
1621,0.0396,0.0159,0.0564,0.0049
1622,0.0336,0.0137,0.0591,0.0106
1623,0.0450,0.0175,0.0683,0.0058
1624,0.0396,0.0159,0.0564,0.0049
1625,0.0396,0.0159,0.0564,0.0049
1626,0.0413,0.0143,0.0438,0.0102
1627,0.0396,0.0159,0.0564,0.0049
1628,0.0336,0.0137,0.0591,0.0106
1629,0.0534,0.0210,0.0628,0.0105
1630,0.0396,0.0159,0.0564,0.0049
1631,0.0396,0.0159,0.0564,0.0049
1632,0.0534,0.0210,0.0628,0.0105
1633,0.0336,0.0137,0.0591,0.0106
1634,0.0481,0.0165,0.0642,0.0069
1635,0.0396,0.0159,0.0564,0.0049
1636,0.0534,0.0210,0.0628,0.0105
1637,0.0396,0.0159,0.0564,0.0049
1638,0.0349,0.0186,0.0501,0.0065
1639,0.0336,0.0137,0.0591,0.0106
1640,0.0396,0.0159,0.0564,0.0049
1641,0.0396,0.0159,0.0564,0.0049
1642,0.0534,0.0210,0.0628,0.0105
1643,0.0396,0.0159,0.0564,0.0049
1644,0.0336,0.0137,0.0591,0.0106
1645,0.0348,0.0148,0.0715,0.0111
1646,0.0534,0.0210,0.0628,0.0105
1647,0.0396,0.0159,0.0564,0.0049
1648,0.0396,0.0159,0.0564,0.0049
1649,0.0534,0.0210,0.0628,0.0105
1650,0.0435,0.0231,0.0657,0.0118
1651,0.0396,0.0159,0.0564,0.0049
1652,0.0534,0.0210,0.0628,0.0105
1653,0.0396,0.0159,0.0564,0.0049
1654,0.0396,0.0159,0.0564,0.0049
1655,0.0336,0.0137,0.0591,0.0106
1656,0.0428,0.0122,0.0625,0.0054
1657,0.0450,0.0175,0.0683,0.0058
1658,0.1039,0.0320,0.0871,0.0203
1659,0.0944,0.0309,0.0856,0.0184
1660,0.1022,0.0353,0.0829,0.0189
1661,0.0775,0.0285,0.0812,0.0146
1662,0.0410,0.0213,0.0643,0.0118
1663,0.0408,0.0217,0.0422,0.0111
1664,0.0635,0.0256,0.0751,0.0111
1665,0.0576,0.0238,0.0715,0.0096
1666,0.0660,0.0272,0.0737,0.0125
1667,0.0383,0.0170,0.0626,0.0112
1668,0.0450,0.0175,0.0683,0.0058
1669,0.0432,0.0180,0.0601,0.0057
1670,0.0501,0.0189,0.0587,0.0102
1671,0.0344,0.0125,0.0508,0.0043
1672,0.0332,0.0127,0.0490,0.0046
1673,0.0366,0.0176,0.0613,0.0117
1674,0.0337,0.0163,0.0491,0.0061
1675,0.0410,0.0254,0.0547,0.0068
1676,0.0405,0.0163,0.0420,0.0105
1677,0.0367,0.0210,0.0516,0.0067
1678,0.0461,0.0248,0.0670,0.0118
1679,0.0450,0.0175,0.0683,0.0058
1680,0.0417,0.0243,0.0433,0.0111
1681,0.0435,0.0274,0.0561,0.0067
1682,0.0715,0.0448,0.0529,0.0219
1683,0.0751,0.0342,0.0509,0.0248
1684,0.0549,0.0364,0.0595,0.0169
1685,0.0549,0.0364,0.0595,0.0169
1686,0.0549,0.0364,0.0595,0.0169
1687,0.0549,0.0364,0.0595,0.0169
1688,0.0549,0.0364,0.0595,0.0169
1689,0.0549,0.0364,0.0595,0.0169
1690,0.0450,0.0175,0.0683,0.0058
1691,0.0414,0.0146,0.0529,0.0042
1692,0.0414,0.0146,0.0529,0.0042
1693,0.0533,0.0195,0.0575,0.0105
1694,0.0386,0.0128,0.0503,0.0036
1695,0.0335,0.0129,0.0575,0.0103
1696,0.0483,0.0159,0.0503,0.0100
1697,0.0344,0.0121,0.0473,0.0042
1698,0.0333,0.0134,0.0475,0.0051
1699,0.0426,0.0139,0.0413,0.0102
1700,0.0366,0.0187,0.0646,0.0113
1701,0.0348,0.0148,0.0715,0.0111
1702,0.0340,0.0188,0.0516,0.0064
1703,0.0403,0.0200,0.0416,0.0112
1704,0.0369,0.0222,0.0550,0.0063
1705,0.0388,0.0236,0.0566,0.0061
1706,0.0329,0.0137,0.0585,0.0107
1707,0.0655,0.0370,0.0494,0.0197
1708,0.0632,0.0313,0.0498,0.0179
1709,0.0664,0.0229,0.0475,0.0209
1710,0.0575,0.0214,0.0508,0.0148
1711,0.0468,0.0233,0.0578,0.0136
1712,0.0450,0.0175,0.0683,0.0058
1713,0.0617,0.0176,0.0529,0.0173
1714,0.0495,0.0130,0.0529,0.0093
1715,0.0472,0.0125,0.0533,0.0069
1716,0.0565,0.0182,0.0565,0.0117
1717,0.0361,0.0126,0.0577,0.0095
1718,0.0344,0.0121,0.0473,0.0042
1719,0.0520,0.0203,0.0576,0.0120
1720,0.0394,0.0168,0.0519,0.0098
1721,0.0392,0.0176,0.0511,0.0122
1722,0.0347,0.0168,0.0562,0.0134
1723,0.0450,0.0175,0.0683,0.0058
1724,0.0401,0.0182,0.0491,0.0150
1725,0.0410,0.0190,0.0480,0.0149
1726,0.0533,0.0206,0.0532,0.0252
1727,0.0428,0.0267,0.0460,0.0130
1728,0.0373,0.0421,0.0526,0.0163
1729,0.0561,0.0343,0.0493,0.0201
1730,0.0333,0.0134,0.0475,0.0051
1731,0.0414,0.0146,0.0529,0.0042
1732,0.0533,0.0195,0.0575,0.0105
1733,0.0350,0.0129,0.0574,0.0100
1734,0.0450,0.0175,0.0683,0.0058
1735,0.0414,0.0146,0.0529,0.0042
1736,0.0533,0.0195,0.0575,0.0105
1737,0.0414,0.0146,0.0529,0.0042
1738,0.0414,0.0146,0.0529,0.0042
1739,0.0350,0.0129,0.0574,0.0100
1740,0.0414,0.0146,0.0529,0.0042
1741,0.0414,0.0146,0.0529,0.0042
1742,0.0426,0.0139,0.0413,0.0102
1743,0.0414,0.0146,0.0529,0.0042
1744,0.0350,0.0129,0.0574,0.0100
1745,0.0450,0.0175,0.0683,0.0058
1746,0.0533,0.0195,0.0575,0.0105
1747,0.0414,0.0146,0.0529,0.0042
1748,0.0414,0.0146,0.0529,0.0042
1749,0.0533,0.0195,0.0575,0.0105
1750,0.0350,0.0129,0.0574,0.0100
1751,0.0414,0.0146,0.0529,0.0042
1752,0.0533,0.0195,0.0575,0.0105
1753,0.0414,0.0146,0.0529,0.0042
1754,0.0332,0.0169,0.0499,0.0063
1755,0.0350,0.0129,0.0574,0.0100
1756,0.0526,0.0210,0.0783,0.0123
1757,0.0414,0.0146,0.0529,0.0042
1758,0.0414,0.0146,0.0529,0.0042
1759,0.0533,0.0195,0.0575,0.0105
1760,0.0414,0.0146,0.0529,0.0042
1761,0.0350,0.0129,0.0574,0.0100
1762,0.0533,0.0195,0.0575,0.0105
1763,0.0414,0.0146,0.0529,0.0042
1764,0.0414,0.0146,0.0529,0.0042
1765,0.0533,0.0195,0.0575,0.0105
1766,0.0384,0.0200,0.0661,0.0113
1767,0.0440,0.0129,0.0625,0.0059
1768,0.0450,0.0175,0.0683,0.0058
1769,0.0414,0.0146,0.0529,0.0042
1770,0.0533,0.0195,0.0575,0.0105
1771,0.0414,0.0146,0.0529,0.0042
1772,0.0414,0.0146,0.0529,0.0042
1773,0.0350,0.0129,0.0574,0.0100
1774,0.1013,0.0286,0.0778,0.0204
1775,0.0915,0.0277,0.0769,0.0184
1776,0.0999,0.0325,0.0729,0.0192
1777,0.0750,0.0255,0.0737,0.0146
1778,0.0366,0.0187,0.0646,0.0113
1779,0.0450,0.0175,0.0683,0.0058
1780,0.0403,0.0200,0.0416,0.0112
1781,0.0622,0.0229,0.0688,0.0110
1782,0.0570,0.0214,0.0658,0.0093
1783,0.0637,0.0251,0.0668,0.0126
1784,0.0405,0.0155,0.0600,0.0106
1785,0.0447,0.0163,0.0560,0.0052
1786,0.0507,0.0177,0.0540,0.0102
1787,0.0362,0.0118,0.0483,0.0036
1788,0.0344,0.0121,0.0473,0.0042
1789,0.0338,0.0160,0.0613,0.0113
1790,0.0450,0.0175,0.0683,0.0058
1791,0.0330,0.0151,0.0485,0.0059
1792,0.0369,0.0222,0.0550,0.0063
1793,0.0414,0.0156,0.0403,0.0106
1794,0.0340,0.0188,0.0516,0.0064
1795,0.0405,0.0213,0.0675,0.0112
1796,0.0405,0.0221,0.0431,0.0112
1797,0.0388,0.0236,0.0566,0.0061
1798,0.0655,0.0370,0.0494,0.0197
1799,0.0679,0.0281,0.0460,0.0220
1800,0.0535,0.0314,0.0576,0.0161
1801,0.0450,0.0175,0.0683,0.0058
1802,0.0535,0.0314,0.0576,0.0161
1803,0.0535,0.0314,0.0576,0.0161
1804,0.0535,0.0314,0.0576,0.0161
1805,0.0535,0.0314,0.0576,0.0161
1806,0.0535,0.0314,0.0576,0.0161
1807,0.0419,0.0125,0.0447,0.0033
1808,0.0419,0.0125,0.0447,0.0033
1809,0.0491,0.0173,0.0445,0.0105
1810,0.0404,0.0112,0.0437,0.0028
1811,0.0368,0.0120,0.0560,0.0100
1812,0.0348,0.0148,0.0715,0.0111
1813,0.0471,0.0145,0.0401,0.0100
1814,0.0374,0.0112,0.0444,0.0043
1815,0.0360,0.0121,0.0461,0.0056
1816,0.0444,0.0132,0.0366,0.0105
1817,0.0330,0.0149,0.0660,0.0113
1818,0.0333,0.0152,0.0526,0.0070
1819,0.0416,0.0171,0.0416,0.0117
1820,0.0332,0.0168,0.0568,0.0066
1821,0.0337,0.0174,0.0586,0.0061
1822,0.0354,0.0125,0.0580,0.0106
1823,0.1129,0.0328,0.1007,0.0206
1824,0.0506,0.0225,0.0434,0.0160
1825,0.0498,0.0197,0.0436,0.0138
1826,0.0520,0.0174,0.0374,0.0160
1827,0.0477,0.0152,0.0437,0.0111
1828,0.0443,0.0176,0.0545,0.0127
1829,0.0516,0.0180,0.0404,0.0137
1830,0.0448,0.0120,0.0444,0.0077
1831,0.0439,0.0119,0.0446,0.0061
1832,0.0502,0.0177,0.0433,0.0109
1833,0.0389,0.0117,0.0545,0.0094
1834,0.1025,0.0319,0.0984,0.0187
1835,0.0374,0.0112,0.0444,0.0043
1836,0.0489,0.0172,0.0448,0.0117
1837,0.0422,0.0128,0.0444,0.0075
1838,0.0430,0.0128,0.0440,0.0095
1839,0.0405,0.0148,0.0547,0.0116
1840,0.0457,0.0135,0.0431,0.0118
1841,0.0472,0.0160,0.0426,0.0117
1842,0.0563,0.0157,0.0433,0.0224
1843,0.0497,0.0281,0.0417,0.0106
1844,0.0434,0.0444,0.0512,0.0161
1845,0.0928,0.0310,0.0959,0.0168
1846,0.0613,0.0379,0.0413,0.0177
1847,0.0360,0.0121,0.0461,0.0056
1848,0.0419,0.0125,0.0447,0.0033
1849,0.0491,0.0173,0.0445,0.0105
1850,0.0385,0.0117,0.0546,0.0094
1851,0.0419,0.0125,0.0447,0.0033
1852,0.0491,0.0173,0.0445,0.0105
1853,0.0419,0.0125,0.0447,0.0033
1854,0.0419,0.0125,0.0447,0.0033
1855,0.0385,0.0117,0.0546,0.0094
1856,0.0839,0.0299,0.0929,0.0150
1857,0.0419,0.0125,0.0447,0.0033
1858,0.0419,0.0125,0.0447,0.0033
1859,0.0444,0.0132,0.0366,0.0105
1860,0.0419,0.0125,0.0447,0.0033
1861,0.0385,0.0117,0.0546,0.0094
1862,0.0491,0.0173,0.0445,0.0105
1863,0.0419,0.0125,0.0447,0.0033
1864,0.0419,0.0125,0.0447,0.0033
1865,0.0491,0.0173,0.0445,0.0105
1866,0.0385,0.0117,0.0546,0.0094
1867,0.0496,0.0194,0.0770,0.0122
1868,0.0419,0.0125,0.0447,0.0033
1869,0.0491,0.0173,0.0445,0.0105
1870,0.0419,0.0125,0.0447,0.0033
1871,0.0339,0.0143,0.0504,0.0070
1872,0.0385,0.0117,0.0546,0.0094
1873,0.0419,0.0125,0.0447,0.0033
1874,0.0419,0.0125,0.0447,0.0033
1875,0.0491,0.0173,0.0445,0.0105
1876,0.0419,0.0125,0.0447,0.0033
1877,0.0385,0.0117,0.0546,0.0094
1878,0.0459,0.0145,0.0631,0.0065
1879,0.0531,0.0209,0.0669,0.0073
1880,0.0491,0.0173,0.0445,0.0105
1881,0.0419,0.0125,0.0447,0.0033
1882,0.0419,0.0125,0.0447,0.0033
1883,0.0491,0.0173,0.0445,0.0105
1884,0.0333,0.0153,0.0678,0.0111
1885,0.0419,0.0125,0.0447,0.0033
1886,0.0491,0.0173,0.0445,0.0105
1887,0.0419,0.0125,0.0447,0.0033
1888,0.0419,0.0125,0.0447,0.0033
1889,0.0385,0.0117,0.0546,0.0094
1890,0.0684,0.0272,0.0861,0.0117
1891,0.1004,0.0228,0.0561,0.0206
1892,0.0882,0.0221,0.0564,0.0186
1893,0.1024,0.0276,0.0499,0.0200
1894,0.0689,0.0204,0.0556,0.0146
1895,0.0330,0.0149,0.0660,0.0113
1896,0.0416,0.0171,0.0416,0.0117
1897,0.0560,0.0184,0.0534,0.0108
1898,0.0517,0.0173,0.0518,0.0090
1899,0.0569,0.0217,0.0497,0.0128
1900,0.0426,0.0128,0.0540,0.0096
1901,0.0618,0.0256,0.0824,0.0102
1902,0.0437,0.0136,0.0463,0.0044
1903,0.0480,0.0159,0.0423,0.0102
1904,0.0388,0.0107,0.0436,0.0032
1905,0.0374,0.0112,0.0444,0.0043
1906,0.0335,0.0138,0.0621,0.0114
1907,0.0349,0.0132,0.0482,0.0065
1908,0.0332,0.0168,0.0568,0.0066
1909,0.0434,0.0143,0.0376,0.0110
1910,0.0333,0.0152,0.0526,0.0070
1911,0.0340,0.0157,0.0694,0.0108
1912,0.0562,0.0238,0.0787,0.0088
1913,0.0409,0.0184,0.0438,0.0118
1914,0.0337,0.0174,0.0586,0.0061
1915,0.0506,0.0225,0.0434,0.0160
1916,0.0521,0.0186,0.0371,0.0175
1917,0.0475,0.0218,0.0543,0.0142
1918,0.0475,0.0218,0.0543,0.0142
1919,0.0475,0.0218,0.0543,0.0142
1920,0.0475,0.0218,0.0543,0.0142
1921,0.0475,0.0218,0.0543,0.0142
1922,0.0475,0.0218,0.0543,0.0142
1923,0.0369,0.0191,0.0743,0.0118
1924,0.0381,0.0115,0.0392,0.0030
1925,0.0381,0.0115,0.0392,0.0030
1926,0.0442,0.0164,0.0342,0.0106
1927,0.0377,0.0106,0.0400,0.0027
1928,0.0376,0.0115,0.0565,0.0102
1929,0.0429,0.0141,0.0328,0.0100
1930,0.0371,0.0107,0.0442,0.0049
1931,0.0365,0.0114,0.0471,0.0063
1932,0.0432,0.0127,0.0355,0.0107
1933,0.0338,0.0129,0.0687,0.0118
1934,0.0478,0.0198,0.0714,0.0066
1935,0.0344,0.0131,0.0553,0.0080
1936,0.0421,0.0152,0.0439,0.0122
1937,0.0335,0.0137,0.0598,0.0075
1938,0.0334,0.0137,0.0617,0.0070
1939,0.0367,0.0120,0.0593,0.0110
1940,0.0391,0.0145,0.0421,0.0152
1941,0.0392,0.0135,0.0421,0.0122
1942,0.0456,0.0173,0.0338,0.0143
1943,0.0393,0.0123,0.0410,0.0083
1944,0.0396,0.0137,0.0539,0.0116
1945,0.0432,0.0152,0.0657,0.0054
1946,0.0473,0.0192,0.0326,0.0114
1947,0.0391,0.0119,0.0395,0.0058
1948,0.0389,0.0118,0.0393,0.0049
1949,0.0459,0.0177,0.0335,0.0103
1950,0.0381,0.0113,0.0538,0.0096
1951,0.0371,0.0107,0.0442,0.0049
1952,0.0437,0.0157,0.0344,0.0116
1953,0.0393,0.0109,0.0393,0.0060
1954,0.0408,0.0106,0.0393,0.0074
1955,0.0428,0.0149,0.0548,0.0107
1956,0.0424,0.0131,0.0637,0.0052
1957,0.0449,0.0128,0.0393,0.0090
1958,0.0472,0.0170,0.0394,0.0088
1959,0.0523,0.0162,0.0346,0.0198
1960,0.0510,0.0314,0.0390,0.0087
1961,0.0470,0.0478,0.0509,0.0163
1962,0.0599,0.0426,0.0341,0.0155
1963,0.0365,0.0114,0.0471,0.0063
1964,0.0381,0.0115,0.0392,0.0030
1965,0.0442,0.0164,0.0342,0.0106
1966,0.0383,0.0112,0.0540,0.0094
1967,0.0428,0.0122,0.0625,0.0054
1968,0.0381,0.0115,0.0392,0.0030
1969,0.0442,0.0164,0.0342,0.0106
1970,0.0381,0.0115,0.0392,0.0030
1971,0.0381,0.0115,0.0392,0.0030
1972,0.0383,0.0112,0.0540,0.0094
1973,0.0381,0.0115,0.0392,0.0030
1974,0.0381,0.0115,0.0392,0.0030
1975,0.0432,0.0127,0.0355,0.0107
1976,0.0381,0.0115,0.0392,0.0030
1977,0.0383,0.0112,0.0540,0.0094
1978,0.0435,0.0161,0.0741,0.0121
1979,0.0442,0.0164,0.0342,0.0106
1980,0.0381,0.0115,0.0392,0.0030
1981,0.0381,0.0115,0.0392,0.0030
1982,0.0442,0.0164,0.0342,0.0106
1983,0.0383,0.0112,0.0540,0.0094
1984,0.0381,0.0115,0.0392,0.0030
1985,0.0442,0.0164,0.0342,0.0106
1986,0.0381,0.0115,0.0392,0.0030
1987,0.0351,0.0127,0.0527,0.0079
1988,0.0383,0.0112,0.0540,0.0094
1989,0.0496,0.0194,0.0770,0.0122
1990,0.0459,0.0145,0.0631,0.0065
1991,0.0381,0.0115,0.0392,0.0030
1992,0.0381,0.0115,0.0392,0.0030
1993,0.0442,0.0164,0.0342,0.0106
1994,0.0381,0.0115,0.0392,0.0030
1995,0.0383,0.0112,0.0540,0.0094
1996,0.0442,0.0164,0.0342,0.0106
1997,0.0381,0.0115,0.0392,0.0030
1998,0.0381,0.0115,0.0392,0.0030
1999,0.0442,0.0164,0.0342,0.0106
2000,0.0334,0.0129,0.0705,0.0115
2001,0.0558,0.0230,0.0684,0.0074
2002,0.0381,0.0115,0.0392,0.0030
2003,0.0442,0.0164,0.0342,0.0106
2004,0.0381,0.0115,0.0392,0.0030
2005,0.0381,0.0115,0.0392,0.0030
2006,0.0383,0.0112,0.0540,0.0094
2007,0.1107,0.0192,0.0410,0.0207
2008,0.0957,0.0188,0.0413,0.0186
2009,0.1166,0.0247,0.0342,0.0206
2010,0.0705,0.0176,0.0415,0.0146
2011,0.0338,0.0129,0.0687,0.0118
2012,0.0481,0.0165,0.0642,0.0069
2013,0.0421,0.0152,0.0439,0.0122
2014,0.0528,0.0161,0.0411,0.0107
2015,0.0470,0.0152,0.0406,0.0089
2016,0.0562,0.0200,0.0360,0.0131
2017,0.0400,0.0115,0.0504,0.0092
2018,0.0389,0.0124,0.0392,0.0041
2019,0.0432,0.0152,0.0334,0.0102
2020,0.0374,0.0103,0.0418,0.0035
2021,0.0371,0.0107,0.0442,0.0049
2022,0.0350,0.0126,0.0642,0.0119
2023,0.0505,0.0188,0.0655,0.0072
2024,0.0359,0.0121,0.0500,0.0074
2025,0.0335,0.0137,0.0598,0.0075
2026,0.0431,0.0134,0.0381,0.0113
2027,0.0344,0.0131,0.0553,0.0080
2028,0.0333,0.0128,0.0721,0.0112
2029,0.0416,0.0161,0.0467,0.0123
2030,0.0334,0.0137,0.0617,0.0070
2031,0.0391,0.0145,0.0421,0.0152
2032,0.0449,0.0167,0.0349,0.0167
2033,0.0405,0.0152,0.0539,0.0126
2034,0.0556,0.0227,0.0796,0.0123
2035,0.0405,0.0152,0.0539,0.0126
2036,0.0405,0.0152,0.0539,0.0126
2037,0.0405,0.0152,0.0539,0.0126
2038,0.0405,0.0152,0.0539,0.0126
2039,0.0405,0.0152,0.0539,0.0126
2040,0.0360,0.0113,0.0383,0.0030
2041,0.0360,0.0113,0.0383,0.0030
2042,0.0438,0.0162,0.0313,0.0106
2043,0.0358,0.0105,0.0398,0.0028
2044,0.0367,0.0114,0.0577,0.0104
2045,0.0558,0.0230,0.0684,0.0074
2046,0.0413,0.0140,0.0313,0.0100
2047,0.0359,0.0106,0.0454,0.0051
2048,0.0358,0.0111,0.0487,0.0066
2049,0.0420,0.0125,0.0366,0.0107
2050,0.0341,0.0122,0.0704,0.0121
2051,0.0345,0.0124,0.0573,0.0084
2052,0.0418,0.0146,0.0461,0.0124
2053,0.0337,0.0126,0.0618,0.0079
2054,0.0335,0.0125,0.0637,0.0074
2055,0.0363,0.0118,0.0606,0.0113
2056,0.0585,0.0250,0.0697,0.0075
2057,0.0364,0.0132,0.0432,0.0159
2058,0.0366,0.0126,0.0431,0.0124
2059,0.0467,0.0184,0.0348,0.0147
2060,0.0373,0.0121,0.0416,0.0076
2061,0.0375,0.0124,0.0548,0.0110
2062,0.0488,0.0200,0.0315,0.0108
2063,0.0377,0.0120,0.0391,0.0050
2064,0.0374,0.0119,0.0386,0.0043
2065,0.0466,0.0178,0.0311,0.0101
2066,0.0367,0.0111,0.0545,0.0097
2067,0.0724,0.0447,0.0676,0.0202
2068,0.0359,0.0106,0.0454,0.0051
2069,0.0426,0.0153,0.0314,0.0116
2070,0.0368,0.0105,0.0384,0.0053
2071,0.0382,0.0102,0.0385,0.0066
2072,0.0421,0.0154,0.0558,0.0106
2073,0.0426,0.0134,0.0389,0.0077
2074,0.0452,0.0181,0.0391,0.0075
2075,0.0488,0.0174,0.0317,0.0186
2076,0.0495,0.0332,0.0388,0.0081
2077,0.0472,0.0495,0.0514,0.0166
2078,0.0690,0.0372,0.0676,0.0177
2079,0.0572,0.0449,0.0317,0.0146
2080,0.0358,0.0111,0.0487,0.0066
2081,0.0360,0.0113,0.0383,0.0030
2082,0.0438,0.0162,0.0313,0.0106
2083,0.0371,0.0111,0.0548,0.0095
2084,0.0360,0.0113,0.0383,0.0030
2085,0.0438,0.0162,0.0313,0.0106
2086,0.0360,0.0113,0.0383,0.0030
2087,0.0360,0.0113,0.0383,0.0030
2088,0.0371,0.0111,0.0548,0.0095
2089,0.0494,0.0351,0.0725,0.0150
2090,0.0360,0.0113,0.0383,0.0030
2091,0.0360,0.0113,0.0383,0.0030
2092,0.0420,0.0125,0.0366,0.0107
2093,0.0360,0.0113,0.0383,0.0030
2094,0.0371,0.0111,0.0548,0.0095
2095,0.0438,0.0162,0.0313,0.0106
2096,0.0360,0.0113,0.0383,0.0030
2097,0.0360,0.0113,0.0383,0.0030
2098,0.0438,0.0162,0.0313,0.0106
2099,0.0371,0.0111,0.0548,0.0095
Highest RMSE Cases
Vdc  Max RMSE=  0.1263 at Case 28; 298 > 0.05
Idc  Max RMSE=  0.0518 at Case 1496; 1 > 0.05
Vd   Max RMSE=  0.1083 at Case 727; 1180 > 0.05
Vq   Max RMSE=  0.0263 at Case 1609; 0 > 0.05
Total Error Summary
Vdc  RMSE=  0.0450
Idc  RMSE=  0.0184
Vd   RMSE=  0.0539
Vq   RMSE=  0.0105
