Read Model from: ./unb3tiir/
Export Model to: ./unb3tiir/unb3tiir_fhf.json
idx_in [0, 1, 2, 3, 4, 5, 6, 7, 8, 9, 10, 11, 12, 13]
idx_out [14, 15, 16, 17, 18, 19, 20, 21]
make_mimo_block iir
H1s[0][0]  Real Poles: [-655.28672053 -655.28672053 -325.29516281 -325.29516281] Freqs [Hz]: [24.03293902659792, 28.11253074252906]
H1s[0][1]  Real Poles: [-789.35014315 -789.35014315 -265.54188274 -265.54188274] Freqs [Hz]: [44.53370424908928, 55.3177613075757]
H1s[0][2]  Real Poles: [-916.41198509 -916.41198509 -353.94312031 -353.94312031] Freqs [Hz]: [38.671717425466525, 71.38180296709344]
H1s[0][3]  Real Poles: [-685.90994026 -685.90994026 -341.140784   -341.140784  ] Freqs [Hz]: [26.830061991023303, 39.08291773662515]
H1s[0][4]  Real Poles: [-764.58744334 -764.58744334 -285.03281621 -285.03281621] Freqs [Hz]: [36.871726245842375, 56.56866498678222]
H1s[0][5]  Real Poles: [-737.02045448 -737.02045448 -290.72125338 -290.72125338] Freqs [Hz]: [32.85649929447301, 50.47098077855617]
H1s[0][6]  Real Poles: [-785.83475777 -535.90617074 -535.90617074 -126.09948525] Freqs [Hz]: [47.9254092611753]
H1s[0][7]  Real Poles: [-750.88642315 -750.88642315 -264.51864316 -264.51864316] Freqs [Hz]: [35.12752847685147, 51.50001856178437]
H1s[1][0]  Real Poles: [-826.65134787 -826.65134787 -342.15162874 -342.15162874] Freqs [Hz]: [36.944802284685146, 61.89399094723194]
H1s[1][1]  Real Poles: [-800.98431298 -800.98431298 -339.27897623 -339.27897623] Freqs [Hz]: [39.22102829208154, 61.734768762491115]
H1s[1][2]  Real Poles: [-871.1643731  -871.1643731  -363.18457967 -363.18457967] Freqs [Hz]: [44.91813569263513, 70.58499111742718]
H1s[1][3]  Real Poles: [-727.22144731 -727.22144731 -329.05501566 -329.05501566] Freqs [Hz]: [32.70686263201556, 46.33163975344729]
H1s[1][4]  Real Poles: [-744.70721908 -744.70721908 -264.48218081 -264.48218081] Freqs [Hz]: [35.36804703467968, 46.81094339827615]
H1s[1][5]  Real Poles: [-871.71120015 -871.71120015 -326.73558029 -326.73558029] Freqs [Hz]: [46.46746258154646, 69.66058030168831]
H1s[1][6]  Real Poles: [-873.8328579  -873.8328579  -342.54988403 -342.54988403] Freqs [Hz]: [49.274230479376264, 71.23386757448391]
H1s[1][7]  Real Poles: [-830.03066431 -830.03066431 -498.00904144 -498.00904144] Freqs [Hz]: [53.76206832593302, 60.71033063484679]
H1s[2][0]  Real Poles: [-761.77277548 -761.77277548 -270.419153   -270.419153  ] Freqs [Hz]: [36.837257198547675, 54.019257671275184]
H1s[2][1]  Real Poles: [-893.02026897 -893.02026897 -500.07224411 -500.07224411] Freqs [Hz]: [35.736375883828735, 71.24864684111283]
H1s[2][2]  Real Poles: [-721.79819103 -527.34100114 -527.34100114 -162.73589146] Freqs [Hz]: [37.257167140105295]
H1s[2][3]  Real Poles: [-943.86077251 -943.86077251 -349.97734103 -349.97734103] Freqs [Hz]: [36.3711365570086, 71.8408155630058]
H1s[2][4]  Real Poles: [-804.96170395 -804.96170395 -338.60728866 -338.60728866] Freqs [Hz]: [41.0034050801249, 54.30412810723473]
H1s[2][5]  Real Poles: [-826.46916175 -826.46916175 -278.21586912 -278.21586912] Freqs [Hz]: [43.68047660589815, 63.184564365082856]
H1s[2][6]  Real Poles: [-809.49936686 -809.49936686 -302.35248925 -302.35248925] Freqs [Hz]: [41.238549181336346, 63.09699877300501]
H1s[2][7]  Real Poles: [-834.56299979 -834.56299979 -340.69255215 -340.69255215] Freqs [Hz]: [42.28590166334574, 69.20753054589647]
H1s[3][0]  Real Poles: [-757.86683714 -510.3286424  -510.3286424  -317.20812738] Freqs [Hz]: [42.42970862845966]
H1s[3][1]  Real Poles: [-631.65952529 -549.62253411 -429.33253147 -429.33253147] Freqs [Hz]: [29.57443539836597]
H1s[3][2]  Real Poles: [-705.23407975 -705.23407975 -352.04786888 -352.04786888] Freqs [Hz]: [25.573199502760165, 50.815351068595774]
H1s[3][3]  Real Poles: [-758.52361076 -758.52361076 -338.51098514 -338.51098514] Freqs [Hz]: [38.16430197589261, 58.25654137992309]
H1s[3][4]  Real Poles: [-927.75311165 -927.75311165 -506.18953414 -506.18953414] Freqs [Hz]: [8.870574554382982, 73.39488909077319]
H1s[3][5]  Real Poles: [-877.98249927 -877.98249927 -413.41149602 -413.41149602] Freqs [Hz]: [34.78620954950927, 72.62348930772286]
H1s[3][6]  Real Poles: [-859.33916206 -859.33916206 -331.7766792  -331.7766792 ] Freqs [Hz]: [42.12246594412982, 66.79266253958922]
H1s[3][7]  Real Poles: [-646.85765086 -646.85765086 -364.79973522 -364.79973522] Freqs [Hz]: [19.396511575606173, 37.50045076515499]
H1s[4][0]  Real Poles: [-808.67108476 -808.67108476 -314.76870406 -314.76870406] Freqs [Hz]: [39.521678050737684, 63.42672260823229]
H1s[4][1]  Real Poles: [-715.56736931 -715.56736931 -311.59353413 -311.59353413] Freqs [Hz]: [30.314770978184438, 44.67151680709449]
H1s[4][2]  Real Poles: [-796.8305601  -796.8305601  -330.38217293 -330.38217293] Freqs [Hz]: [38.04281574462471, 60.40378460739561]
H1s[4][3]  Real Poles: [-742.45230054 -742.45230054 -345.14246935 -345.14246935] Freqs [Hz]: [30.08398821620082, 54.16620245400622]
H1s[4][4]  Real Poles: [-673.72891118 -673.72891118 -335.29134843 -335.29134843] Freqs [Hz]: [22.95413894968036, 35.65192091486714]
H1s[4][5]  Real Poles: [-804.81641289 -804.81641289 -280.41749153 -280.41749153] Freqs [Hz]: [41.72799640647008, 61.485704500875386]
H1s[4][6]  Real Poles: [-659.96873298 -659.96873298 -377.9125706  -377.9125706 ] Freqs [Hz]: [19.01107180813695, 36.96190285060672]
H1s[4][7]  Real Poles: [-760.05173401 -513.45991447 -513.45991447 -266.87251269] Freqs [Hz]: [43.71699083577431]
H1s[5][0]  Real Poles: [-614.0440709  -614.0440709  -395.96657016 -395.96657016] Freqs [Hz]: [10.318566066377066, 29.421881698955914]
H1s[5][1]  Real Poles: [-849.10467063 -849.10467063 -296.32169212 -296.32169212] Freqs [Hz]: [45.89739339916614, 53.37581178327371]
H1s[5][2]  Real Poles: [-701.57921589 -701.57921589 -354.21746322 -354.21746322] Freqs [Hz]: [26.345612176010736, 43.329931900976185]
H1s[5][3]  Real Poles: [-725.75510863 -725.75510863 -316.09516766 -316.09516766] Freqs [Hz]: [31.1696976111931, 46.2118931258375]
H1s[5][4]  Real Poles: [-905.99815185 -905.99815185 -401.99329321 -401.99329321] Freqs [Hz]: [35.916768043778134, 67.06519682971108]
H1s[5][5]  Real Poles: [-772.84124548 -772.84124548 -304.79387884 -304.79387884] Freqs [Hz]: [36.8827916878379, 55.552873270723005]
H1s[5][6]  Real Poles: [-687.58252293 -496.43850424 -496.43850424 -317.56977652] Freqs [Hz]: [28.55895381045141]
H1s[5][7]  Real Poles: [-764.97504611 -764.97504611 -308.27047925 -308.27047925] Freqs [Hz]: [35.91359624367329, 55.10210789018175]
H1s[6][0]  Real Poles: [-793.13815256 -793.13815256 -320.29934357 -320.29934357] Freqs [Hz]: [38.04943837389786, 57.84392955724833]
H1s[6][1]  Real Poles: [-877.48888064 -877.48888064 -383.17519497 -383.17519497] Freqs [Hz]: [40.21223676435496, 67.31310003189033]
H1s[6][2]  Real Poles: [-755.19316667 -755.19316667 -315.80469734 -315.80469734] Freqs [Hz]: [34.8681629919917, 54.627690222117174]
H1s[6][3]  Real Poles: [-746.39247874 -746.39247874 -310.45364444 -310.45364444] Freqs [Hz]: [38.058684016438825, 44.88685301257968]
H1s[6][4]  Real Poles: [-709.32649003 -515.28645761 -515.28645761 -272.37158364] Freqs [Hz]: [34.72175127615791]
H1s[6][5]  Real Poles: [-737.36186106 -737.36186106 -299.99078285 -299.99078285] Freqs [Hz]: [33.152044471989576, 48.22343556746629]
H1s[6][6]  Real Poles: [-674.33111036 -674.33111036 -335.22994684 -335.22994684] Freqs [Hz]: [24.054715205168005, 37.64258722349883]
H1s[6][7]  Real Poles: [-768.66045751 -768.66045751 -444.91965912 -444.91965912] Freqs [Hz]: [43.26457376374748, 38.88197005901681]
H1s[7][0]  Real Poles: [-759.61568563 -759.61568563 -288.22108002 -288.22108002] Freqs [Hz]: [37.86346458299903, 47.39852353050549]
H1s[7][1]  Real Poles: [-783.06422993 -783.06422993 -283.00053761 -283.00053761] Freqs [Hz]: [40.303011629697274, 57.30415807730191]
H1s[7][2]  Real Poles: [-898.27724272 -898.27724272 -493.23541945 -493.23541945] Freqs [Hz]: [39.46703201909739, 77.8407871794261]
H1s[7][3]  Real Poles: [-808.43209024 -808.43209024 -365.10538761 -365.10538761] Freqs [Hz]: [43.163399516083686, 67.37029021100949]
H1s[7][4]  Real Poles: [-980.1143109  -980.1143109  -482.19659932 -482.19659932] Freqs [Hz]: [7.716584804539978, 72.79842555036167]
H1s[7][5]  Real Poles: [-710.62702975 -710.62702975 -291.85824366 -291.85824366] Freqs [Hz]: [31.309097534797182, 40.75847204575458]
H1s[7][6]  Real Poles: [-848.11074678 -848.11074678 -357.64970239 -357.64970239] Freqs [Hz]: [42.05251335557259, 64.8819303582471]
H1s[7][7]  Real Poles: [-725.9407296  -487.49572922 -487.49572922 -344.17925581] Freqs [Hz]: [37.810759987411515]
model_folder = ./unb3tiir/
model_root = unb3tiir
data_path = d:/data/unb3t.hdf5
idx_in [0, 1, 2, 3, 4, 5, 6, 7, 8, 9, 10, 11, 12, 13]
idx_out [14, 15, 16, 17, 18, 19, 20, 21]
read 2430 dataframes
dt=0.002000 data_len=3500 n_io=22 n_case=2430
['T', 'G', 'Fc', 'Md', 'Mq', 'Idlo', 'Iqlo', 'I0lo', 'Idhi', 'Iqhi', 'I0hi', 'GIlo', 'Ctl', 'Unb'] ['Vdc', 'Idc', 'Vdlo', 'Vqlo', 'V0lo', 'Vdhi', 'Vqhi', 'V0hi'] (2430, 3500, 22)
make_mimo_block iir
prepending initial conditions (2430, 500, 22) (2430, 3500, 22) float32 float32
results in (2430, 4000, 22)
Idx,Vdc,Idc,Vdlo,Vqlo,V0lo,Vdhi,Vqhi,V0hi
#,RMSE,RMSE,RMSE,RMSE,RMSE,RMSE,RMSE,RMSE
Total,0.0612,0.0087,0.0646,0.0321,0.0103,0.0124,0.0120,0.0060
0,0.0830,0.0088,0.0803,0.0551,0.0103,0.0132,0.0101,0.0121
1,0.0791,0.0060,0.0766,0.0541,0.0061,0.0099,0.0089,0.0126
2,0.0972,0.0059,0.1001,0.0568,0.0047,0.0112,0.0110,0.0040
3,0.0740,0.0079,0.0684,0.0096,0.0027,0.0105,0.0052,0.0032
4,0.0310,0.0155,0.0306,0.0166,0.0055,0.0093,0.0098,0.0037
5,0.0740,0.0040,0.0850,0.0422,0.0057,0.0104,0.0086,0.0093
6,0.0482,0.0051,0.0592,0.0216,0.0022,0.0082,0.0047,0.0047
7,0.0305,0.0138,0.0297,0.0149,0.0082,0.0091,0.0102,0.0043
8,0.0338,0.0128,0.0309,0.0157,0.0109,0.0100,0.0115,0.0067
9,0.0584,0.0118,0.0611,0.0354,0.0062,0.0190,0.0162,0.0070
10,0.0380,0.0132,0.0398,0.0458,0.0070,0.0146,0.0136,0.0062
11,0.0282,0.0150,0.0294,0.0429,0.0047,0.0130,0.0141,0.0043
12,0.0283,0.0153,0.0294,0.0376,0.0034,0.0120,0.0131,0.0038
13,0.0318,0.0147,0.0326,0.0356,0.0048,0.0125,0.0121,0.0055
14,0.0877,0.0081,0.0817,0.0100,0.0037,0.0108,0.0057,0.0039
15,0.0368,0.0130,0.0367,0.0321,0.0059,0.0136,0.0118,0.0054
16,0.0302,0.0163,0.0327,0.0328,0.0322,0.0165,0.0177,0.0054
17,0.0292,0.0132,0.0305,0.0349,0.0188,0.0137,0.0140,0.0049
18,0.0584,0.0061,0.0704,0.0192,0.0023,0.0084,0.0074,0.0060
19,0.0237,0.0124,0.0236,0.0347,0.0087,0.0125,0.0136,0.0061
20,0.0250,0.0124,0.0242,0.0334,0.0082,0.0125,0.0133,0.0064
21,0.0270,0.0136,0.0269,0.0322,0.0144,0.0146,0.0136,0.0056
22,0.0314,0.0134,0.0327,0.0308,0.0197,0.0152,0.0150,0.0045
23,0.0433,0.0145,0.0385,0.0180,0.0135,0.0148,0.0194,0.0082
24,0.0385,0.0107,0.0355,0.0164,0.0070,0.0101,0.0198,0.0040
25,0.0771,0.0054,0.0744,0.0532,0.0058,0.0092,0.0091,0.0094
26,0.0351,0.0118,0.0352,0.0180,0.0038,0.0089,0.0146,0.0035
27,0.0344,0.0125,0.0352,0.0178,0.0049,0.0092,0.0131,0.0034
28,0.0340,0.0105,0.0335,0.0164,0.0075,0.0089,0.0129,0.0043
29,0.0372,0.0101,0.0355,0.0166,0.0100,0.0096,0.0142,0.0055
30,0.0466,0.0059,0.0542,0.0332,0.0062,0.0087,0.0127,0.0052
31,0.0662,0.0094,0.0679,0.0301,0.0057,0.0170,0.0163,0.0039
32,0.0489,0.0110,0.0490,0.0380,0.0064,0.0143,0.0147,0.0052
33,0.0327,0.0134,0.0346,0.0340,0.0043,0.0118,0.0126,0.0051
34,0.0306,0.0139,0.0327,0.0301,0.0033,0.0112,0.0114,0.0040
35,0.0390,0.0130,0.0396,0.0297,0.0043,0.0120,0.0122,0.0052
36,0.0913,0.0074,0.0855,0.0092,0.0058,0.0112,0.0088,0.0034
37,0.0429,0.0108,0.0430,0.0282,0.0056,0.0137,0.0123,0.0048
38,0.0483,0.0203,0.0481,0.0288,0.0300,0.0171,0.0199,0.0097
39,0.0367,0.0159,0.0376,0.0298,0.0178,0.0136,0.0149,0.0062
40,0.0290,0.0143,0.0295,0.0289,0.0082,0.0129,0.0125,0.0057
41,0.0262,0.0142,0.0269,0.0282,0.0080,0.0132,0.0121,0.0061
42,0.0560,0.0055,0.0618,0.0342,0.0045,0.0078,0.0094,0.0050
43,0.0300,0.0157,0.0304,0.0277,0.0138,0.0144,0.0135,0.0053
44,0.0377,0.0163,0.0390,0.0272,0.0188,0.0150,0.0151,0.0052
45,0.0678,0.0141,0.0586,0.0208,0.0129,0.0147,0.0183,0.0082
46,0.0556,0.0090,0.0465,0.0195,0.0071,0.0106,0.0185,0.0043
47,0.0965,0.0072,0.0909,0.0094,0.0077,0.0122,0.0109,0.0044
48,0.0510,0.0074,0.0458,0.0210,0.0039,0.0094,0.0124,0.0040
49,0.0481,0.0081,0.0445,0.0209,0.0049,0.0096,0.0112,0.0036
50,0.0470,0.0067,0.0420,0.0196,0.0073,0.0092,0.0116,0.0049
51,0.0479,0.0076,0.0426,0.0197,0.0098,0.0101,0.0133,0.0049
52,0.0565,0.0078,0.0532,0.0258,0.0053,0.0210,0.0154,0.0048
53,0.0421,0.0095,0.0361,0.0327,0.0059,0.0163,0.0169,0.0046
54,0.0505,0.0055,0.0549,0.0323,0.0031,0.0093,0.0083,0.0049
55,0.0317,0.0117,0.0289,0.0280,0.0043,0.0140,0.0140,0.0058
56,0.0286,0.0121,0.0267,0.0251,0.0038,0.0137,0.0128,0.0044
57,0.0332,0.0115,0.0296,0.0256,0.0043,0.0142,0.0143,0.0049
58,0.0731,0.0088,0.0695,0.0432,0.0077,0.0174,0.0161,0.0045
59,0.0341,0.0094,0.0308,0.0251,0.0055,0.0162,0.0139,0.0046
60,0.0533,0.0125,0.0510,0.0408,0.0428,0.0235,0.0368,0.0070
61,0.0584,0.0099,0.0551,0.0365,0.0248,0.0164,0.0219,0.0119
62,0.0608,0.0056,0.0577,0.0398,0.0115,0.0109,0.0147,0.0066
63,0.0711,0.0054,0.0681,0.0460,0.0105,0.0106,0.0143,0.0061
64,0.0717,0.0067,0.0682,0.0416,0.0185,0.0139,0.0195,0.0093
65,0.0725,0.0092,0.0682,0.0453,0.0252,0.0164,0.0221,0.0109
66,0.0450,0.0056,0.0519,0.0298,0.0026,0.0097,0.0082,0.0048
67,0.0926,0.0100,0.0848,0.0150,0.0192,0.0193,0.0215,0.0054
68,0.0858,0.0091,0.0785,0.0168,0.0089,0.0128,0.0122,0.0077
69,0.0654,0.0086,0.0630,0.0394,0.0073,0.0137,0.0126,0.0054
70,0.0862,0.0079,0.0810,0.0115,0.0036,0.0112,0.0077,0.0048
71,0.1000,0.0079,0.0943,0.0109,0.0044,0.0115,0.0085,0.0050
72,0.1039,0.0080,0.0957,0.0133,0.0077,0.0114,0.0132,0.0057
73,0.1212,0.0089,0.1112,0.0169,0.0110,0.0131,0.0171,0.0080
74,0.0750,0.0140,0.0647,0.0456,0.0068,0.0170,0.0299,0.0059
75,0.0770,0.0117,0.0660,0.0422,0.0073,0.0136,0.0191,0.0079
76,0.0867,0.0133,0.0755,0.0464,0.0055,0.0171,0.0142,0.0091
77,0.0986,0.0136,0.0872,0.0549,0.0040,0.0160,0.0136,0.0098
78,0.0467,0.0055,0.0540,0.0310,0.0031,0.0080,0.0085,0.0048
79,0.0985,0.0124,0.0868,0.0574,0.0057,0.0130,0.0154,0.0076
80,0.0648,0.0084,0.0633,0.0421,0.0045,0.0126,0.0129,0.0041
81,0.0930,0.0120,0.0803,0.0622,0.0067,0.0132,0.0234,0.0085
82,0.0396,0.0080,0.0428,0.0253,0.0394,0.0246,0.0310,0.0061
83,0.0265,0.0072,0.0284,0.0236,0.0227,0.0149,0.0167,0.0114
84,0.0258,0.0046,0.0285,0.0226,0.0106,0.0115,0.0133,0.0054
85,0.0296,0.0046,0.0339,0.0247,0.0096,0.0111,0.0131,0.0053
86,0.0286,0.0051,0.0325,0.0237,0.0168,0.0127,0.0154,0.0080
87,0.0268,0.0065,0.0300,0.0268,0.0230,0.0154,0.0173,0.0110
88,0.0710,0.0085,0.0760,0.0120,0.0176,0.0201,0.0181,0.0051
89,0.0662,0.0072,0.0696,0.0168,0.0081,0.0133,0.0095,0.0058
90,0.0543,0.0055,0.0612,0.0349,0.0042,0.0075,0.0094,0.0050
91,0.0739,0.0085,0.0718,0.0510,0.0033,0.0123,0.0123,0.0043
92,0.0631,0.0069,0.0688,0.0133,0.0033,0.0112,0.0070,0.0036
93,0.0731,0.0069,0.0800,0.0117,0.0041,0.0114,0.0074,0.0036
94,0.0787,0.0063,0.0838,0.0143,0.0071,0.0116,0.0098,0.0041
95,0.0952,0.0068,0.1002,0.0158,0.0101,0.0136,0.0122,0.0062
96,0.0892,0.0113,0.0904,0.0469,0.0061,0.0183,0.0248,0.0090
97,0.0872,0.0093,0.0862,0.0454,0.0066,0.0134,0.0159,0.0077
98,0.0954,0.0125,0.0949,0.0507,0.0047,0.0143,0.0132,0.0060
99,0.1048,0.0128,0.1053,0.0586,0.0034,0.0136,0.0126,0.0064
100,0.1043,0.0109,0.1042,0.0605,0.0050,0.0124,0.0141,0.0062
101,0.0993,0.0091,0.0990,0.0635,0.0063,0.0142,0.0201,0.0091
102,0.0872,0.0085,0.0834,0.0535,0.0043,0.0123,0.0119,0.0053
103,0.0348,0.0055,0.0371,0.0286,0.0090,0.0137,0.0111,0.0079
104,0.0375,0.0061,0.0396,0.0276,0.0364,0.0286,0.0320,0.0075
105,0.0262,0.0061,0.0288,0.0240,0.0210,0.0147,0.0172,0.0112
106,0.0256,0.0057,0.0296,0.0231,0.0096,0.0125,0.0150,0.0046
107,0.0273,0.0058,0.0333,0.0243,0.0088,0.0120,0.0152,0.0045
108,0.0264,0.0057,0.0318,0.0253,0.0154,0.0128,0.0161,0.0074
109,0.0263,0.0059,0.0293,0.0296,0.0212,0.0155,0.0178,0.0111
110,0.0650,0.0073,0.0756,0.0173,0.0163,0.0286,0.0178,0.0043
111,0.0648,0.0057,0.0720,0.0245,0.0076,0.0150,0.0109,0.0047
112,0.0634,0.0055,0.0726,0.0228,0.0030,0.0123,0.0110,0.0035
113,0.1004,0.0059,0.1029,0.0594,0.0059,0.0117,0.0142,0.0053
114,0.0958,0.0086,0.0906,0.0592,0.0052,0.0129,0.0121,0.0052
115,0.0705,0.0056,0.0823,0.0210,0.0039,0.0125,0.0116,0.0035
116,0.0392,0.0060,0.0396,0.0365,0.0055,0.0107,0.0076,0.0087
117,0.0740,0.0046,0.0849,0.0233,0.0068,0.0126,0.0125,0.0037
118,0.0850,0.0049,0.0973,0.0232,0.0095,0.0160,0.0129,0.0050
119,0.0724,0.0092,0.0767,0.0435,0.0057,0.0271,0.0235,0.0129
120,0.0673,0.0084,0.0678,0.0423,0.0061,0.0159,0.0142,0.0079
121,0.0754,0.0119,0.0767,0.0473,0.0045,0.0153,0.0141,0.0038
122,0.0821,0.0122,0.0853,0.0543,0.0036,0.0150,0.0137,0.0039
123,0.0794,0.0104,0.0820,0.0558,0.0047,0.0146,0.0137,0.0052
124,0.0743,0.0074,0.0775,0.0583,0.0059,0.0177,0.0180,0.0098
125,0.0432,0.0076,0.0461,0.0305,0.0246,0.0166,0.0160,0.0105
126,0.0525,0.0109,0.0483,0.0419,0.0418,0.0236,0.0285,0.0127
127,0.0564,0.0097,0.0522,0.0358,0.0242,0.0139,0.0183,0.0085
128,0.0796,0.0051,0.0776,0.0552,0.0035,0.0112,0.0071,0.0118
129,0.0730,0.0041,0.0849,0.0420,0.0033,0.0106,0.0068,0.0087
130,0.0439,0.0071,0.0420,0.0400,0.0033,0.0092,0.0062,0.0083
131,0.0572,0.0057,0.0529,0.0383,0.0113,0.0117,0.0140,0.0056
132,0.0667,0.0054,0.0622,0.0440,0.0101,0.0116,0.0138,0.0053
133,0.0687,0.0067,0.0642,0.0403,0.0179,0.0121,0.0167,0.0071
134,0.0710,0.0088,0.0657,0.0450,0.0244,0.0138,0.0185,0.0073
135,0.1040,0.0095,0.0971,0.0132,0.0189,0.0245,0.0173,0.0069
136,0.0302,0.0050,0.0353,0.0279,0.0143,0.0139,0.0126,0.0056
137,0.0873,0.0083,0.0808,0.0148,0.0088,0.0129,0.0113,0.0049
138,0.0814,0.0085,0.0765,0.0091,0.0037,0.0113,0.0081,0.0040
139,0.0927,0.0084,0.0872,0.0086,0.0045,0.0117,0.0090,0.0040
140,0.1005,0.0082,0.0932,0.0109,0.0078,0.0116,0.0129,0.0041
141,0.1226,0.0081,0.1139,0.0148,0.0111,0.0143,0.0155,0.0049
142,0.0291,0.0071,0.0315,0.0305,0.0035,0.0095,0.0062,0.0083
143,0.0840,0.0125,0.0775,0.0438,0.0067,0.0205,0.0241,0.0105
144,0.0770,0.0130,0.0689,0.0383,0.0067,0.0131,0.0173,0.0067
145,0.0785,0.0151,0.0698,0.0398,0.0049,0.0132,0.0138,0.0054
146,0.0887,0.0153,0.0799,0.0472,0.0036,0.0118,0.0128,0.0057
147,0.1652,0.0055,0.1662,0.0226,0.0027,0.0092,0.0060,0.0056
148,0.0951,0.0145,0.0866,0.0516,0.0048,0.0116,0.0150,0.0056
149,0.0957,0.0126,0.0866,0.0587,0.0059,0.0127,0.0202,0.0063
150,0.0319,0.0066,0.0350,0.0255,0.0384,0.0221,0.0233,0.0068
151,0.0235,0.0067,0.0251,0.0228,0.0222,0.0140,0.0148,0.0085
152,0.0229,0.0044,0.0248,0.0220,0.0104,0.0127,0.0127,0.0053
153,0.0256,0.0045,0.0287,0.0234,0.0094,0.0124,0.0125,0.0054
154,0.0244,0.0063,0.0353,0.0229,0.0045,0.0093,0.0067,0.0087
155,0.0265,0.0048,0.0298,0.0230,0.0163,0.0127,0.0140,0.0061
156,0.0255,0.0059,0.0284,0.0269,0.0223,0.0142,0.0155,0.0079
157,0.0826,0.0090,0.0890,0.0116,0.0172,0.0177,0.0142,0.0057
158,0.0770,0.0047,0.0746,0.0540,0.0033,0.0106,0.0075,0.0099
159,0.0675,0.0073,0.0720,0.0159,0.0079,0.0123,0.0093,0.0040
160,0.0581,0.0082,0.0641,0.0122,0.0034,0.0114,0.0071,0.0048
161,0.0661,0.0082,0.0731,0.0107,0.0043,0.0116,0.0075,0.0044
162,0.0753,0.0076,0.0813,0.0131,0.0071,0.0116,0.0095,0.0041
163,0.0965,0.0069,0.1030,0.0148,0.0102,0.0132,0.0109,0.0039
164,0.1004,0.0100,0.1056,0.0455,0.0061,0.0172,0.0202,0.0047
165,0.0891,0.0119,0.0912,0.0419,0.0061,0.0123,0.0149,0.0050
166,0.0341,0.0055,0.0491,0.0208,0.0052,0.0101,0.0074,0.0088
167,0.0887,0.0152,0.0908,0.0448,0.0045,0.0115,0.0130,0.0043
168,0.0964,0.0154,0.0996,0.0518,0.0034,0.0108,0.0122,0.0039
169,0.0352,0.0049,0.0446,0.0318,0.0068,0.0118,0.0103,0.0041
170,0.1020,0.0143,0.1052,0.0551,0.0043,0.0111,0.0140,0.0046
171,0.1026,0.0110,0.1061,0.0600,0.0056,0.0127,0.0176,0.0050
172,0.0295,0.0058,0.0315,0.0293,0.0356,0.0216,0.0233,0.0046
173,0.0241,0.0055,0.0267,0.0243,0.0205,0.0148,0.0153,0.0083
174,0.0240,0.0053,0.0274,0.0229,0.0094,0.0142,0.0140,0.0047
175,0.0252,0.0055,0.0304,0.0238,0.0085,0.0135,0.0141,0.0049
176,0.0261,0.0053,0.0316,0.0255,0.0149,0.0143,0.0147,0.0055
177,0.0247,0.0055,0.0287,0.0309,0.0206,0.0151,0.0160,0.0081
178,0.0432,0.0079,0.0571,0.0157,0.0039,0.0095,0.0208,0.0073
179,0.0755,0.0080,0.0880,0.0177,0.0160,0.0190,0.0143,0.0061
180,0.0456,0.0050,0.0568,0.0403,0.0063,0.0116,0.0102,0.0040
181,0.0655,0.0060,0.0738,0.0241,0.0074,0.0131,0.0104,0.0039
182,0.0574,0.0073,0.0669,0.0222,0.0030,0.0125,0.0107,0.0052
183,0.0629,0.0073,0.0748,0.0205,0.0040,0.0127,0.0113,0.0047
184,0.0702,0.0065,0.0820,0.0225,0.0067,0.0126,0.0117,0.0046
185,0.0859,0.0054,0.0998,0.0227,0.0095,0.0140,0.0114,0.0035
186,0.0796,0.0086,0.0878,0.0416,0.0057,0.0195,0.0183,0.0058
187,0.0662,0.0122,0.0694,0.0383,0.0057,0.0136,0.0140,0.0043
188,0.0674,0.0154,0.0711,0.0413,0.0046,0.0124,0.0133,0.0053
189,0.0726,0.0155,0.0782,0.0475,0.0040,0.0121,0.0127,0.0046
190,0.0469,0.0048,0.0571,0.0123,0.0030,0.0085,0.0085,0.0059
191,0.0525,0.0052,0.0623,0.0441,0.0108,0.0135,0.0119,0.0039
192,0.0750,0.0148,0.0807,0.0500,0.0043,0.0127,0.0136,0.0045
193,0.0743,0.0108,0.0810,0.0541,0.0055,0.0147,0.0161,0.0048
194,0.0690,0.0058,0.0583,0.0435,0.0409,0.0240,0.0310,0.0180
195,0.0549,0.0055,0.0506,0.0355,0.0238,0.0180,0.0205,0.0063
196,0.0554,0.0052,0.0508,0.0370,0.0109,0.0120,0.0141,0.0050
197,0.0669,0.0052,0.0622,0.0429,0.0098,0.0117,0.0140,0.0049
198,0.0750,0.0053,0.0715,0.0414,0.0175,0.0155,0.0172,0.0054
199,0.0844,0.0056,0.0795,0.0487,0.0240,0.0196,0.0214,0.0052
200,0.0819,0.0176,0.0724,0.0245,0.0186,0.0291,0.0177,0.0075
201,0.0805,0.0113,0.0728,0.0192,0.0087,0.0155,0.0172,0.0059
202,0.0557,0.0053,0.0633,0.0483,0.0148,0.0144,0.0134,0.0058
203,0.0434,0.0037,0.0548,0.0146,0.0025,0.0100,0.0063,0.0034
204,0.0819,0.0080,0.0758,0.0090,0.0038,0.0133,0.0129,0.0042
205,0.0929,0.0079,0.0861,0.0074,0.0046,0.0138,0.0136,0.0047
206,0.0967,0.0084,0.0875,0.0120,0.0079,0.0141,0.0210,0.0055
207,0.1103,0.0105,0.0988,0.0192,0.0112,0.0172,0.0243,0.0077
208,0.0717,0.0169,0.0627,0.0407,0.0067,0.0219,0.0234,0.0155
209,0.0722,0.0127,0.0634,0.0356,0.0066,0.0156,0.0157,0.0071
210,0.0734,0.0162,0.0658,0.0367,0.0047,0.0133,0.0146,0.0067
211,0.0827,0.0166,0.0753,0.0438,0.0033,0.0120,0.0134,0.0075
212,0.0911,0.0148,0.0824,0.0491,0.0044,0.0133,0.0137,0.0069
213,0.0641,0.0078,0.0677,0.0086,0.0079,0.0168,0.0053,0.0053
214,0.0910,0.0125,0.0806,0.0566,0.0058,0.0155,0.0169,0.0079
215,0.0424,0.0036,0.0573,0.0153,0.0025,0.0105,0.0075,0.0031
216,0.0348,0.0087,0.0317,0.0271,0.0375,0.0238,0.0264,0.0092
217,0.0225,0.0060,0.0240,0.0236,0.0218,0.0176,0.0178,0.0065
218,0.0210,0.0062,0.0230,0.0221,0.0102,0.0126,0.0130,0.0059
219,0.0260,0.0060,0.0300,0.0226,0.0092,0.0122,0.0128,0.0063
220,0.0346,0.0062,0.0406,0.0233,0.0160,0.0160,0.0159,0.0053
221,0.0398,0.0059,0.0451,0.0290,0.0219,0.0192,0.0188,0.0054
222,0.0641,0.0168,0.0645,0.0212,0.0170,0.0235,0.0121,0.0079
223,0.0613,0.0105,0.0626,0.0201,0.0078,0.0142,0.0113,0.0046
224,0.0285,0.0075,0.0317,0.0275,0.0243,0.0157,0.0135,0.0133
225,0.0528,0.0062,0.0563,0.0109,0.0039,0.0126,0.0049,0.0038
226,0.0594,0.0069,0.0637,0.0137,0.0035,0.0125,0.0091,0.0037
227,0.0674,0.0070,0.0728,0.0117,0.0043,0.0130,0.0100,0.0037
228,0.0452,0.0042,0.0615,0.0129,0.0029,0.0088,0.0055,0.0048
229,0.0725,0.0071,0.0758,0.0152,0.0072,0.0133,0.0144,0.0044
230,0.0862,0.0094,0.0884,0.0193,0.0103,0.0156,0.0159,0.0065
231,0.0852,0.0151,0.0864,0.0445,0.0062,0.0215,0.0200,0.0075
232,0.0828,0.0107,0.0830,0.0399,0.0061,0.0155,0.0147,0.0050
233,0.0843,0.0161,0.0871,0.0427,0.0045,0.0123,0.0139,0.0045
234,0.0915,0.0167,0.0955,0.0494,0.0036,0.0116,0.0128,0.0046
235,0.0974,0.0141,0.0996,0.0533,0.0041,0.0134,0.0134,0.0050
236,0.0545,0.0059,0.0583,0.0080,0.0023,0.0103,0.0052,0.0035
237,0.0959,0.0103,0.0971,0.0584,0.0056,0.0161,0.0153,0.0067
238,0.0354,0.0137,0.0347,0.0295,0.0346,0.0249,0.0268,0.0050
239,0.0257,0.0091,0.0271,0.0249,0.0200,0.0172,0.0192,0.0071
240,0.0563,0.0052,0.0744,0.0124,0.0032,0.0082,0.0101,0.0063
241,0.0229,0.0080,0.0263,0.0236,0.0093,0.0132,0.0155,0.0060
242,0.0246,0.0076,0.0309,0.0233,0.0086,0.0129,0.0158,0.0066
243,0.0300,0.0086,0.0386,0.0246,0.0147,0.0161,0.0182,0.0049
244,0.0299,0.0091,0.0377,0.0294,0.0203,0.0192,0.0203,0.0056
245,0.0639,0.0172,0.0678,0.0253,0.0158,0.0225,0.0116,0.0089
246,0.0606,0.0103,0.0642,0.0275,0.0073,0.0142,0.0115,0.0042
247,0.0637,0.0061,0.0685,0.0076,0.0033,0.0103,0.0056,0.0039
248,0.0584,0.0053,0.0658,0.0235,0.0031,0.0135,0.0118,0.0041
249,0.0641,0.0054,0.0740,0.0216,0.0041,0.0140,0.0127,0.0038
250,0.0685,0.0057,0.0765,0.0244,0.0067,0.0139,0.0148,0.0044
251,0.0785,0.0088,0.0868,0.0266,0.0096,0.0153,0.0141,0.0054
252,0.0877,0.0041,0.1023,0.0477,0.0035,0.0113,0.0067,0.0086
253,0.0459,0.0070,0.0554,0.0275,0.0059,0.0096,0.0108,0.0055
254,0.0615,0.0133,0.0646,0.0419,0.0057,0.0283,0.0191,0.0041
255,0.0572,0.0099,0.0586,0.0363,0.0057,0.0170,0.0150,0.0040
256,0.0615,0.0162,0.0654,0.0391,0.0047,0.0128,0.0147,0.0047
257,0.0665,0.0169,0.0724,0.0450,0.0042,0.0125,0.0136,0.0039
258,0.0695,0.0055,0.0751,0.0098,0.0051,0.0109,0.0049,0.0041
259,0.0675,0.0142,0.0716,0.0479,0.0041,0.0148,0.0142,0.0042
260,0.0644,0.0092,0.0682,0.0522,0.0055,0.0186,0.0148,0.0066
261,0.0321,0.0155,0.0309,0.0296,0.0428,0.0225,0.0389,0.0063
262,0.0346,0.0120,0.0334,0.0271,0.0248,0.0157,0.0220,0.0122
263,0.0275,0.0067,0.0269,0.0269,0.0113,0.0105,0.0135,0.0066
264,0.0311,0.0062,0.0300,0.0287,0.0104,0.0103,0.0131,0.0060
265,0.0497,0.0062,0.0591,0.0266,0.0043,0.0078,0.0080,0.0054
266,0.0351,0.0080,0.0336,0.0266,0.0186,0.0132,0.0187,0.0095
267,0.0381,0.0110,0.0359,0.0278,0.0255,0.0158,0.0221,0.0109
268,0.0562,0.0102,0.0512,0.0137,0.0194,0.0163,0.0161,0.0051
269,0.0761,0.0056,0.0828,0.0098,0.0071,0.0119,0.0063,0.0045
270,0.0507,0.0093,0.0465,0.0168,0.0093,0.0124,0.0108,0.0073
271,0.0490,0.0079,0.0467,0.0123,0.0037,0.0106,0.0078,0.0047
272,0.0560,0.0079,0.0531,0.0104,0.0045,0.0107,0.0081,0.0049
273,0.0568,0.0080,0.0517,0.0128,0.0080,0.0109,0.0108,0.0056
274,0.0698,0.0091,0.0624,0.0159,0.0113,0.0119,0.0138,0.0076
275,0.0538,0.0115,0.0480,0.0239,0.0065,0.0163,0.0217,0.0061
276,0.0498,0.0104,0.0420,0.0234,0.0071,0.0152,0.0156,0.0067
277,0.0476,0.0060,0.0564,0.0251,0.0030,0.0078,0.0078,0.0061
278,0.0525,0.0115,0.0436,0.0239,0.0055,0.0204,0.0142,0.0083
279,0.0572,0.0118,0.0476,0.0275,0.0042,0.0196,0.0138,0.0091
280,0.0928,0.0048,0.0910,0.0620,0.0035,0.0113,0.0074,0.0099
281,0.0574,0.0110,0.0481,0.0283,0.0057,0.0155,0.0132,0.0067
282,0.0532,0.0106,0.0437,0.0304,0.0066,0.0143,0.0195,0.0071
283,0.0274,0.0105,0.0314,0.0249,0.0394,0.0236,0.0330,0.0060
284,0.0219,0.0087,0.0243,0.0248,0.0228,0.0144,0.0164,0.0116
285,0.0222,0.0046,0.0246,0.0238,0.0104,0.0113,0.0119,0.0051
286,0.0220,0.0045,0.0242,0.0233,0.0096,0.0109,0.0116,0.0049
287,0.0220,0.0056,0.0246,0.0238,0.0170,0.0122,0.0144,0.0079
288,0.0239,0.0078,0.0265,0.0233,0.0234,0.0148,0.0167,0.0109
289,0.0461,0.0060,0.0572,0.0272,0.0026,0.0080,0.0078,0.0062
290,0.0472,0.0084,0.0495,0.0153,0.0178,0.0186,0.0133,0.0045
291,0.0663,0.0064,0.0684,0.0407,0.0072,0.0166,0.0154,0.0065
292,0.0440,0.0073,0.0449,0.0203,0.0084,0.0133,0.0113,0.0053
293,0.0390,0.0067,0.0420,0.0191,0.0033,0.0107,0.0087,0.0036
294,0.0431,0.0068,0.0470,0.0173,0.0043,0.0106,0.0083,0.0036
295,0.0453,0.0062,0.0473,0.0183,0.0074,0.0111,0.0093,0.0039
296,0.0574,0.0069,0.0590,0.0186,0.0105,0.0128,0.0107,0.0056
297,0.0787,0.0089,0.0803,0.0268,0.0058,0.0177,0.0169,0.0063
298,0.0715,0.0084,0.0692,0.0263,0.0064,0.0145,0.0130,0.0061
299,0.0724,0.0106,0.0692,0.0294,0.0046,0.0168,0.0130,0.0051
300,0.0751,0.0109,0.0724,0.0339,0.0034,0.0162,0.0125,0.0056
301,0.0495,0.0061,0.0611,0.0296,0.0030,0.0074,0.0075,0.0054
302,0.0589,0.0064,0.0623,0.0360,0.0067,0.0131,0.0117,0.0045
303,0.0747,0.0097,0.0720,0.0343,0.0049,0.0140,0.0121,0.0052
304,0.0703,0.0079,0.0678,0.0352,0.0061,0.0147,0.0162,0.0073
305,0.0242,0.0067,0.0286,0.0258,0.0365,0.0275,0.0341,0.0077
306,0.0244,0.0068,0.0269,0.0239,0.0213,0.0140,0.0164,0.0113
307,0.0220,0.0053,0.0259,0.0234,0.0096,0.0124,0.0129,0.0046
308,0.0219,0.0054,0.0261,0.0234,0.0088,0.0119,0.0129,0.0044
309,0.0225,0.0055,0.0268,0.0234,0.0158,0.0123,0.0146,0.0074
310,0.0246,0.0062,0.0286,0.0243,0.0218,0.0148,0.0169,0.0109
311,0.0510,0.0072,0.0551,0.0225,0.0165,0.0275,0.0131,0.0039
312,0.0530,0.0057,0.0535,0.0293,0.0080,0.0149,0.0112,0.0040
313,0.0594,0.0062,0.0641,0.0402,0.0048,0.0108,0.0104,0.0039
314,0.0596,0.0064,0.0711,0.0336,0.0040,0.0075,0.0077,0.0052
315,0.0500,0.0051,0.0524,0.0296,0.0033,0.0112,0.0093,0.0034
316,0.0518,0.0052,0.0561,0.0278,0.0042,0.0111,0.0096,0.0032
317,0.0521,0.0043,0.0553,0.0284,0.0072,0.0118,0.0102,0.0034
318,0.0586,0.0049,0.0630,0.0275,0.0099,0.0154,0.0107,0.0041
319,0.0680,0.0074,0.0696,0.0255,0.0054,0.0270,0.0158,0.0099
320,0.0584,0.0082,0.0540,0.0252,0.0058,0.0174,0.0130,0.0062
321,0.0606,0.0102,0.0557,0.0284,0.0043,0.0177,0.0144,0.0035
322,0.0612,0.0103,0.0573,0.0325,0.0034,0.0175,0.0140,0.0035
323,0.0585,0.0096,0.0547,0.0327,0.0045,0.0162,0.0128,0.0042
324,0.0675,0.0062,0.0726,0.0495,0.0043,0.0105,0.0098,0.0041
325,0.0540,0.0068,0.0511,0.0332,0.0058,0.0185,0.0149,0.0079
326,0.0436,0.0076,0.0476,0.0330,0.0103,0.0134,0.0103,0.0098
327,0.0348,0.0139,0.0318,0.0303,0.0418,0.0204,0.0290,0.0119
328,0.0341,0.0118,0.0322,0.0266,0.0243,0.0131,0.0180,0.0087
329,0.0258,0.0068,0.0246,0.0263,0.0110,0.0119,0.0134,0.0056
330,0.0287,0.0063,0.0270,0.0278,0.0101,0.0118,0.0132,0.0052
331,0.0337,0.0080,0.0315,0.0261,0.0180,0.0117,0.0160,0.0072
332,0.0379,0.0106,0.0351,0.0277,0.0248,0.0132,0.0180,0.0073
333,0.0690,0.0093,0.0647,0.0133,0.0191,0.0209,0.0126,0.0080
334,0.0547,0.0083,0.0511,0.0161,0.0091,0.0116,0.0107,0.0048
335,0.0309,0.0056,0.0320,0.0240,0.0140,0.0126,0.0105,0.0084
336,0.0789,0.0063,0.0826,0.0501,0.0044,0.0110,0.0107,0.0046
337,0.0475,0.0085,0.0456,0.0115,0.0037,0.0103,0.0077,0.0043
338,0.0522,0.0084,0.0496,0.0096,0.0046,0.0105,0.0082,0.0042
339,0.0524,0.0052,0.0565,0.0361,0.0062,0.0096,0.0091,0.0106
340,0.0564,0.0081,0.0521,0.0118,0.0080,0.0105,0.0106,0.0043
341,0.0737,0.0080,0.0676,0.0151,0.0114,0.0124,0.0126,0.0047
342,0.0696,0.0110,0.0691,0.0236,0.0066,0.0188,0.0187,0.0134
343,0.0541,0.0118,0.0502,0.0228,0.0065,0.0137,0.0143,0.0075
344,0.0473,0.0132,0.0409,0.0222,0.0049,0.0156,0.0134,0.0052
345,0.0503,0.0133,0.0435,0.0237,0.0036,0.0141,0.0125,0.0053
346,0.0568,0.0130,0.0509,0.0253,0.0048,0.0129,0.0129,0.0060
347,0.0847,0.0064,0.0879,0.0540,0.0051,0.0126,0.0122,0.0047
348,0.0582,0.0114,0.0525,0.0287,0.0058,0.0127,0.0166,0.0069
349,0.0226,0.0089,0.0261,0.0243,0.0385,0.0191,0.0234,0.0063
350,0.0216,0.0083,0.0238,0.0241,0.0223,0.0133,0.0138,0.0085
351,0.0532,0.0046,0.0563,0.0346,0.0036,0.0110,0.0073,0.0104
352,0.0216,0.0044,0.0245,0.0238,0.0101,0.0129,0.0118,0.0048
353,0.0218,0.0043,0.0244,0.0233,0.0092,0.0125,0.0115,0.0049
354,0.0215,0.0054,0.0243,0.0237,0.0165,0.0124,0.0130,0.0059
355,0.0227,0.0072,0.0256,0.0231,0.0227,0.0136,0.0144,0.0076
356,0.0601,0.0085,0.0639,0.0161,0.0174,0.0145,0.0106,0.0068
357,0.0479,0.0070,0.0499,0.0204,0.0082,0.0113,0.0123,0.0041
358,0.0328,0.0095,0.0350,0.0275,0.0228,0.0194,0.0162,0.0127
359,0.0369,0.0081,0.0403,0.0192,0.0034,0.0105,0.0086,0.0053
360,0.0394,0.0081,0.0434,0.0174,0.0043,0.0105,0.0083,0.0049
361,0.0448,0.0073,0.0478,0.0181,0.0074,0.0105,0.0092,0.0046
362,0.0612,0.0066,0.0643,0.0187,0.0106,0.0115,0.0104,0.0039
363,0.0373,0.0046,0.0407,0.0269,0.0038,0.0120,0.0073,0.0104
364,0.0936,0.0090,0.0992,0.0268,0.0059,0.0150,0.0168,0.0064
365,0.0776,0.0113,0.0789,0.0251,0.0059,0.0125,0.0128,0.0059
366,0.0684,0.0132,0.0679,0.0263,0.0044,0.0128,0.0123,0.0049
367,0.0694,0.0133,0.0693,0.0296,0.0033,0.0119,0.0115,0.0042
368,0.0751,0.0130,0.0757,0.0310,0.0043,0.0115,0.0121,0.0055
369,0.0381,0.0063,0.0373,0.0247,0.0132,0.0144,0.0126,0.0077
370,0.0762,0.0102,0.0775,0.0333,0.0054,0.0122,0.0143,0.0051
371,0.0237,0.0057,0.0261,0.0272,0.0357,0.0191,0.0238,0.0045
372,0.0272,0.0061,0.0284,0.0241,0.0209,0.0143,0.0139,0.0083
373,0.0214,0.0049,0.0249,0.0232,0.0093,0.0144,0.0121,0.0044
374,0.0210,0.0050,0.0251,0.0233,0.0085,0.0136,0.0120,0.0046
375,0.1034,0.0040,0.1185,0.0552,0.0042,0.0095,0.0078,0.0091
376,0.0343,0.0050,0.0375,0.0258,0.0050,0.0089,0.0083,0.0106
377,0.0227,0.0051,0.0267,0.0233,0.0154,0.0141,0.0131,0.0053
378,0.0224,0.0056,0.0267,0.0250,0.0212,0.0145,0.0144,0.0078
379,0.0627,0.0073,0.0688,0.0235,0.0161,0.0170,0.0108,0.0074
380,0.0251,0.0060,0.0278,0.0255,0.0063,0.0122,0.0101,0.0042
381,0.0563,0.0055,0.0582,0.0295,0.0077,0.0123,0.0121,0.0042
382,0.0469,0.0069,0.0498,0.0297,0.0032,0.0111,0.0093,0.0059
383,0.0474,0.0069,0.0519,0.0279,0.0042,0.0112,0.0095,0.0053
384,0.0512,0.0060,0.0554,0.0283,0.0071,0.0112,0.0098,0.0052
385,0.0620,0.0049,0.0680,0.0277,0.0099,0.0125,0.0103,0.0038
386,0.0787,0.0087,0.0841,0.0253,0.0054,0.0178,0.0160,0.0042
387,0.0614,0.0121,0.0603,0.0238,0.0054,0.0142,0.0137,0.0050
388,0.0432,0.0059,0.0450,0.0289,0.0058,0.0095,0.0091,0.0107
389,0.0551,0.0135,0.0528,0.0252,0.0044,0.0139,0.0132,0.0066
390,0.0543,0.0135,0.0530,0.0281,0.0037,0.0135,0.0124,0.0056
391,0.0258,0.0060,0.0343,0.0308,0.0060,0.0120,0.0100,0.0042
392,0.0566,0.0138,0.0559,0.0292,0.0041,0.0134,0.0128,0.0057
393,0.0562,0.0106,0.0569,0.0308,0.0053,0.0147,0.0138,0.0043
394,0.0353,0.0064,0.0293,0.0290,0.0410,0.0211,0.0307,0.0172
395,0.0245,0.0060,0.0241,0.0274,0.0238,0.0158,0.0198,0.0065
396,0.0223,0.0057,0.0216,0.0254,0.0107,0.0121,0.0140,0.0050
397,0.0250,0.0056,0.0233,0.0263,0.0098,0.0120,0.0140,0.0047
398,0.0303,0.0058,0.0289,0.0256,0.0176,0.0142,0.0164,0.0054
399,0.0376,0.0062,0.0347,0.0276,0.0243,0.0176,0.0210,0.0051
400,0.0485,0.0093,0.0528,0.0190,0.0024,0.0099,0.0098,0.0033
401,0.0490,0.0207,0.0456,0.0257,0.0188,0.0240,0.0126,0.0086
402,0.1080,0.0052,0.1060,0.0693,0.0042,0.0089,0.0084,0.0097
403,0.0499,0.0132,0.0468,0.0222,0.0090,0.0129,0.0124,0.0064
404,0.0496,0.0081,0.0468,0.0147,0.0038,0.0110,0.0092,0.0045
405,0.0539,0.0079,0.0500,0.0122,0.0047,0.0117,0.0103,0.0048
406,0.0543,0.0090,0.0491,0.0157,0.0082,0.0116,0.0153,0.0056
407,0.0618,0.0122,0.0536,0.0215,0.0115,0.0140,0.0173,0.0077
408,0.0555,0.0152,0.0502,0.0227,0.0066,0.0202,0.0176,0.0177
409,0.0506,0.0111,0.0450,0.0228,0.0064,0.0152,0.0139,0.0076
410,0.0445,0.0138,0.0393,0.0217,0.0046,0.0147,0.0145,0.0065
411,0.0468,0.0143,0.0413,0.0227,0.0033,0.0132,0.0133,0.0072
412,0.0627,0.0055,0.0682,0.0217,0.0023,0.0086,0.0047,0.0037
413,0.0270,0.0063,0.0347,0.0338,0.0101,0.0138,0.0117,0.0046
414,0.0544,0.0129,0.0482,0.0247,0.0043,0.0133,0.0124,0.0069
415,0.0544,0.0110,0.0470,0.0278,0.0057,0.0148,0.0140,0.0078
416,0.0261,0.0090,0.0270,0.0255,0.0375,0.0208,0.0252,0.0084
417,0.0251,0.0062,0.0272,0.0285,0.0218,0.0154,0.0166,0.0065
418,0.0248,0.0061,0.0266,0.0267,0.0099,0.0122,0.0121,0.0053
419,0.0221,0.0059,0.0240,0.0248,0.0091,0.0119,0.0119,0.0058
420,0.0209,0.0064,0.0237,0.0253,0.0161,0.0146,0.0147,0.0049
421,0.0221,0.0061,0.0250,0.0236,0.0222,0.0172,0.0179,0.0050
422,0.0421,0.0197,0.0406,0.0252,0.0172,0.0195,0.0129,0.0092
423,0.0422,0.0126,0.0413,0.0250,0.0082,0.0119,0.0132,0.0050
424,0.0277,0.0067,0.0344,0.0382,0.0139,0.0152,0.0132,0.0077
425,0.0525,0.0048,0.0587,0.0243,0.0025,0.0083,0.0084,0.0031
426,0.0395,0.0067,0.0412,0.0219,0.0034,0.0102,0.0084,0.0039
427,0.0418,0.0067,0.0441,0.0198,0.0044,0.0108,0.0084,0.0039
428,0.0432,0.0077,0.0435,0.0214,0.0075,0.0107,0.0105,0.0046
429,0.0510,0.0113,0.0495,0.0239,0.0107,0.0124,0.0115,0.0064
430,0.0771,0.0134,0.0769,0.0263,0.0059,0.0193,0.0156,0.0097
431,0.0714,0.0091,0.0695,0.0247,0.0059,0.0149,0.0144,0.0055
432,0.0658,0.0137,0.0657,0.0258,0.0043,0.0127,0.0138,0.0047
433,0.0664,0.0143,0.0670,0.0288,0.0033,0.0118,0.0125,0.0045
434,0.0717,0.0122,0.0709,0.0306,0.0040,0.0128,0.0126,0.0052
435,0.0674,0.0079,0.0738,0.0103,0.0081,0.0168,0.0057,0.0055
436,0.0699,0.0087,0.0684,0.0325,0.0055,0.0150,0.0133,0.0061
437,0.0471,0.0048,0.0513,0.0246,0.0026,0.0088,0.0092,0.0030
438,0.0349,0.0140,0.0344,0.0275,0.0346,0.0215,0.0264,0.0053
439,0.0280,0.0093,0.0303,0.0273,0.0201,0.0152,0.0179,0.0073
440,0.0222,0.0079,0.0252,0.0262,0.0090,0.0126,0.0133,0.0057
441,0.0211,0.0075,0.0240,0.0251,0.0085,0.0123,0.0134,0.0064
442,0.0228,0.0088,0.0260,0.0251,0.0150,0.0145,0.0162,0.0047
443,0.0248,0.0093,0.0272,0.0247,0.0207,0.0169,0.0189,0.0052
444,0.0527,0.0202,0.0493,0.0305,0.0160,0.0213,0.0142,0.0104
445,0.0523,0.0129,0.0484,0.0329,0.0077,0.0124,0.0144,0.0045
446,0.1263,0.0060,0.1546,0.0118,0.0030,0.0077,0.0080,0.0047
447,0.0483,0.0058,0.0537,0.0107,0.0042,0.0127,0.0049,0.0047
448,0.0495,0.0051,0.0496,0.0315,0.0033,0.0110,0.0094,0.0042
449,0.0500,0.0049,0.0521,0.0297,0.0043,0.0116,0.0098,0.0039
450,0.0484,0.0050,0.0523,0.0230,0.0025,0.0082,0.0059,0.0035
451,0.0506,0.0068,0.0505,0.0307,0.0071,0.0112,0.0106,0.0047
452,0.0554,0.0111,0.0549,0.0318,0.0100,0.0126,0.0109,0.0053
453,0.0586,0.0118,0.0570,0.0256,0.0055,0.0263,0.0144,0.0054
454,0.0512,0.0084,0.0467,0.0234,0.0054,0.0167,0.0163,0.0046
455,0.0506,0.0138,0.0483,0.0246,0.0044,0.0136,0.0151,0.0056
456,0.0500,0.0144,0.0489,0.0272,0.0038,0.0131,0.0138,0.0045
457,0.0505,0.0123,0.0480,0.0284,0.0040,0.0145,0.0146,0.0047
458,0.0482,0.0042,0.0543,0.0092,0.0022,0.0106,0.0046,0.0045
459,0.0475,0.0078,0.0452,0.0299,0.0054,0.0177,0.0140,0.0057
460,0.0453,0.0186,0.0445,0.0313,0.0428,0.0224,0.0429,0.0060
461,0.0398,0.0142,0.0402,0.0293,0.0248,0.0155,0.0234,0.0127
462,0.0566,0.0061,0.0597,0.0218,0.0025,0.0088,0.0051,0.0039
463,0.0243,0.0082,0.0258,0.0288,0.0113,0.0108,0.0136,0.0069
464,0.0246,0.0075,0.0260,0.0288,0.0107,0.0107,0.0132,0.0061
465,0.0288,0.0096,0.0294,0.0283,0.0189,0.0130,0.0189,0.0097
466,0.0338,0.0131,0.0336,0.0285,0.0259,0.0156,0.0231,0.0110
467,0.0440,0.0104,0.0416,0.0167,0.0197,0.0149,0.0135,0.0051
468,0.0405,0.0095,0.0390,0.0206,0.0095,0.0129,0.0136,0.0071
469,0.0545,0.0041,0.0626,0.0090,0.0032,0.0104,0.0050,0.0049
470,0.0373,0.0080,0.0379,0.0190,0.0039,0.0111,0.0112,0.0048
471,0.0400,0.0080,0.0400,0.0170,0.0048,0.0108,0.0109,0.0049
472,0.0388,0.0081,0.0371,0.0174,0.0083,0.0114,0.0117,0.0055
473,0.0475,0.0094,0.0434,0.0189,0.0117,0.0117,0.0133,0.0071
474,0.0498,0.0056,0.0562,0.0405,0.0067,0.0083,0.0139,0.0075
475,0.0589,0.0098,0.0592,0.0258,0.0067,0.0175,0.0160,0.0082
476,0.0502,0.0093,0.0472,0.0279,0.0069,0.0178,0.0134,0.0059
477,0.0460,0.0099,0.0400,0.0253,0.0056,0.0241,0.0149,0.0074
478,0.0450,0.0101,0.0379,0.0246,0.0044,0.0235,0.0145,0.0083
479,0.0457,0.0097,0.0395,0.0247,0.0057,0.0188,0.0121,0.0058
480,0.0597,0.0042,0.0690,0.0101,0.0049,0.0110,0.0052,0.0049
481,0.0424,0.0094,0.0366,0.0248,0.0065,0.0166,0.0162,0.0060
482,0.0316,0.0130,0.0335,0.0291,0.0394,0.0235,0.0369,0.0060
483,0.0337,0.0105,0.0353,0.0284,0.0229,0.0143,0.0177,0.0118
484,0.0262,0.0052,0.0300,0.0282,0.0105,0.0117,0.0122,0.0050
485,0.0277,0.0047,0.0313,0.0285,0.0098,0.0114,0.0119,0.0046
486,0.0570,0.0051,0.0617,0.0431,0.0050,0.0070,0.0109,0.0048
487,0.0266,0.0066,0.0303,0.0290,0.0174,0.0122,0.0147,0.0079
488,0.0272,0.0093,0.0312,0.0286,0.0239,0.0147,0.0177,0.0107
489,0.0436,0.0084,0.0449,0.0210,0.0180,0.0180,0.0119,0.0045
490,0.0433,0.0073,0.0432,0.0259,0.0087,0.0141,0.0162,0.0050
491,0.0652,0.0048,0.0763,0.0097,0.0068,0.0124,0.0062,0.0052
492,0.0367,0.0065,0.0388,0.0270,0.0035,0.0112,0.0130,0.0039
493,0.0367,0.0067,0.0393,0.0251,0.0045,0.0107,0.0119,0.0038
494,0.0365,0.0060,0.0374,0.0245,0.0078,0.0116,0.0122,0.0040
495,0.0445,0.0070,0.0448,0.0238,0.0108,0.0130,0.0127,0.0051
496,0.0889,0.0079,0.0924,0.0250,0.0059,0.0185,0.0138,0.0046
497,0.0813,0.0079,0.0801,0.0250,0.0062,0.0167,0.0121,0.0051
498,0.1225,0.0043,0.1383,0.0645,0.0045,0.0102,0.0086,0.0094
499,0.0485,0.0048,0.0509,0.0415,0.0034,0.0084,0.0101,0.0045
500,0.0753,0.0090,0.0715,0.0254,0.0046,0.0197,0.0136,0.0045
501,0.0719,0.0091,0.0680,0.0268,0.0034,0.0194,0.0130,0.0049
502,0.0711,0.0056,0.0744,0.0458,0.0067,0.0192,0.0161,0.0076
503,0.0718,0.0087,0.0684,0.0266,0.0049,0.0165,0.0114,0.0045
504,0.0674,0.0071,0.0647,0.0263,0.0060,0.0164,0.0134,0.0057
505,0.0389,0.0081,0.0382,0.0294,0.0366,0.0272,0.0380,0.0078
506,0.0423,0.0079,0.0406,0.0279,0.0216,0.0139,0.0172,0.0114
507,0.0251,0.0052,0.0283,0.0261,0.0099,0.0129,0.0124,0.0047
508,0.0217,0.0052,0.0272,0.0262,0.0093,0.0124,0.0123,0.0044
509,0.0252,0.0058,0.0293,0.0262,0.0164,0.0125,0.0145,0.0074
510,0.0227,0.0070,0.0284,0.0265,0.0225,0.0147,0.0175,0.0107
511,0.0472,0.0049,0.0499,0.0363,0.0029,0.0089,0.0101,0.0045
512,0.0540,0.0072,0.0543,0.0283,0.0167,0.0267,0.0113,0.0041
513,0.0649,0.0050,0.0691,0.0397,0.0063,0.0138,0.0121,0.0037
514,0.0593,0.0058,0.0561,0.0348,0.0083,0.0154,0.0147,0.0036
515,0.0553,0.0047,0.0538,0.0368,0.0036,0.0111,0.0108,0.0036
516,0.0531,0.0049,0.0529,0.0352,0.0046,0.0107,0.0104,0.0033
517,0.0513,0.0040,0.0498,0.0344,0.0076,0.0118,0.0110,0.0034
518,0.0541,0.0050,0.0535,0.0328,0.0103,0.0155,0.0117,0.0035
519,0.0818,0.0078,0.0831,0.0236,0.0053,0.0275,0.0143,0.0071
520,0.0733,0.0085,0.0676,0.0236,0.0056,0.0194,0.0140,0.0049
521,0.0696,0.0088,0.0615,0.0244,0.0043,0.0203,0.0154,0.0039
522,0.0643,0.0088,0.0566,0.0259,0.0033,0.0202,0.0148,0.0036
523,0.0496,0.0049,0.0513,0.0361,0.0036,0.0069,0.0101,0.0046
524,0.1289,0.0060,0.1274,0.0785,0.0046,0.0089,0.0089,0.0093
525,0.0617,0.0091,0.0546,0.0256,0.0045,0.0184,0.0133,0.0038
526,0.0568,0.0069,0.0510,0.0252,0.0057,0.0200,0.0133,0.0061
527,0.0511,0.0170,0.0494,0.0318,0.0418,0.0183,0.0320,0.0114
528,0.0400,0.0141,0.0398,0.0288,0.0243,0.0131,0.0190,0.0092
529,0.0227,0.0084,0.0242,0.0282,0.0111,0.0127,0.0141,0.0059
530,0.0229,0.0077,0.0245,0.0282,0.0104,0.0127,0.0141,0.0054
531,0.0277,0.0097,0.0280,0.0278,0.0184,0.0120,0.0163,0.0075
532,0.0336,0.0127,0.0329,0.0281,0.0252,0.0131,0.0188,0.0074
533,0.0569,0.0091,0.0549,0.0179,0.0193,0.0187,0.0122,0.0093
534,0.0461,0.0082,0.0453,0.0213,0.0093,0.0112,0.0145,0.0048
535,0.0681,0.0048,0.0734,0.0462,0.0049,0.0120,0.0109,0.0034
536,0.0575,0.0050,0.0573,0.0389,0.0045,0.0065,0.0109,0.0050
537,0.0379,0.0085,0.0387,0.0198,0.0039,0.0105,0.0110,0.0046
538,0.0390,0.0085,0.0392,0.0178,0.0048,0.0103,0.0106,0.0045
539,0.0406,0.0081,0.0396,0.0180,0.0084,0.0103,0.0116,0.0045
540,0.0532,0.0080,0.0500,0.0196,0.0118,0.0113,0.0130,0.0047
541,0.0782,0.0104,0.0829,0.0259,0.0067,0.0192,0.0177,0.0168
542,0.0597,0.0110,0.0607,0.0293,0.0062,0.0161,0.0128,0.0090
543,0.0433,0.0113,0.0398,0.0276,0.0050,0.0191,0.0137,0.0051
544,0.0409,0.0114,0.0364,0.0261,0.0037,0.0179,0.0128,0.0050
545,0.0478,0.0117,0.0448,0.0258,0.0048,0.0159,0.0118,0.0067
546,0.0759,0.0048,0.0824,0.0556,0.0047,0.0118,0.0104,0.0036
547,0.0498,0.0104,0.0476,0.0255,0.0057,0.0147,0.0138,0.0082
548,0.0348,0.0049,0.0393,0.0291,0.0094,0.0140,0.0104,0.0067
549,0.0371,0.0114,0.0376,0.0285,0.0385,0.0175,0.0264,0.0059
550,0.0358,0.0101,0.0369,0.0276,0.0225,0.0134,0.0146,0.0086
551,0.0247,0.0050,0.0289,0.0276,0.0103,0.0136,0.0126,0.0044
552,0.0265,0.0046,0.0307,0.0281,0.0095,0.0132,0.0123,0.0044
553,0.0257,0.0064,0.0294,0.0284,0.0169,0.0128,0.0134,0.0058
554,0.0262,0.0088,0.0301,0.0277,0.0232,0.0136,0.0148,0.0074
555,0.0565,0.0080,0.0591,0.0226,0.0177,0.0129,0.0119,0.0081
556,0.0488,0.0067,0.0500,0.0268,0.0085,0.0113,0.0179,0.0045
557,0.0263,0.0056,0.0273,0.0243,0.0066,0.0108,0.0092,0.0049
558,0.0836,0.0049,0.0892,0.0545,0.0045,0.0119,0.0114,0.0040
559,0.0366,0.0078,0.0391,0.0278,0.0035,0.0106,0.0130,0.0059
560,0.0354,0.0079,0.0383,0.0261,0.0045,0.0103,0.0120,0.0055
561,0.0414,0.0036,0.0441,0.0352,0.0058,0.0102,0.0090,0.0071
562,0.0382,0.0070,0.0400,0.0252,0.0077,0.0102,0.0126,0.0053
563,0.0500,0.0063,0.0516,0.0248,0.0109,0.0106,0.0136,0.0043
564,0.1045,0.0095,0.1113,0.0256,0.0060,0.0152,0.0194,0.0093
565,0.0911,0.0110,0.0934,0.0257,0.0057,0.0144,0.0130,0.0075
566,0.0741,0.0114,0.0731,0.0253,0.0043,0.0155,0.0125,0.0059
567,0.0688,0.0115,0.0675,0.0258,0.0032,0.0147,0.0116,0.0049
568,0.0749,0.0121,0.0748,0.0261,0.0042,0.0137,0.0115,0.0068
569,0.0856,0.0051,0.0915,0.0567,0.0052,0.0140,0.0130,0.0046
570,0.0758,0.0098,0.0769,0.0264,0.0054,0.0136,0.0124,0.0062
571,0.0499,0.0067,0.0475,0.0310,0.0359,0.0180,0.0271,0.0045
572,0.0487,0.0072,0.0457,0.0285,0.0212,0.0143,0.0142,0.0084
573,0.0453,0.0041,0.0462,0.0366,0.0034,0.0105,0.0070,0.0071
574,0.0261,0.0048,0.0275,0.0257,0.0097,0.0151,0.0121,0.0043
575,0.0209,0.0047,0.0255,0.0257,0.0090,0.0143,0.0118,0.0045
576,0.0276,0.0053,0.0299,0.0258,0.0160,0.0145,0.0130,0.0053
577,0.0243,0.0063,0.0281,0.0267,0.0219,0.0145,0.0145,0.0076
578,0.0659,0.0067,0.0678,0.0298,0.0164,0.0157,0.0116,0.0087
579,0.0643,0.0050,0.0625,0.0355,0.0081,0.0120,0.0166,0.0048
580,0.0271,0.0077,0.0281,0.0232,0.0286,0.0140,0.0158,0.0128
581,0.0547,0.0064,0.0536,0.0375,0.0035,0.0107,0.0112,0.0066
582,0.0514,0.0065,0.0514,0.0359,0.0045,0.0105,0.0107,0.0060
583,0.0528,0.0055,0.0523,0.0349,0.0075,0.0106,0.0114,0.0060
584,0.0592,0.0044,0.0601,0.0336,0.0103,0.0118,0.0127,0.0045
585,0.0323,0.0040,0.0368,0.0272,0.0037,0.0113,0.0069,0.0071
586,0.0931,0.0103,0.0975,0.0242,0.0054,0.0180,0.0205,0.0051
587,0.0798,0.0124,0.0774,0.0241,0.0052,0.0162,0.0157,0.0067
588,0.0667,0.0119,0.0613,0.0240,0.0042,0.0163,0.0139,0.0081
589,0.0600,0.0118,0.0549,0.0246,0.0035,0.0159,0.0129,0.0069
590,0.0624,0.0131,0.0584,0.0248,0.0041,0.0153,0.0133,0.0074
591,0.0337,0.0072,0.0340,0.0231,0.0166,0.0098,0.0141,0.0078
592,0.0616,0.0108,0.0593,0.0249,0.0051,0.0161,0.0135,0.0052
593,0.0271,0.0072,0.0283,0.0301,0.0410,0.0195,0.0315,0.0166
594,0.0255,0.0069,0.0281,0.0303,0.0238,0.0146,0.0201,0.0068
595,0.0249,0.0065,0.0275,0.0277,0.0108,0.0131,0.0152,0.0051
596,0.0223,0.0065,0.0249,0.0273,0.0101,0.0130,0.0154,0.0049
597,0.0321,0.0037,0.0406,0.0226,0.0047,0.0090,0.0080,0.0072
598,0.0214,0.0066,0.0234,0.0285,0.0179,0.0137,0.0167,0.0055
599,0.0226,0.0070,0.0241,0.0279,0.0247,0.0162,0.0215,0.0051
600,0.0398,0.0238,0.0410,0.0294,0.0191,0.0208,0.0176,0.0097
601,0.0421,0.0154,0.0417,0.0277,0.0093,0.0116,0.0152,0.0069
602,0.0310,0.0055,0.0284,0.0182,0.0079,0.0085,0.0108,0.0052
603,0.0411,0.0083,0.0409,0.0240,0.0040,0.0095,0.0103,0.0047
604,0.0419,0.0080,0.0411,0.0217,0.0049,0.0101,0.0104,0.0050
605,0.0410,0.0100,0.0405,0.0229,0.0085,0.0100,0.0127,0.0058
606,0.0437,0.0141,0.0410,0.0266,0.0119,0.0117,0.0142,0.0076
607,0.0634,0.0136,0.0620,0.0283,0.0065,0.0207,0.0167,0.0205
608,0.0565,0.0097,0.0544,0.0306,0.0063,0.0171,0.0142,0.0087
609,0.0447,0.0036,0.0547,0.0237,0.0055,0.0099,0.0089,0.0072
610,0.0421,0.0117,0.0393,0.0282,0.0046,0.0181,0.0153,0.0062
611,0.0394,0.0121,0.0361,0.0268,0.0034,0.0167,0.0140,0.0068
612,0.0468,0.0112,0.0430,0.0266,0.0043,0.0158,0.0124,0.0070
613,0.0263,0.0051,0.0249,0.0164,0.0072,0.0087,0.0109,0.0052
614,0.0467,0.0097,0.0422,0.0264,0.0056,0.0163,0.0126,0.0081
615,0.0304,0.0094,0.0338,0.0307,0.0376,0.0196,0.0256,0.0077
616,0.0309,0.0066,0.0348,0.0326,0.0219,0.0144,0.0168,0.0067
617,0.0313,0.0060,0.0351,0.0308,0.0099,0.0127,0.0133,0.0048
618,0.0311,0.0058,0.0346,0.0306,0.0093,0.0124,0.0129,0.0053
619,0.0279,0.0066,0.0310,0.0321,0.0165,0.0139,0.0149,0.0045
620,0.0283,0.0065,0.0319,0.0303,0.0227,0.0158,0.0181,0.0046
621,0.1079,0.0090,0.1228,0.0165,0.0028,0.0095,0.0165,0.0068
622,0.0427,0.0101,0.0514,0.0158,0.0025,0.0090,0.0134,0.0044
623,0.0402,0.0227,0.0375,0.0308,0.0175,0.0185,0.0205,0.0105
624,0.0260,0.0054,0.0258,0.0170,0.0123,0.0093,0.0134,0.0058
625,0.0431,0.0150,0.0403,0.0313,0.0084,0.0115,0.0207,0.0054
626,0.0401,0.0068,0.0403,0.0310,0.0036,0.0089,0.0128,0.0042
627,0.0390,0.0065,0.0399,0.0291,0.0046,0.0093,0.0115,0.0042
628,0.0381,0.0088,0.0378,0.0289,0.0078,0.0093,0.0126,0.0050
629,0.0414,0.0134,0.0393,0.0300,0.0110,0.0107,0.0144,0.0063
630,0.0891,0.0120,0.0892,0.0262,0.0058,0.0192,0.0177,0.0126
631,0.0850,0.0078,0.0830,0.0264,0.0057,0.0163,0.0163,0.0069
632,0.0730,0.0114,0.0719,0.0257,0.0042,0.0152,0.0146,0.0053
633,0.0677,0.0120,0.0669,0.0262,0.0032,0.0143,0.0131,0.0046
634,0.0575,0.0064,0.0635,0.0189,0.0021,0.0079,0.0049,0.0043
635,0.0264,0.0060,0.0264,0.0184,0.0168,0.0102,0.0152,0.0085
636,0.0727,0.0105,0.0707,0.0266,0.0039,0.0145,0.0134,0.0057
637,0.0702,0.0075,0.0678,0.0267,0.0054,0.0158,0.0133,0.0060
638,0.0434,0.0144,0.0418,0.0305,0.0348,0.0211,0.0275,0.0059
639,0.0316,0.0096,0.0342,0.0296,0.0204,0.0151,0.0187,0.0078
640,0.0226,0.0076,0.0269,0.0278,0.0092,0.0130,0.0135,0.0053
641,0.0221,0.0073,0.0265,0.0281,0.0088,0.0125,0.0131,0.0061
642,0.0248,0.0089,0.0278,0.0288,0.0155,0.0139,0.0161,0.0046
643,0.0287,0.0096,0.0317,0.0284,0.0213,0.0156,0.0191,0.0051
644,0.0598,0.0233,0.0510,0.0364,0.0162,0.0228,0.0212,0.0120
645,0.0621,0.0156,0.0527,0.0387,0.0080,0.0125,0.0216,0.0050
646,0.1075,0.0141,0.1088,0.0178,0.0027,0.0115,0.0108,0.0033
647,0.0501,0.0052,0.0573,0.0233,0.0020,0.0089,0.0084,0.0036
648,0.0589,0.0055,0.0542,0.0397,0.0036,0.0095,0.0120,0.0046
649,0.0555,0.0048,0.0527,0.0380,0.0046,0.0099,0.0110,0.0043
650,0.0535,0.0085,0.0483,0.0375,0.0075,0.0097,0.0124,0.0052
651,0.0546,0.0135,0.0488,0.0376,0.0104,0.0116,0.0149,0.0055
652,0.0747,0.0105,0.0709,0.0248,0.0053,0.0256,0.0168,0.0080
653,0.0687,0.0074,0.0609,0.0248,0.0052,0.0179,0.0193,0.0062
654,0.0631,0.0116,0.0570,0.0244,0.0042,0.0159,0.0164,0.0069
655,0.0573,0.0122,0.0522,0.0249,0.0036,0.0154,0.0148,0.0054
656,0.0572,0.0107,0.0510,0.0251,0.0038,0.0159,0.0162,0.0057
657,0.0415,0.0122,0.0395,0.0109,0.0100,0.0113,0.0076,0.0101
658,0.0536,0.0067,0.0478,0.0252,0.0053,0.0184,0.0154,0.0052
659,0.0419,0.0051,0.0512,0.0239,0.0021,0.0095,0.0094,0.0036
660,0.0427,0.0058,0.0527,0.0210,0.0022,0.0078,0.0052,0.0039
661,0.0503,0.0070,0.0617,0.0188,0.0023,0.0079,0.0057,0.0045
662,0.0469,0.0068,0.0547,0.0349,0.0060,0.0093,0.0121,0.0072
663,0.0593,0.0063,0.0644,0.0364,0.0044,0.0083,0.0089,0.0059
664,0.0519,0.0063,0.0553,0.0340,0.0031,0.0102,0.0078,0.0058
665,0.0422,0.0064,0.0479,0.0295,0.0027,0.0107,0.0078,0.0058
666,0.0933,0.0058,0.1073,0.0199,0.0021,0.0084,0.0062,0.0058
667,0.0423,0.0063,0.0487,0.0296,0.0032,0.0086,0.0079,0.0057
668,0.0244,0.0056,0.0307,0.0293,0.0062,0.0103,0.0094,0.0048
669,0.0374,0.0091,0.0356,0.0126,0.0059,0.0110,0.0087,0.0042
670,0.0473,0.0063,0.0538,0.0323,0.0041,0.0079,0.0087,0.0059
671,0.0335,0.0045,0.0359,0.0287,0.0087,0.0140,0.0107,0.0063
672,0.0392,0.0055,0.0395,0.0370,0.0054,0.0106,0.0076,0.0066
673,0.0449,0.0069,0.0428,0.0407,0.0033,0.0090,0.0060,0.0067
674,0.0296,0.0068,0.0313,0.0311,0.0035,0.0094,0.0060,0.0067
675,0.0238,0.0059,0.0342,0.0233,0.0045,0.0089,0.0066,0.0067
676,0.0337,0.0049,0.0484,0.0208,0.0051,0.0100,0.0072,0.0066
677,0.0390,0.0090,0.0521,0.0148,0.0035,0.0089,0.0175,0.0048
678,0.0485,0.0054,0.0571,0.0116,0.0028,0.0081,0.0066,0.0043
679,0.1001,0.0047,0.1146,0.0247,0.0020,0.0088,0.0069,0.0037
680,0.0385,0.0096,0.0363,0.0092,0.0033,0.0095,0.0084,0.0035
681,0.0437,0.0040,0.0535,0.0139,0.0024,0.0102,0.0077,0.0034
682,0.0378,0.0040,0.0514,0.0145,0.0025,0.0108,0.0088,0.0034
683,0.0393,0.0047,0.0545,0.0122,0.0028,0.0086,0.0051,0.0038
684,0.0486,0.0059,0.0661,0.0117,0.0031,0.0078,0.0079,0.0046
685,0.0422,0.0082,0.0521,0.0283,0.0056,0.0102,0.0107,0.0078
686,0.0505,0.0072,0.0591,0.0272,0.0041,0.0081,0.0078,0.0074
687,0.0473,0.0068,0.0549,0.0248,0.0030,0.0085,0.0071,0.0083
688,0.0418,0.0068,0.0518,0.0249,0.0027,0.0088,0.0071,0.0084
689,0.0436,0.0070,0.0544,0.0268,0.0030,0.0078,0.0070,0.0075
690,0.0517,0.0074,0.0628,0.0303,0.0039,0.0078,0.0074,0.0072
691,0.0459,0.0096,0.0428,0.0089,0.0041,0.0098,0.0085,0.0038
692,0.1202,0.0046,0.1361,0.0253,0.0020,0.0093,0.0080,0.0035
693,0.0425,0.0074,0.0459,0.0313,0.0100,0.0121,0.0104,0.0080
694,0.0520,0.0051,0.0560,0.0358,0.0060,0.0090,0.0092,0.0093
695,0.0534,0.0045,0.0569,0.0346,0.0034,0.0103,0.0078,0.0098
696,0.0378,0.0045,0.0415,0.0269,0.0037,0.0111,0.0077,0.0098
697,0.0353,0.0049,0.0386,0.0258,0.0048,0.0088,0.0086,0.0096
698,0.0457,0.0056,0.0477,0.0295,0.0057,0.0088,0.0091,0.0092
699,0.0461,0.0142,0.0503,0.0172,0.0027,0.0115,0.0109,0.0032
700,0.0626,0.0072,0.0683,0.0194,0.0023,0.0094,0.0046,0.0040
701,0.0518,0.0051,0.0588,0.0216,0.0023,0.0075,0.0079,0.0040
702,0.0484,0.0092,0.0451,0.0115,0.0065,0.0101,0.0071,0.0033
703,0.0440,0.0051,0.0488,0.0219,0.0023,0.0078,0.0088,0.0040
704,0.1271,0.0052,0.1438,0.0221,0.0021,0.0081,0.0047,0.0048
705,0.0450,0.0058,0.0493,0.0204,0.0025,0.0086,0.0055,0.0042
706,0.0529,0.0080,0.0563,0.0194,0.0026,0.0096,0.0053,0.0042
707,0.0441,0.0058,0.0496,0.0390,0.0065,0.0094,0.0113,0.0076
708,0.0531,0.0053,0.0582,0.0425,0.0050,0.0076,0.0084,0.0046
709,0.0460,0.0049,0.0484,0.0418,0.0035,0.0068,0.0071,0.0050
710,0.0441,0.0050,0.0463,0.0364,0.0029,0.0072,0.0070,0.0051
711,0.0473,0.0052,0.0483,0.0361,0.0036,0.0068,0.0070,0.0047
712,0.0574,0.0053,0.0561,0.0395,0.0044,0.0071,0.0077,0.0050
713,0.0562,0.0092,0.0528,0.0119,0.0086,0.0106,0.0076,0.0049
714,0.0355,0.0049,0.0395,0.0279,0.0091,0.0131,0.0104,0.0055
715,0.0419,0.0034,0.0444,0.0351,0.0056,0.0096,0.0092,0.0057
716,0.1438,0.0063,0.1617,0.0196,0.0025,0.0084,0.0075,0.0062
717,0.0455,0.0038,0.0466,0.0367,0.0033,0.0103,0.0077,0.0061
718,0.0326,0.0037,0.0372,0.0273,0.0036,0.0109,0.0075,0.0061
719,0.0326,0.0035,0.0412,0.0227,0.0047,0.0091,0.0085,0.0059
720,0.0459,0.0035,0.0563,0.0242,0.0054,0.0091,0.0089,0.0056
721,0.0414,0.0152,0.0499,0.0148,0.0023,0.0112,0.0146,0.0041
722,0.0564,0.0086,0.0619,0.0167,0.0020,0.0086,0.0049,0.0046
723,0.0490,0.0056,0.0560,0.0206,0.0020,0.0074,0.0079,0.0042
724,0.0389,0.0098,0.0380,0.0224,0.0076,0.0140,0.0144,0.0063
725,0.0403,0.0055,0.0492,0.0212,0.0021,0.0079,0.0090,0.0042
726,0.0410,0.0069,0.0506,0.0184,0.0023,0.0078,0.0050,0.0046
727,0.0488,0.0093,0.0601,0.0166,0.0023,0.0087,0.0061,0.0049
728,0.0951,0.0052,0.0940,0.0633,0.0037,0.0121,0.0071,0.0117
729,0.0933,0.0061,0.1017,0.0512,0.0064,0.0090,0.0133,0.0052
730,0.0414,0.0076,0.0485,0.0332,0.0060,0.0101,0.0105,0.0076
731,0.0554,0.0068,0.0610,0.0354,0.0043,0.0078,0.0078,0.0059
732,0.0502,0.0067,0.0536,0.0340,0.0030,0.0078,0.0063,0.0056
733,0.0401,0.0067,0.0452,0.0294,0.0025,0.0081,0.0061,0.0056
734,0.0403,0.0067,0.0461,0.0296,0.0030,0.0072,0.0065,0.0056
735,0.0370,0.0082,0.0366,0.0299,0.0079,0.0130,0.0111,0.0045
736,0.0475,0.0069,0.0529,0.0329,0.0040,0.0074,0.0070,0.0059
737,0.0360,0.0040,0.0371,0.0280,0.0085,0.0146,0.0111,0.0055
738,0.0404,0.0050,0.0402,0.0371,0.0052,0.0099,0.0079,0.0053
739,0.0452,0.0064,0.0431,0.0409,0.0032,0.0089,0.0068,0.0058
740,0.0298,0.0063,0.0317,0.0313,0.0035,0.0092,0.0068,0.0058
741,0.0849,0.0056,0.0959,0.0510,0.0048,0.0081,0.0098,0.0050
742,0.0244,0.0055,0.0349,0.0235,0.0045,0.0087,0.0071,0.0055
743,0.0343,0.0046,0.0497,0.0213,0.0050,0.0093,0.0074,0.0052
744,0.0388,0.0143,0.0521,0.0169,0.0031,0.0102,0.0189,0.0043
745,0.0451,0.0077,0.0536,0.0113,0.0028,0.0076,0.0068,0.0045
746,0.0370,0.0079,0.0370,0.0213,0.0049,0.0145,0.0124,0.0042
747,0.0407,0.0045,0.0507,0.0117,0.0027,0.0080,0.0072,0.0040
748,0.0362,0.0043,0.0498,0.0121,0.0027,0.0085,0.0084,0.0039
749,0.0384,0.0060,0.0535,0.0107,0.0029,0.0073,0.0049,0.0044
750,0.0491,0.0084,0.0665,0.0113,0.0030,0.0074,0.0084,0.0049
751,0.0403,0.0093,0.0483,0.0263,0.0055,0.0110,0.0109,0.0084
752,0.0459,0.0079,0.0549,0.0258,0.0040,0.0080,0.0097,0.0075
753,0.0901,0.0056,0.1031,0.0533,0.0032,0.0095,0.0087,0.0049
754,0.0445,0.0073,0.0520,0.0239,0.0028,0.0071,0.0093,0.0079
755,0.0391,0.0073,0.0484,0.0242,0.0025,0.0073,0.0093,0.0079
756,0.0418,0.0075,0.0518,0.0266,0.0029,0.0072,0.0092,0.0075
757,0.0382,0.0079,0.0370,0.0181,0.0034,0.0146,0.0121,0.0046
758,0.0527,0.0080,0.0625,0.0309,0.0038,0.0076,0.0089,0.0074
759,0.0864,0.0073,0.0929,0.0535,0.0106,0.0134,0.0102,0.0119
760,0.0999,0.0051,0.1060,0.0594,0.0065,0.0103,0.0095,0.0124
761,0.1036,0.0046,0.1085,0.0589,0.0037,0.0111,0.0080,0.0116
762,0.0857,0.0047,0.0909,0.0481,0.0040,0.0120,0.0079,0.0115
763,0.0724,0.0050,0.0788,0.0408,0.0054,0.0098,0.0090,0.0121
764,0.0598,0.0058,0.0669,0.0343,0.0065,0.0105,0.0097,0.0125
765,0.1076,0.0057,0.1224,0.0624,0.0027,0.0100,0.0086,0.0049
766,0.0751,0.0079,0.0810,0.0183,0.0025,0.0105,0.0124,0.0053
767,0.0987,0.0049,0.1055,0.0215,0.0022,0.0090,0.0050,0.0051
768,0.0954,0.0073,0.0947,0.0200,0.0024,0.0094,0.0046,0.0040
769,0.0858,0.0046,0.0936,0.0249,0.0024,0.0083,0.0071,0.0034
770,0.0668,0.0046,0.0749,0.0254,0.0026,0.0089,0.0081,0.0032
771,0.0642,0.0047,0.0723,0.0232,0.0026,0.0084,0.0050,0.0043
772,0.0566,0.0054,0.0645,0.0215,0.0027,0.0092,0.0059,0.0053
773,0.0774,0.0059,0.0879,0.0575,0.0069,0.0077,0.0139,0.0052
774,0.0915,0.0052,0.0983,0.0620,0.0051,0.0064,0.0109,0.0047
775,0.0799,0.0046,0.0834,0.0607,0.0034,0.0071,0.0100,0.0049
776,0.0627,0.0047,0.0665,0.0516,0.0029,0.0077,0.0101,0.0049
777,0.1158,0.0056,0.1297,0.0682,0.0036,0.0082,0.0089,0.0049
778,0.0594,0.0049,0.0646,0.0469,0.0034,0.0062,0.0102,0.0048
779,0.0256,0.0057,0.0322,0.0339,0.0104,0.0118,0.0102,0.0059
780,0.0448,0.0079,0.0420,0.0183,0.0052,0.0135,0.0109,0.0041
781,0.0536,0.0051,0.0595,0.0427,0.0042,0.0061,0.0110,0.0047
782,0.0735,0.0050,0.0768,0.0520,0.0098,0.0136,0.0101,0.0085
783,0.0847,0.0040,0.0871,0.0604,0.0060,0.0108,0.0092,0.0091
784,0.0913,0.0045,0.0922,0.0631,0.0035,0.0106,0.0077,0.0085
785,0.0759,0.0044,0.0763,0.0537,0.0038,0.0113,0.0076,0.0085
786,0.0622,0.0041,0.0640,0.0451,0.0052,0.0099,0.0086,0.0090
787,0.0517,0.0039,0.0553,0.0378,0.0063,0.0107,0.0093,0.0092
788,0.0678,0.0086,0.0725,0.0158,0.0030,0.0094,0.0165,0.0066
789,0.0935,0.0055,0.0984,0.0186,0.0022,0.0084,0.0061,0.0056
790,0.1308,0.0056,0.1436,0.0759,0.0053,0.0078,0.0098,0.0051
791,0.0484,0.0080,0.0446,0.0198,0.0064,0.0127,0.0121,0.0043
792,0.0856,0.0045,0.0907,0.0235,0.0020,0.0090,0.0070,0.0035
793,0.0686,0.0044,0.0734,0.0243,0.0021,0.0095,0.0081,0.0034
794,0.0650,0.0050,0.0697,0.0210,0.0024,0.0083,0.0046,0.0046
795,0.0567,0.0060,0.0621,0.0186,0.0027,0.0084,0.0074,0.0059
796,0.0781,0.0057,0.0870,0.0517,0.0062,0.0085,0.0119,0.0052
797,0.0965,0.0054,0.1022,0.0544,0.0045,0.0076,0.0089,0.0049
798,0.0897,0.0055,0.0922,0.0520,0.0030,0.0090,0.0079,0.0049
799,0.0735,0.0056,0.0753,0.0436,0.0026,0.0095,0.0079,0.0048
800,0.0683,0.0054,0.0713,0.0398,0.0029,0.0077,0.0081,0.0048
801,0.0603,0.0054,0.0643,0.0362,0.0037,0.0073,0.0089,0.0049
802,0.0261,0.0046,0.0259,0.0208,0.0263,0.0139,0.0123,0.0123
803,0.0587,0.0059,0.0767,0.0331,0.0088,0.0140,0.0114,0.0079
804,0.0769,0.0053,0.0794,0.0534,0.0090,0.0135,0.0108,0.0079
805,0.0843,0.0062,0.0858,0.0631,0.0056,0.0109,0.0076,0.0087
806,0.0915,0.0074,0.0914,0.0678,0.0033,0.0094,0.0065,0.0083
807,0.0776,0.0073,0.0761,0.0594,0.0036,0.0096,0.0064,0.0082
808,0.0635,0.0065,0.0630,0.0501,0.0048,0.0096,0.0069,0.0086
809,0.0529,0.0056,0.0543,0.0421,0.0058,0.0104,0.0075,0.0087
810,0.0539,0.0077,0.0608,0.0162,0.0040,0.0095,0.0207,0.0072
811,0.0791,0.0047,0.0851,0.0122,0.0031,0.0086,0.0085,0.0058
812,0.0741,0.0036,0.0800,0.0142,0.0026,0.0101,0.0064,0.0033
813,0.0252,0.0051,0.0251,0.0223,0.0153,0.0113,0.0101,0.0066
814,0.0587,0.0036,0.0641,0.0148,0.0026,0.0106,0.0076,0.0031
815,0.0572,0.0058,0.0759,0.0315,0.0053,0.0105,0.0076,0.0088
816,0.0546,0.0041,0.0598,0.0126,0.0031,0.0089,0.0054,0.0046
817,0.0469,0.0051,0.0539,0.0123,0.0035,0.0083,0.0101,0.0062
818,0.0566,0.0068,0.0674,0.0413,0.0059,0.0094,0.0103,0.0055
819,0.0762,0.0061,0.0847,0.0404,0.0042,0.0076,0.0077,0.0054
820,0.0732,0.0060,0.0790,0.0359,0.0029,0.0077,0.0077,0.0061
821,0.0587,0.0060,0.0633,0.0287,0.0025,0.0079,0.0077,0.0062
822,0.0528,0.0060,0.0581,0.0267,0.0028,0.0073,0.0074,0.0054
823,0.0462,0.0063,0.0523,0.0249,0.0036,0.0074,0.0075,0.0052
824,0.0238,0.0041,0.0227,0.0190,0.0070,0.0094,0.0089,0.0043
825,0.0876,0.0068,0.0943,0.0544,0.0103,0.0135,0.0104,0.0097
826,0.1015,0.0048,0.1080,0.0604,0.0063,0.0097,0.0094,0.0105
827,0.0558,0.0069,0.0754,0.0313,0.0032,0.0091,0.0060,0.0084
828,0.1053,0.0043,0.1107,0.0600,0.0036,0.0108,0.0077,0.0103
829,0.0876,0.0044,0.0931,0.0492,0.0039,0.0118,0.0076,0.0103
830,0.0742,0.0047,0.0809,0.0417,0.0052,0.0090,0.0087,0.0105
831,0.0613,0.0054,0.0687,0.0351,0.0064,0.0098,0.0094,0.0105
832,0.0827,0.0091,0.0883,0.0183,0.0024,0.0098,0.0098,0.0033
833,0.1091,0.0054,0.1164,0.0210,0.0022,0.0086,0.0048,0.0036
834,0.0963,0.0049,0.1050,0.0237,0.0024,0.0084,0.0085,0.0030
835,0.0227,0.0039,0.0240,0.0171,0.0065,0.0092,0.0089,0.0043
836,0.0755,0.0049,0.0845,0.0241,0.0026,0.0089,0.0093,0.0029
837,0.0724,0.0050,0.0810,0.0224,0.0026,0.0082,0.0059,0.0034
838,0.0622,0.0060,0.0705,0.0212,0.0027,0.0088,0.0051,0.0037
839,0.0684,0.0069,0.0923,0.0339,0.0033,0.0094,0.0059,0.0083
840,0.0840,0.0055,0.0946,0.0614,0.0066,0.0082,0.0132,0.0077
841,0.0982,0.0050,0.1049,0.0664,0.0049,0.0070,0.0104,0.0048
842,0.0853,0.0047,0.0888,0.0651,0.0034,0.0082,0.0097,0.0045
843,0.0666,0.0048,0.0702,0.0555,0.0028,0.0088,0.0097,0.0045
844,0.0631,0.0048,0.0684,0.0504,0.0034,0.0069,0.0097,0.0046
845,0.0558,0.0049,0.0621,0.0453,0.0041,0.0065,0.0104,0.0050
846,0.0235,0.0041,0.0250,0.0175,0.0114,0.0104,0.0099,0.0046
847,0.0733,0.0044,0.0767,0.0524,0.0095,0.0140,0.0104,0.0066
848,0.0854,0.0037,0.0880,0.0611,0.0059,0.0104,0.0093,0.0071
849,0.0925,0.0044,0.0936,0.0640,0.0034,0.0105,0.0074,0.0070
850,0.0771,0.0043,0.0777,0.0545,0.0038,0.0113,0.0073,0.0070
851,0.1093,0.0057,0.1079,0.0703,0.0044,0.0095,0.0082,0.0124
852,0.0841,0.0061,0.1093,0.0409,0.0040,0.0091,0.0066,0.0087
853,0.0631,0.0038,0.0649,0.0458,0.0051,0.0092,0.0084,0.0071
854,0.0522,0.0036,0.0557,0.0383,0.0061,0.0102,0.0092,0.0071
855,0.0735,0.0099,0.0778,0.0153,0.0026,0.0089,0.0134,0.0043
856,0.1019,0.0063,0.1070,0.0182,0.0021,0.0080,0.0049,0.0042
857,0.0253,0.0042,0.0268,0.0189,0.0157,0.0113,0.0109,0.0074
858,0.0941,0.0050,0.0997,0.0226,0.0020,0.0090,0.0084,0.0036
859,0.0760,0.0050,0.0809,0.0233,0.0022,0.0096,0.0095,0.0036
860,0.0718,0.0056,0.0762,0.0203,0.0024,0.0079,0.0052,0.0038
861,0.0614,0.0068,0.0660,0.0182,0.0026,0.0080,0.0057,0.0044
862,0.0842,0.0067,0.0931,0.0554,0.0059,0.0090,0.0114,0.0073
863,0.1030,0.0062,0.1086,0.0585,0.0043,0.0081,0.0084,0.0059
864,0.1019,0.0055,0.1284,0.0505,0.0042,0.0099,0.0073,0.0088
865,0.0952,0.0063,0.0978,0.0561,0.0030,0.0099,0.0074,0.0059
866,0.0780,0.0064,0.0797,0.0472,0.0027,0.0104,0.0074,0.0058
867,0.0727,0.0062,0.0754,0.0431,0.0030,0.0084,0.0075,0.0057
868,0.0390,0.0115,0.0418,0.0135,0.0100,0.0111,0.0055,0.0091
869,0.0635,0.0063,0.0672,0.0387,0.0036,0.0077,0.0083,0.0059
870,0.0761,0.0044,0.0786,0.0536,0.0088,0.0138,0.0104,0.0063
871,0.0848,0.0059,0.0864,0.0636,0.0054,0.0108,0.0076,0.0066
872,0.0929,0.0072,0.0929,0.0686,0.0033,0.0091,0.0063,0.0066
873,0.0790,0.0071,0.0775,0.0602,0.0036,0.0095,0.0062,0.0066
874,0.0644,0.0063,0.0638,0.0507,0.0048,0.0092,0.0068,0.0067
875,0.0534,0.0052,0.0546,0.0426,0.0058,0.0102,0.0073,0.0066
876,0.1054,0.0080,0.1281,0.0152,0.0038,0.0096,0.0207,0.0075
877,0.0580,0.0088,0.0640,0.0154,0.0037,0.0089,0.0175,0.0047
878,0.0857,0.0052,0.0915,0.0115,0.0029,0.0082,0.0065,0.0042
879,0.0307,0.0069,0.0321,0.0158,0.0060,0.0114,0.0087,0.0037
880,0.0807,0.0039,0.0867,0.0134,0.0025,0.0103,0.0077,0.0034
881,0.0644,0.0038,0.0693,0.0140,0.0026,0.0109,0.0089,0.0034
882,0.0597,0.0045,0.0641,0.0118,0.0030,0.0087,0.0050,0.0037
883,0.0499,0.0058,0.0554,0.0115,0.0034,0.0079,0.0079,0.0045
884,0.0611,0.0080,0.0719,0.0444,0.0055,0.0099,0.0102,0.0079
885,0.0820,0.0071,0.0905,0.0437,0.0040,0.0080,0.0076,0.0074
886,0.0782,0.0068,0.0840,0.0392,0.0029,0.0084,0.0071,0.0083
887,0.0625,0.0068,0.0669,0.0313,0.0027,0.0087,0.0071,0.0084
888,0.0889,0.0049,0.1113,0.0124,0.0030,0.0084,0.0085,0.0060
889,0.0561,0.0070,0.0609,0.0289,0.0028,0.0077,0.0070,0.0076
890,0.0282,0.0060,0.0356,0.0402,0.0145,0.0125,0.0114,0.0091
891,0.1032,0.0051,0.1013,0.0221,0.0023,0.0074,0.0078,0.0041
892,0.0473,0.0073,0.0529,0.0264,0.0034,0.0077,0.0072,0.0072
893,0.0877,0.0070,0.0935,0.0530,0.0101,0.0118,0.0103,0.0079
894,0.1024,0.0048,0.1087,0.0606,0.0061,0.0089,0.0094,0.0092
895,0.1063,0.0043,0.1121,0.0605,0.0035,0.0101,0.0082,0.0097
896,0.0884,0.0043,0.0944,0.0497,0.0038,0.0109,0.0080,0.0097
897,0.0752,0.0046,0.0821,0.0422,0.0052,0.0087,0.0089,0.0095
898,0.0621,0.0053,0.0694,0.0353,0.0063,0.0087,0.0093,0.0091
899,0.0829,0.0142,0.0883,0.0166,0.0027,0.0115,0.0109,0.0032
900,0.1118,0.0072,0.1196,0.0187,0.0023,0.0094,0.0046,0.0039
901,0.0938,0.0038,0.1170,0.0151,0.0024,0.0099,0.0063,0.0035
902,0.0300,0.0068,0.0316,0.0115,0.0028,0.0101,0.0093,0.0034
903,0.0999,0.0051,0.1096,0.0210,0.0022,0.0075,0.0080,0.0039
904,0.0792,0.0051,0.0891,0.0214,0.0023,0.0079,0.0089,0.0039
905,0.0761,0.0058,0.0852,0.0199,0.0027,0.0086,0.0055,0.0042
906,0.0654,0.0080,0.0739,0.0188,0.0028,0.0096,0.0052,0.0042
907,0.0769,0.0056,0.0883,0.0599,0.0065,0.0095,0.0108,0.0077
908,0.0960,0.0052,0.1037,0.0664,0.0049,0.0077,0.0080,0.0046
909,0.0859,0.0048,0.0902,0.0664,0.0034,0.0069,0.0067,0.0049
910,0.0673,0.0049,0.0715,0.0571,0.0029,0.0072,0.0066,0.0050
911,0.0627,0.0051,0.0686,0.0513,0.0034,0.0069,0.0067,0.0047
912,0.0546,0.0052,0.0613,0.0460,0.0040,0.0072,0.0073,0.0049
913,0.0335,0.0068,0.0354,0.0106,0.0036,0.0100,0.0094,0.0037
914,0.1117,0.0037,0.1373,0.0157,0.0023,0.0104,0.0075,0.0032
915,0.0758,0.0046,0.0781,0.0517,0.0092,0.0127,0.0103,0.0055
916,0.0872,0.0035,0.0894,0.0616,0.0057,0.0095,0.0093,0.0057
917,0.0935,0.0040,0.0947,0.0645,0.0034,0.0102,0.0080,0.0061
918,0.0778,0.0039,0.0785,0.0550,0.0038,0.0108,0.0079,0.0061
919,0.0642,0.0036,0.0659,0.0463,0.0050,0.0091,0.0088,0.0058
920,0.0532,0.0035,0.0566,0.0385,0.0060,0.0092,0.0091,0.0055
921,0.0724,0.0153,0.0763,0.0146,0.0024,0.0111,0.0147,0.0041
922,0.1020,0.0085,0.1072,0.0160,0.0021,0.0086,0.0049,0.0045
923,0.0950,0.0055,0.1011,0.0199,0.0020,0.0075,0.0080,0.0042
924,0.0364,0.0066,0.0387,0.0145,0.0060,0.0102,0.0076,0.0032
925,0.0773,0.0054,0.0828,0.0205,0.0022,0.0079,0.0091,0.0041
926,0.1189,0.0043,0.1460,0.0132,0.0027,0.0087,0.0055,0.0049
927,0.0732,0.0068,0.0778,0.0178,0.0025,0.0078,0.0049,0.0045
928,0.0629,0.0092,0.0675,0.0160,0.0026,0.0088,0.0061,0.0048
929,0.0771,0.0075,0.0865,0.0536,0.0059,0.0099,0.0101,0.0077
930,0.1004,0.0067,0.1071,0.0580,0.0043,0.0077,0.0076,0.0059
931,0.0955,0.0066,0.0989,0.0569,0.0029,0.0076,0.0061,0.0056
932,0.0784,0.0067,0.0808,0.0483,0.0025,0.0080,0.0060,0.0055
933,0.0720,0.0066,0.0754,0.0436,0.0028,0.0071,0.0063,0.0056
934,0.0620,0.0068,0.0661,0.0391,0.0035,0.0073,0.0068,0.0059
935,0.0433,0.0070,0.0465,0.0147,0.0083,0.0109,0.0074,0.0043
936,0.0803,0.0040,0.0815,0.0534,0.0085,0.0141,0.0109,0.0055
937,0.0871,0.0053,0.0880,0.0642,0.0053,0.0098,0.0079,0.0053
938,0.1354,0.0053,0.1642,0.0125,0.0032,0.0082,0.0102,0.0065
939,0.0938,0.0066,0.0936,0.0691,0.0032,0.0089,0.0071,0.0058
940,0.0795,0.0066,0.0780,0.0606,0.0036,0.0092,0.0070,0.0058
941,0.0655,0.0058,0.0646,0.0512,0.0047,0.0088,0.0073,0.0055
942,0.0545,0.0047,0.0554,0.0429,0.0057,0.0093,0.0075,0.0051
943,0.0551,0.0145,0.0609,0.0177,0.0032,0.0099,0.0190,0.0042
944,0.0825,0.0078,0.0883,0.0115,0.0029,0.0075,0.0068,0.0045
945,0.0786,0.0044,0.0849,0.0112,0.0028,0.0081,0.0072,0.0039
946,0.0382,0.0069,0.0390,0.0195,0.0070,0.0117,0.0133,0.0094
947,0.0632,0.0042,0.0684,0.0116,0.0029,0.0086,0.0084,0.0039
948,0.0587,0.0059,0.0632,0.0105,0.0031,0.0073,0.0049,0.0044
949,0.0500,0.0084,0.0556,0.0115,0.0034,0.0074,0.0084,0.0049
950,0.1022,0.0072,0.1168,0.0500,0.0060,0.0099,0.0114,0.0055
951,0.0535,0.0093,0.0644,0.0424,0.0054,0.0108,0.0108,0.0085
952,0.0782,0.0079,0.0876,0.0427,0.0039,0.0079,0.0098,0.0076
953,0.0774,0.0073,0.0841,0.0393,0.0027,0.0071,0.0095,0.0079
954,0.0620,0.0073,0.0669,0.0318,0.0024,0.0073,0.0094,0.0079
955,0.0544,0.0075,0.0598,0.0291,0.0027,0.0072,0.0094,0.0075
956,0.0455,0.0080,0.0511,0.0266,0.0034,0.0075,0.0090,0.0074
957,0.0350,0.0057,0.0361,0.0258,0.0072,0.0111,0.0104,0.0041
958,0.0778,0.0054,0.0741,0.0389,0.0191,0.0147,0.0148,0.0124
959,0.0656,0.0046,0.0634,0.0360,0.0112,0.0106,0.0124,0.0084
960,0.0697,0.0048,0.0690,0.0371,0.0054,0.0092,0.0123,0.0057
961,0.0864,0.0050,0.0867,0.0456,0.0054,0.0095,0.0122,0.0057
962,0.0907,0.0063,0.1080,0.0516,0.0044,0.0079,0.0082,0.0054
963,0.0964,0.0049,0.0950,0.0522,0.0087,0.0099,0.0125,0.0067
964,0.1095,0.0050,0.1066,0.0598,0.0116,0.0109,0.0130,0.0093
965,0.0822,0.0047,0.0817,0.0075,0.0048,0.0100,0.0071,0.0038
966,0.0741,0.0055,0.0725,0.0082,0.0027,0.0095,0.0068,0.0033
967,0.0814,0.0047,0.0789,0.0066,0.0024,0.0086,0.0066,0.0042
968,0.0344,0.0057,0.0360,0.0183,0.0046,0.0114,0.0098,0.0040
969,0.1000,0.0046,0.0971,0.0067,0.0030,0.0088,0.0070,0.0046
970,0.1080,0.0055,0.1061,0.0072,0.0039,0.0088,0.0071,0.0033
971,0.1182,0.0057,0.1172,0.0080,0.0050,0.0086,0.0071,0.0034
972,0.0942,0.0086,0.0919,0.0629,0.0086,0.0110,0.0195,0.0052
973,0.0908,0.0081,0.0900,0.0555,0.0068,0.0089,0.0119,0.0045
974,0.1282,0.0067,0.1269,0.0788,0.0049,0.0100,0.0090,0.0128
975,0.0940,0.0060,0.1134,0.0556,0.0031,0.0080,0.0078,0.0061
976,0.1066,0.0065,0.1072,0.0607,0.0044,0.0084,0.0084,0.0048
977,0.1282,0.0066,0.1294,0.0727,0.0034,0.0087,0.0082,0.0052
978,0.1294,0.0072,0.1300,0.0763,0.0041,0.0080,0.0104,0.0041
979,0.0371,0.0057,0.0382,0.0191,0.0037,0.0114,0.0095,0.0045
980,0.1324,0.0080,0.1318,0.0845,0.0049,0.0088,0.0145,0.0045
981,0.0705,0.0063,0.0752,0.0360,0.0175,0.0162,0.0134,0.0100
982,0.0583,0.0042,0.0639,0.0303,0.0102,0.0112,0.0114,0.0072
983,0.0629,0.0042,0.0714,0.0302,0.0049,0.0095,0.0105,0.0045
984,0.0786,0.0042,0.0897,0.0382,0.0050,0.0100,0.0104,0.0045
985,0.0851,0.0043,0.0946,0.0462,0.0080,0.0100,0.0112,0.0055
986,0.0963,0.0047,0.1049,0.0554,0.0108,0.0113,0.0118,0.0079
987,0.1096,0.0060,0.1313,0.0653,0.0027,0.0082,0.0078,0.0061
988,0.0795,0.0045,0.0903,0.0092,0.0054,0.0106,0.0057,0.0041
989,0.0682,0.0041,0.0779,0.0116,0.0031,0.0098,0.0050,0.0036
990,0.0450,0.0056,0.0451,0.0188,0.0047,0.0108,0.0101,0.0038
991,0.0754,0.0040,0.0855,0.0088,0.0022,0.0091,0.0051,0.0045
992,0.0921,0.0040,0.1035,0.0083,0.0028,0.0091,0.0056,0.0048
993,0.0991,0.0042,0.1116,0.0108,0.0038,0.0090,0.0052,0.0037
994,0.1084,0.0042,0.1221,0.0114,0.0051,0.0090,0.0052,0.0038
995,0.0889,0.0063,0.0953,0.0500,0.0079,0.0103,0.0198,0.0046
996,0.0790,0.0061,0.0872,0.0437,0.0065,0.0088,0.0118,0.0042
997,0.0913,0.0056,0.1013,0.0493,0.0042,0.0084,0.0090,0.0049
998,0.1107,0.0058,0.1223,0.0605,0.0033,0.0085,0.0089,0.0052
999,0.1187,0.0062,0.1404,0.0697,0.0035,0.0075,0.0076,0.0054
1000,0.1143,0.0057,0.1262,0.0620,0.0040,0.0081,0.0107,0.0041
1001,0.0695,0.0108,0.0793,0.0134,0.0098,0.0154,0.0053,0.0089
1002,0.0475,0.0056,0.0473,0.0198,0.0059,0.0112,0.0123,0.0046
1003,0.1207,0.0060,0.1323,0.0687,0.0048,0.0092,0.0146,0.0042
1004,0.0517,0.0074,0.0602,0.0317,0.0161,0.0206,0.0149,0.0104
1005,0.0445,0.0052,0.0522,0.0232,0.0094,0.0128,0.0100,0.0096
1006,0.0458,0.0058,0.0570,0.0220,0.0048,0.0110,0.0083,0.0073
1007,0.0576,0.0057,0.0738,0.0277,0.0048,0.0116,0.0084,0.0071
1008,0.0604,0.0053,0.0753,0.0365,0.0074,0.0114,0.0094,0.0085
1009,0.0698,0.0054,0.0848,0.0472,0.0100,0.0131,0.0107,0.0101
1010,0.0788,0.0063,0.0935,0.0110,0.0065,0.0143,0.0057,0.0040
1011,0.0695,0.0053,0.0836,0.0122,0.0043,0.0113,0.0046,0.0041
1012,0.1341,0.0065,0.1556,0.0754,0.0050,0.0077,0.0079,0.0053
1013,0.1247,0.0051,0.1223,0.0223,0.0024,0.0078,0.0087,0.0041
1014,0.0796,0.0052,0.0953,0.0110,0.0028,0.0105,0.0055,0.0051
1015,0.0955,0.0052,0.1138,0.0107,0.0031,0.0105,0.0061,0.0054
1016,0.0977,0.0052,0.1171,0.0119,0.0045,0.0104,0.0049,0.0043
1017,0.1029,0.0054,0.1237,0.0120,0.0057,0.0111,0.0046,0.0043
1018,0.1027,0.0069,0.1128,0.0456,0.0077,0.0115,0.0207,0.0040
1019,0.0899,0.0059,0.1023,0.0400,0.0068,0.0092,0.0113,0.0035
1020,0.1017,0.0061,0.1158,0.0459,0.0045,0.0090,0.0100,0.0041
1021,0.1196,0.0063,0.1361,0.0564,0.0034,0.0088,0.0098,0.0043
1022,0.1228,0.0059,0.1403,0.0565,0.0045,0.0085,0.0104,0.0034
1023,0.1297,0.0060,0.1476,0.0623,0.0056,0.0096,0.0137,0.0036
1024,0.0324,0.0061,0.0348,0.0219,0.0246,0.0141,0.0125,0.0131
1025,0.0813,0.0083,0.0785,0.0545,0.0101,0.0133,0.0103,0.0099
1026,0.0781,0.0053,0.0743,0.0384,0.0186,0.0152,0.0153,0.0088
1027,0.0646,0.0045,0.0620,0.0358,0.0109,0.0108,0.0130,0.0065
1028,0.0682,0.0047,0.0668,0.0370,0.0053,0.0087,0.0129,0.0053
1029,0.0846,0.0049,0.0840,0.0454,0.0052,0.0089,0.0128,0.0053
1030,0.0953,0.0048,0.0931,0.0518,0.0084,0.0096,0.0130,0.0055
1031,0.1090,0.0050,0.1055,0.0591,0.0113,0.0107,0.0133,0.0070
1032,0.0688,0.0052,0.0676,0.0077,0.0043,0.0108,0.0075,0.0036
1033,0.0632,0.0060,0.0612,0.0076,0.0025,0.0101,0.0068,0.0034
1034,0.0673,0.0052,0.0643,0.0077,0.0025,0.0090,0.0068,0.0032
1035,0.0449,0.0055,0.0482,0.0261,0.0143,0.0129,0.0099,0.0084
1036,0.0827,0.0051,0.0788,0.0082,0.0031,0.0091,0.0072,0.0036
1037,0.0774,0.0057,0.0746,0.0536,0.0060,0.0094,0.0088,0.0107
1038,0.0893,0.0060,0.0865,0.0068,0.0039,0.0092,0.0071,0.0031
1039,0.0983,0.0063,0.0967,0.0074,0.0050,0.0093,0.0070,0.0034
1040,0.0843,0.0082,0.0824,0.0607,0.0087,0.0112,0.0186,0.0083
1041,0.0824,0.0076,0.0815,0.0526,0.0067,0.0095,0.0126,0.0066
1042,0.0954,0.0061,0.0959,0.0568,0.0045,0.0098,0.0090,0.0040
1043,0.1156,0.0062,0.1168,0.0684,0.0036,0.0100,0.0088,0.0041
1044,0.1167,0.0068,0.1175,0.0726,0.0041,0.0088,0.0111,0.0053
1045,0.1189,0.0076,0.1187,0.0815,0.0049,0.0091,0.0149,0.0068
1046,0.0420,0.0053,0.0414,0.0255,0.0065,0.0112,0.0087,0.0050
1047,0.0727,0.0062,0.0774,0.0363,0.0170,0.0166,0.0141,0.0065
1048,0.0587,0.0039,0.0642,0.0305,0.0099,0.0116,0.0124,0.0050
1049,0.0778,0.0049,0.0754,0.0546,0.0035,0.0112,0.0070,0.0105
1050,0.0630,0.0038,0.0712,0.0306,0.0048,0.0091,0.0111,0.0039
1051,0.0786,0.0039,0.0892,0.0386,0.0049,0.0095,0.0108,0.0039
1052,0.0861,0.0040,0.0951,0.0466,0.0079,0.0097,0.0119,0.0041
1053,0.0980,0.0045,0.1062,0.0557,0.0106,0.0113,0.0125,0.0054
1054,0.0668,0.0045,0.0772,0.0083,0.0046,0.0106,0.0057,0.0040
1055,0.0573,0.0044,0.0657,0.0103,0.0027,0.0099,0.0052,0.0037
1056,0.0618,0.0043,0.0707,0.0075,0.0023,0.0091,0.0057,0.0037
1057,0.0385,0.0052,0.0369,0.0221,0.0061,0.0105,0.0087,0.0049
1058,0.0760,0.0042,0.0862,0.0072,0.0029,0.0091,0.0062,0.0039
1059,0.0823,0.0045,0.0939,0.0093,0.0037,0.0090,0.0055,0.0035
1060,0.0911,0.0045,0.1043,0.0102,0.0048,0.0090,0.0052,0.0037
1061,0.0930,0.0049,0.0915,0.0624,0.0036,0.0121,0.0069,0.0105
1062,0.0776,0.0062,0.0842,0.0474,0.0078,0.0112,0.0184,0.0063
1063,0.0704,0.0059,0.0780,0.0410,0.0063,0.0096,0.0123,0.0056
1064,0.0806,0.0055,0.0901,0.0457,0.0042,0.0097,0.0096,0.0041
1065,0.0986,0.0057,0.1099,0.0566,0.0035,0.0099,0.0096,0.0041
1066,0.1018,0.0056,0.1136,0.0585,0.0039,0.0090,0.0114,0.0048
1067,0.1073,0.0058,0.1191,0.0656,0.0046,0.0097,0.0147,0.0055
1068,0.0375,0.0052,0.0373,0.0210,0.0106,0.0122,0.0096,0.0060
1069,0.0545,0.0069,0.0631,0.0329,0.0157,0.0188,0.0138,0.0071
1070,0.0450,0.0045,0.0531,0.0239,0.0092,0.0124,0.0101,0.0072
1071,0.0469,0.0051,0.0584,0.0226,0.0047,0.0105,0.0083,0.0059
1072,0.0591,0.0050,0.0751,0.0286,0.0047,0.0111,0.0083,0.0059
1073,0.1072,0.0054,0.1053,0.0694,0.0044,0.0088,0.0079,0.0107
1074,0.0627,0.0046,0.0775,0.0376,0.0073,0.0104,0.0093,0.0065
1075,0.0729,0.0047,0.0877,0.0484,0.0097,0.0119,0.0105,0.0075
1076,0.0676,0.0054,0.0821,0.0103,0.0058,0.0137,0.0052,0.0036
1077,0.0591,0.0048,0.0719,0.0112,0.0037,0.0113,0.0051,0.0032
1078,0.0660,0.0048,0.0805,0.0099,0.0026,0.0106,0.0065,0.0039
1079,0.0361,0.0053,0.0366,0.0216,0.0147,0.0124,0.0107,0.0091
1080,0.0801,0.0048,0.0972,0.0098,0.0030,0.0107,0.0070,0.0043
1081,0.0825,0.0047,0.1009,0.0107,0.0042,0.0105,0.0056,0.0032
1082,0.0878,0.0048,0.1080,0.0110,0.0054,0.0109,0.0049,0.0033
1083,0.0916,0.0070,0.1020,0.0427,0.0075,0.0124,0.0189,0.0053
1084,0.0805,0.0057,0.0925,0.0373,0.0062,0.0097,0.0116,0.0047
1085,0.1263,0.0064,0.1245,0.0778,0.0046,0.0093,0.0088,0.0108
1086,0.0913,0.0059,0.1049,0.0425,0.0042,0.0088,0.0098,0.0034
1087,0.1083,0.0062,0.1244,0.0529,0.0032,0.0086,0.0096,0.0034
1088,0.1113,0.0057,0.1286,0.0532,0.0041,0.0086,0.0107,0.0041
1089,0.1175,0.0058,0.1354,0.0592,0.0050,0.0100,0.0137,0.0047
1090,0.0417,0.0104,0.0437,0.0140,0.0105,0.0140,0.0053,0.0080
1091,0.0899,0.0051,0.0897,0.0382,0.0181,0.0197,0.0171,0.0076
1092,0.0651,0.0045,0.0627,0.0353,0.0106,0.0116,0.0131,0.0069
1093,0.0681,0.0047,0.0664,0.0363,0.0050,0.0088,0.0138,0.0049
1094,0.0850,0.0049,0.0840,0.0444,0.0051,0.0089,0.0138,0.0048
1095,0.0966,0.0046,0.0945,0.0491,0.0083,0.0102,0.0132,0.0055
1096,0.1141,0.0047,0.1118,0.0561,0.0111,0.0125,0.0134,0.0071
1097,0.1209,0.0082,0.1225,0.0195,0.0024,0.0107,0.0125,0.0055
1098,0.1117,0.0095,0.1128,0.0197,0.0023,0.0099,0.0098,0.0034
1099,0.0640,0.0136,0.0622,0.0095,0.0047,0.0150,0.0086,0.0061
1100,0.0591,0.0103,0.0567,0.0076,0.0027,0.0113,0.0078,0.0036
1101,0.0318,0.0052,0.0317,0.0148,0.0066,0.0122,0.0063,0.0043
1102,0.0648,0.0066,0.0612,0.0099,0.0023,0.0098,0.0066,0.0038
1103,0.0816,0.0063,0.0771,0.0106,0.0029,0.0101,0.0070,0.0046
1104,0.0870,0.0088,0.0841,0.0077,0.0040,0.0101,0.0079,0.0030
1105,0.0933,0.0108,0.0917,0.0073,0.0052,0.0105,0.0090,0.0037
1106,0.0837,0.0074,0.0810,0.0623,0.0088,0.0133,0.0159,0.0077
1107,0.0775,0.0074,0.0762,0.0515,0.0066,0.0104,0.0103,0.0058
1108,0.0902,0.0058,0.0904,0.0550,0.0042,0.0086,0.0081,0.0043
1109,0.1109,0.0060,0.1119,0.0666,0.0033,0.0086,0.0077,0.0049
1110,0.1012,0.0056,0.1011,0.0223,0.0024,0.0086,0.0047,0.0038
1111,0.1123,0.0067,0.1127,0.0718,0.0040,0.0088,0.0087,0.0047
1112,0.1494,0.0047,0.1497,0.0242,0.0024,0.0084,0.0050,0.0046
1113,0.0592,0.0055,0.0662,0.0141,0.0058,0.0125,0.0055,0.0048
1114,0.0317,0.0044,0.0317,0.0121,0.0031,0.0105,0.0065,0.0044
1115,0.1163,0.0074,0.1154,0.0821,0.0047,0.0097,0.0113,0.0060
1116,0.0820,0.0055,0.0907,0.0350,0.0165,0.0215,0.0151,0.0057
1117,0.0585,0.0039,0.0644,0.0295,0.0096,0.0123,0.0122,0.0054
1118,0.0623,0.0037,0.0701,0.0298,0.0046,0.0098,0.0119,0.0035
1119,0.0778,0.0038,0.0881,0.0370,0.0048,0.0101,0.0117,0.0034
1120,0.0844,0.0039,0.0935,0.0425,0.0078,0.0108,0.0120,0.0040
1121,0.0995,0.0043,0.1090,0.0509,0.0103,0.0129,0.0122,0.0054
1122,0.0639,0.0117,0.0735,0.0075,0.0040,0.0144,0.0066,0.0057
1123,0.0543,0.0080,0.0622,0.0080,0.0025,0.0105,0.0050,0.0039
1124,0.1094,0.0048,0.1085,0.0247,0.0027,0.0082,0.0083,0.0032
1125,0.0341,0.0043,0.0349,0.0115,0.0036,0.0100,0.0068,0.0048
1126,0.0603,0.0051,0.0687,0.0065,0.0022,0.0085,0.0050,0.0042
1127,0.0757,0.0049,0.0853,0.0065,0.0028,0.0085,0.0056,0.0048
1128,0.0811,0.0067,0.0923,0.0071,0.0038,0.0091,0.0051,0.0036
1129,0.0877,0.0085,0.1005,0.0077,0.0047,0.0096,0.0058,0.0039
1130,0.0802,0.0069,0.0856,0.0490,0.0078,0.0140,0.0160,0.0061
1131,0.0665,0.0058,0.0735,0.0398,0.0061,0.0107,0.0103,0.0051
1132,0.0763,0.0054,0.0853,0.0440,0.0040,0.0087,0.0083,0.0043
1133,0.0950,0.0056,0.1058,0.0550,0.0032,0.0087,0.0081,0.0047
1134,0.0985,0.0056,0.1096,0.0577,0.0037,0.0091,0.0090,0.0044
1135,0.1058,0.0058,0.1166,0.0663,0.0044,0.0105,0.0115,0.0051
1136,0.1306,0.0059,0.1291,0.0209,0.0025,0.0086,0.0055,0.0043
1137,0.1310,0.0048,0.1296,0.0250,0.0027,0.0087,0.0091,0.0031
1138,0.0559,0.0061,0.0674,0.0303,0.0152,0.0270,0.0166,0.0064
1139,0.0477,0.0043,0.0549,0.0235,0.0089,0.0150,0.0106,0.0075
1140,0.0467,0.0043,0.0572,0.0226,0.0046,0.0121,0.0086,0.0061
1141,0.0572,0.0042,0.0726,0.0269,0.0047,0.0124,0.0085,0.0060
1142,0.0582,0.0042,0.0726,0.0326,0.0073,0.0130,0.0095,0.0064
1143,0.0691,0.0044,0.0848,0.0423,0.0096,0.0156,0.0108,0.0072
1144,0.0658,0.0104,0.0791,0.0102,0.0046,0.0158,0.0060,0.0050
1145,0.0562,0.0063,0.0685,0.0096,0.0031,0.0110,0.0042,0.0034
1146,0.0649,0.0045,0.0788,0.0090,0.0026,0.0092,0.0059,0.0047
1147,0.0356,0.0045,0.0370,0.0138,0.0062,0.0105,0.0056,0.0041
1148,0.0799,0.0044,0.0963,0.0090,0.0030,0.0092,0.0065,0.0054
1149,0.1370,0.0051,0.1362,0.0235,0.0025,0.0081,0.0058,0.0036
1150,0.0814,0.0054,0.0993,0.0092,0.0041,0.0096,0.0047,0.0036
1151,0.0850,0.0067,0.1044,0.0092,0.0050,0.0104,0.0044,0.0036
1152,0.0942,0.0090,0.1027,0.0444,0.0071,0.0166,0.0171,0.0055
1153,0.0765,0.0058,0.0876,0.0360,0.0061,0.0112,0.0108,0.0045
1154,0.0872,0.0058,0.1001,0.0408,0.0041,0.0093,0.0102,0.0036
1155,0.1048,0.0060,0.1201,0.0514,0.0032,0.0092,0.0099,0.0038
1156,0.1079,0.0057,0.1242,0.0525,0.0040,0.0095,0.0100,0.0038
1157,0.1156,0.0060,0.1323,0.0599,0.0048,0.0113,0.0116,0.0045
1158,0.0391,0.0054,0.0423,0.0137,0.0084,0.0120,0.0057,0.0048
1159,0.0234,0.0044,0.0269,0.0277,0.0193,0.0139,0.0141,0.0119
1160,0.0389,0.0042,0.0436,0.0335,0.0112,0.0107,0.0123,0.0081
1161,0.1529,0.0062,0.1529,0.0223,0.0028,0.0088,0.0052,0.0040
1162,0.0335,0.0042,0.0352,0.0307,0.0054,0.0093,0.0126,0.0056
1163,0.0215,0.0043,0.0240,0.0230,0.0054,0.0096,0.0125,0.0055
1164,0.0228,0.0042,0.0248,0.0211,0.0088,0.0101,0.0125,0.0065
1165,0.0313,0.0043,0.0307,0.0226,0.0119,0.0109,0.0127,0.0090
1166,0.0314,0.0047,0.0331,0.0072,0.0052,0.0100,0.0066,0.0036
1167,0.0397,0.0052,0.0426,0.0078,0.0031,0.0096,0.0062,0.0031
1168,0.0311,0.0046,0.0355,0.0065,0.0023,0.0086,0.0060,0.0041
1169,0.0488,0.0049,0.0474,0.0210,0.0065,0.0138,0.0138,0.0113
1170,0.0287,0.0045,0.0314,0.0065,0.0029,0.0088,0.0065,0.0045
1171,0.0315,0.0053,0.0336,0.0069,0.0041,0.0088,0.0064,0.0032
1172,0.0378,0.0055,0.0395,0.0077,0.0054,0.0086,0.0064,0.0033
1173,0.1035,0.0057,0.1011,0.0564,0.0069,0.0084,0.0145,0.0074
1174,0.0421,0.0088,0.0432,0.0233,0.0083,0.0103,0.0171,0.0054
1175,0.0489,0.0080,0.0483,0.0254,0.0067,0.0083,0.0106,0.0046
1176,0.0362,0.0063,0.0353,0.0229,0.0044,0.0077,0.0080,0.0047
1177,0.0436,0.0064,0.0439,0.0257,0.0033,0.0080,0.0079,0.0051
1178,0.0438,0.0071,0.0437,0.0278,0.0042,0.0073,0.0094,0.0040
1179,0.0451,0.0080,0.0442,0.0341,0.0049,0.0080,0.0131,0.0045
1180,0.0461,0.0042,0.0445,0.0232,0.0067,0.0124,0.0110,0.0038
1181,0.0227,0.0050,0.0266,0.0223,0.0176,0.0149,0.0127,0.0096
1182,0.0378,0.0040,0.0416,0.0287,0.0103,0.0111,0.0116,0.0069
1183,0.0307,0.0040,0.0312,0.0290,0.0049,0.0094,0.0111,0.0044
1184,0.0209,0.0039,0.0248,0.0223,0.0050,0.0098,0.0109,0.0044
1185,0.0987,0.0053,0.0986,0.0555,0.0052,0.0071,0.0114,0.0048
1186,0.0216,0.0039,0.0260,0.0203,0.0082,0.0100,0.0115,0.0054
1187,0.0277,0.0040,0.0316,0.0230,0.0110,0.0111,0.0118,0.0076
1188,0.0265,0.0047,0.0318,0.0090,0.0059,0.0102,0.0054,0.0039
1189,0.0324,0.0041,0.0354,0.0112,0.0036,0.0098,0.0047,0.0035
1190,0.0261,0.0041,0.0307,0.0088,0.0023,0.0089,0.0050,0.0043
1191,0.0472,0.0051,0.0458,0.0215,0.0045,0.0136,0.0107,0.0033
1192,0.0271,0.0041,0.0333,0.0083,0.0029,0.0089,0.0055,0.0046
1193,0.0300,0.0042,0.0372,0.0107,0.0041,0.0088,0.0049,0.0036
1194,0.0361,0.0043,0.0442,0.0111,0.0055,0.0087,0.0047,0.0036
1195,0.0332,0.0062,0.0360,0.0181,0.0078,0.0094,0.0171,0.0046
1196,0.0419,0.0059,0.0430,0.0246,0.0065,0.0083,0.0105,0.0042
1197,0.1075,0.0049,0.1089,0.0569,0.0036,0.0086,0.0106,0.0046
1198,0.0328,0.0054,0.0352,0.0191,0.0042,0.0077,0.0085,0.0048
1199,0.0379,0.0057,0.0428,0.0196,0.0032,0.0079,0.0083,0.0051
1200,0.0396,0.0055,0.0450,0.0201,0.0040,0.0074,0.0096,0.0040
1201,0.0437,0.0059,0.0490,0.0246,0.0048,0.0084,0.0130,0.0041
1202,0.0513,0.0051,0.0501,0.0268,0.0039,0.0136,0.0103,0.0038
1203,0.0289,0.0062,0.0324,0.0227,0.0163,0.0184,0.0138,0.0101
1204,0.0504,0.0053,0.0533,0.0300,0.0095,0.0116,0.0093,0.0095
1205,0.0413,0.0061,0.0396,0.0332,0.0047,0.0100,0.0079,0.0072
1206,0.0277,0.0059,0.0268,0.0265,0.0048,0.0105,0.0079,0.0070
1207,0.0261,0.0054,0.0264,0.0222,0.0075,0.0104,0.0088,0.0083
1208,0.0233,0.0050,0.0260,0.0235,0.0101,0.0119,0.0100,0.0099
1209,0.1282,0.0050,0.1303,0.0652,0.0030,0.0091,0.0105,0.0046
1210,0.0268,0.0066,0.0327,0.0110,0.0070,0.0137,0.0056,0.0037
1211,0.0308,0.0056,0.0353,0.0120,0.0048,0.0111,0.0046,0.0038
1212,0.0250,0.0055,0.0313,0.0110,0.0032,0.0101,0.0056,0.0048
1213,0.0581,0.0044,0.0565,0.0251,0.0047,0.0126,0.0109,0.0032
1214,0.0315,0.0056,0.0397,0.0108,0.0035,0.0101,0.0062,0.0052
1215,0.0317,0.0055,0.0409,0.0118,0.0050,0.0101,0.0049,0.0040
1216,0.0349,0.0057,0.0451,0.0119,0.0063,0.0106,0.0045,0.0040
1217,0.0426,0.0064,0.0461,0.0164,0.0077,0.0109,0.0179,0.0038
1218,0.0406,0.0057,0.0451,0.0229,0.0068,0.0094,0.0106,0.0034
1219,0.0402,0.0059,0.0454,0.0168,0.0046,0.0094,0.0102,0.0039
1220,0.0497,0.0062,0.0565,0.0181,0.0035,0.0093,0.0099,0.0042
1221,0.1099,0.0050,0.1104,0.0227,0.0023,0.0090,0.0051,0.0053
1222,0.1347,0.0051,0.1351,0.0716,0.0040,0.0070,0.0106,0.0047
1223,0.0515,0.0057,0.0592,0.0179,0.0046,0.0088,0.0100,0.0033
1224,0.0614,0.0046,0.0689,0.0117,0.0025,0.0108,0.0055,0.0048
1225,0.0577,0.0041,0.0567,0.0254,0.0059,0.0128,0.0130,0.0050
1226,0.0566,0.0057,0.0647,0.0216,0.0057,0.0095,0.0125,0.0035
1227,0.0231,0.0043,0.0263,0.0282,0.0187,0.0146,0.0144,0.0084
1228,0.0386,0.0040,0.0439,0.0340,0.0109,0.0111,0.0129,0.0062
1229,0.0345,0.0041,0.0370,0.0310,0.0052,0.0091,0.0133,0.0052
1230,0.0224,0.0042,0.0252,0.0233,0.0053,0.0091,0.0132,0.0052
1231,0.0234,0.0041,0.0253,0.0213,0.0086,0.0099,0.0131,0.0053
1232,0.0322,0.0042,0.0313,0.0224,0.0116,0.0109,0.0131,0.0067
1233,0.0392,0.0050,0.0397,0.0074,0.0046,0.0108,0.0073,0.0038
1234,0.0532,0.0057,0.0563,0.0072,0.0027,0.0102,0.0064,0.0034
1235,0.1480,0.0051,0.1465,0.0804,0.0056,0.0066,0.0114,0.0051
1236,0.0273,0.0069,0.0283,0.0227,0.0278,0.0183,0.0145,0.0088
1237,0.0406,0.0050,0.0463,0.0075,0.0024,0.0090,0.0064,0.0031
1238,0.0279,0.0049,0.0334,0.0079,0.0030,0.0092,0.0067,0.0035
1239,0.0261,0.0057,0.0305,0.0065,0.0041,0.0093,0.0065,0.0031
1240,0.0273,0.0060,0.0306,0.0070,0.0053,0.0093,0.0065,0.0034
1241,0.0481,0.0083,0.0496,0.0224,0.0085,0.0106,0.0164,0.0088
1242,0.0558,0.0075,0.0550,0.0259,0.0066,0.0089,0.0113,0.0068
1243,0.0357,0.0059,0.0345,0.0230,0.0044,0.0090,0.0083,0.0039
1244,0.0354,0.0060,0.0356,0.0235,0.0035,0.0093,0.0081,0.0040
1245,0.0355,0.0066,0.0355,0.0255,0.0041,0.0081,0.0101,0.0054
1246,0.0361,0.0075,0.0357,0.0321,0.0048,0.0083,0.0135,0.0070
1247,0.0336,0.0067,0.0342,0.0228,0.0162,0.0102,0.0129,0.0058
1248,0.0770,0.0055,0.0876,0.0436,0.0093,0.0139,0.0104,0.0067
1249,0.0224,0.0048,0.0258,0.0218,0.0172,0.0156,0.0133,0.0062
1250,0.0358,0.0036,0.0401,0.0282,0.0100,0.0117,0.0126,0.0048
1251,0.0301,0.0037,0.0312,0.0285,0.0048,0.0090,0.0118,0.0039
1252,0.0212,0.0036,0.0250,0.0219,0.0049,0.0093,0.0114,0.0039
1253,0.0223,0.0036,0.0266,0.0201,0.0080,0.0099,0.0123,0.0039
1254,0.0295,0.0038,0.0331,0.0229,0.0108,0.0114,0.0127,0.0052
1255,0.0263,0.0045,0.0288,0.0080,0.0051,0.0103,0.0055,0.0041
1256,0.0423,0.0043,0.0435,0.0099,0.0031,0.0098,0.0051,0.0037
1257,0.0326,0.0043,0.0356,0.0074,0.0023,0.0089,0.0058,0.0035
1258,0.1469,0.0081,0.1469,0.0198,0.0028,0.0096,0.0053,0.0043
1259,0.0235,0.0042,0.0279,0.0071,0.0029,0.0089,0.0062,0.0038
1260,0.0727,0.0036,0.0835,0.0418,0.0056,0.0100,0.0087,0.0072
1261,0.0224,0.0044,0.0279,0.0091,0.0040,0.0089,0.0053,0.0035
1262,0.0250,0.0045,0.0319,0.0098,0.0052,0.0089,0.0050,0.0037
1263,0.0345,0.0060,0.0369,0.0180,0.0076,0.0104,0.0159,0.0066
1264,0.0487,0.0057,0.0485,0.0259,0.0061,0.0090,0.0109,0.0057
1265,0.0338,0.0054,0.0346,0.0200,0.0042,0.0089,0.0088,0.0040
1266,0.0313,0.0056,0.0350,0.0182,0.0034,0.0091,0.0087,0.0040
1267,0.0322,0.0054,0.0366,0.0188,0.0039,0.0082,0.0102,0.0049
1268,0.0346,0.0057,0.0394,0.0229,0.0046,0.0088,0.0132,0.0057
1269,0.0332,0.0052,0.0309,0.0184,0.0077,0.0084,0.0104,0.0049
1270,0.0262,0.0056,0.0293,0.0220,0.0158,0.0167,0.0126,0.0069
1271,0.0470,0.0046,0.0502,0.0288,0.0092,0.0115,0.0095,0.0071
1272,0.0715,0.0039,0.0831,0.0416,0.0033,0.0106,0.0066,0.0071
1273,0.0393,0.0055,0.0380,0.0321,0.0046,0.0094,0.0081,0.0058
1274,0.0267,0.0053,0.0262,0.0255,0.0047,0.0100,0.0080,0.0058
1275,0.0248,0.0047,0.0257,0.0216,0.0074,0.0097,0.0090,0.0064
1276,0.0235,0.0043,0.0266,0.0236,0.0099,0.0111,0.0099,0.0074
1277,0.0230,0.0057,0.0272,0.0104,0.0063,0.0130,0.0052,0.0037
1278,0.0363,0.0051,0.0390,0.0109,0.0042,0.0109,0.0052,0.0031
1279,0.0241,0.0050,0.0284,0.0100,0.0030,0.0102,0.0068,0.0037
1280,0.0289,0.0048,0.0272,0.0166,0.0070,0.0083,0.0105,0.0049
1281,0.0214,0.0050,0.0281,0.0099,0.0033,0.0103,0.0073,0.0040
1282,0.0213,0.0050,0.0289,0.0106,0.0046,0.0101,0.0057,0.0031
1283,0.0236,0.0051,0.0325,0.0108,0.0058,0.0105,0.0050,0.0032
1284,0.0859,0.0038,0.1002,0.0470,0.0035,0.0114,0.0065,0.0071
1285,0.0359,0.0065,0.0400,0.0161,0.0072,0.0118,0.0164,0.0056
1286,0.0408,0.0055,0.0443,0.0240,0.0063,0.0098,0.0108,0.0049
1287,0.0351,0.0058,0.0396,0.0171,0.0042,0.0090,0.0097,0.0034
1288,0.0407,0.0060,0.0470,0.0164,0.0034,0.0089,0.0095,0.0033
1289,0.0421,0.0055,0.0494,0.0164,0.0042,0.0087,0.0101,0.0042
1290,0.0462,0.0056,0.0542,0.0197,0.0050,0.0098,0.0126,0.0049
1291,0.0273,0.0050,0.0271,0.0173,0.0119,0.0093,0.0124,0.0049
1292,0.0281,0.0046,0.0307,0.0307,0.0182,0.0182,0.0164,0.0073
1293,0.0400,0.0041,0.0441,0.0401,0.0106,0.0110,0.0128,0.0066
1294,0.0358,0.0040,0.0385,0.0337,0.0050,0.0088,0.0140,0.0047
1295,0.0237,0.0042,0.0266,0.0246,0.0051,0.0089,0.0141,0.0047
1296,0.1019,0.0036,0.1166,0.0545,0.0042,0.0089,0.0076,0.0073
1297,0.0247,0.0041,0.0269,0.0226,0.0084,0.0100,0.0131,0.0053
1298,0.0359,0.0042,0.0361,0.0218,0.0114,0.0119,0.0130,0.0067
1299,0.0423,0.0137,0.0434,0.0094,0.0047,0.0144,0.0072,0.0060
1300,0.0522,0.0100,0.0559,0.0072,0.0027,0.0112,0.0066,0.0036
1301,0.0376,0.0063,0.0439,0.0096,0.0023,0.0099,0.0060,0.0038
1302,0.0275,0.0055,0.0274,0.0188,0.0163,0.0105,0.0139,0.0062
1303,0.0277,0.0060,0.0333,0.0103,0.0029,0.0102,0.0064,0.0046
1304,0.0272,0.0086,0.0317,0.0073,0.0042,0.0101,0.0068,0.0030
1305,0.0290,0.0107,0.0326,0.0069,0.0054,0.0103,0.0077,0.0037
1306,0.0406,0.0073,0.0430,0.0234,0.0085,0.0128,0.0142,0.0080
1307,0.0557,0.0071,0.0559,0.0250,0.0065,0.0099,0.0098,0.0059
1308,0.1214,0.0038,0.1369,0.0638,0.0045,0.0097,0.0086,0.0072
1309,0.0348,0.0056,0.0339,0.0228,0.0042,0.0080,0.0083,0.0043
1310,0.0332,0.0058,0.0336,0.0229,0.0033,0.0081,0.0079,0.0048
1311,0.0337,0.0065,0.0338,0.0254,0.0039,0.0082,0.0084,0.0047
1312,0.0355,0.0073,0.0350,0.0332,0.0046,0.0091,0.0103,0.0060
1313,0.0357,0.0138,0.0338,0.0107,0.0094,0.0124,0.0094,0.0059
1314,0.0261,0.0048,0.0307,0.0245,0.0166,0.0199,0.0144,0.0055
1315,0.0417,0.0037,0.0447,0.0359,0.0097,0.0116,0.0121,0.0052
1316,0.0338,0.0034,0.0349,0.0321,0.0046,0.0094,0.0124,0.0034
1317,0.0222,0.0034,0.0256,0.0236,0.0048,0.0097,0.0123,0.0033
1318,0.0220,0.0035,0.0261,0.0210,0.0079,0.0103,0.0122,0.0038
1319,0.0291,0.0038,0.0339,0.0204,0.0106,0.0121,0.0122,0.0051
1320,0.0997,0.0103,0.1142,0.0162,0.0024,0.0090,0.0134,0.0045
1321,0.0287,0.0119,0.0311,0.0075,0.0043,0.0134,0.0058,0.0057
1322,0.0399,0.0078,0.0417,0.0077,0.0027,0.0101,0.0044,0.0039
1323,0.0293,0.0049,0.0327,0.0064,0.0023,0.0083,0.0050,0.0041
1324,0.0347,0.0101,0.0340,0.0120,0.0053,0.0114,0.0088,0.0029
1325,0.0234,0.0047,0.0279,0.0064,0.0029,0.0083,0.0056,0.0047
1326,0.0241,0.0066,0.0292,0.0069,0.0040,0.0088,0.0047,0.0035
1327,0.0271,0.0084,0.0331,0.0074,0.0051,0.0092,0.0050,0.0039
1328,0.0319,0.0067,0.0343,0.0183,0.0076,0.0132,0.0141,0.0063
1329,0.0485,0.0056,0.0491,0.0251,0.0060,0.0101,0.0096,0.0052
1330,0.0335,0.0053,0.0340,0.0203,0.0039,0.0081,0.0082,0.0042
1331,0.0302,0.0055,0.0334,0.0182,0.0031,0.0082,0.0079,0.0046
1332,0.0858,0.0066,0.0991,0.0196,0.0021,0.0079,0.0049,0.0044
1333,0.0315,0.0054,0.0351,0.0190,0.0037,0.0085,0.0085,0.0044
1334,0.0352,0.0057,0.0390,0.0243,0.0044,0.0098,0.0103,0.0051
1335,0.0693,0.0045,0.0789,0.0112,0.0032,0.0104,0.0059,0.0052
1336,0.0327,0.0098,0.0321,0.0091,0.0031,0.0100,0.0079,0.0028
1337,0.0301,0.0055,0.0308,0.0241,0.0154,0.0249,0.0157,0.0063
1338,0.0609,0.0042,0.0632,0.0377,0.0090,0.0135,0.0099,0.0074
1339,0.0464,0.0045,0.0452,0.0365,0.0045,0.0109,0.0085,0.0060
1340,0.0302,0.0043,0.0286,0.0279,0.0047,0.0113,0.0084,0.0059
1341,0.0309,0.0042,0.0300,0.0240,0.0074,0.0118,0.0091,0.0063
1342,0.0246,0.0042,0.0259,0.0214,0.0098,0.0142,0.0103,0.0070
1343,0.0252,0.0107,0.0288,0.0105,0.0051,0.0143,0.0055,0.0052
1344,0.0326,0.0064,0.0361,0.0095,0.0037,0.0102,0.0044,0.0033
1345,0.1200,0.0045,0.1200,0.0259,0.0026,0.0082,0.0070,0.0035
1346,0.0913,0.0053,0.1049,0.0238,0.0021,0.0088,0.0083,0.0036
1347,0.0350,0.0098,0.0329,0.0092,0.0040,0.0102,0.0079,0.0029
1348,0.0208,0.0046,0.0254,0.0090,0.0030,0.0086,0.0063,0.0045
1349,0.0221,0.0045,0.0285,0.0091,0.0034,0.0086,0.0068,0.0052
1350,0.0227,0.0054,0.0296,0.0091,0.0045,0.0090,0.0049,0.0035
1351,0.0253,0.0068,0.0329,0.0091,0.0055,0.0096,0.0043,0.0036
1352,0.0372,0.0089,0.0396,0.0161,0.0071,0.0158,0.0151,0.0058
1353,0.0392,0.0057,0.0431,0.0228,0.0060,0.0112,0.0107,0.0046
1354,0.0325,0.0057,0.0365,0.0169,0.0041,0.0098,0.0107,0.0035
1355,0.0381,0.0059,0.0438,0.0161,0.0033,0.0098,0.0103,0.0037
1356,0.0398,0.0056,0.0462,0.0165,0.0041,0.0098,0.0101,0.0039
1357,0.0454,0.0058,0.0520,0.0211,0.0049,0.0111,0.0110,0.0045
1358,0.0362,0.0100,0.0339,0.0107,0.0062,0.0107,0.0069,0.0033
1359,0.1099,0.0053,0.1247,0.0244,0.0021,0.0094,0.0093,0.0036
1360,0.0571,0.0041,0.0642,0.0529,0.0194,0.0134,0.0137,0.0115
1361,0.0809,0.0043,0.0871,0.0609,0.0113,0.0112,0.0124,0.0078
1362,0.0790,0.0039,0.0818,0.0599,0.0054,0.0099,0.0132,0.0055
1363,0.0653,0.0039,0.0681,0.0520,0.0054,0.0100,0.0131,0.0054
1364,0.0573,0.0039,0.0622,0.0467,0.0089,0.0105,0.0128,0.0063
1365,0.0496,0.0039,0.0555,0.0422,0.0120,0.0112,0.0127,0.0087
1366,0.0565,0.0047,0.0588,0.0071,0.0057,0.0101,0.0064,0.0035
1367,0.0729,0.0050,0.0766,0.0075,0.0035,0.0098,0.0058,0.0031
1368,0.0643,0.0046,0.0700,0.0064,0.0024,0.0086,0.0057,0.0040
1369,0.0419,0.0103,0.0392,0.0114,0.0083,0.0109,0.0078,0.0030
1370,0.0521,0.0045,0.0584,0.0065,0.0030,0.0088,0.0061,0.0044
1371,0.1167,0.0059,0.1325,0.0215,0.0021,0.0078,0.0052,0.0040
1372,0.0480,0.0051,0.0537,0.0068,0.0043,0.0089,0.0059,0.0031
1373,0.0438,0.0054,0.0489,0.0074,0.0057,0.0086,0.0059,0.0032
1374,0.0716,0.0090,0.0753,0.0309,0.0081,0.0099,0.0148,0.0056
1375,0.0836,0.0080,0.0842,0.0443,0.0068,0.0079,0.0096,0.0046
1376,0.0603,0.0061,0.0602,0.0390,0.0044,0.0071,0.0080,0.0046
1377,0.0448,0.0063,0.0454,0.0300,0.0034,0.0074,0.0078,0.0050
1378,0.0456,0.0070,0.0465,0.0285,0.0041,0.0067,0.0087,0.0040
1379,0.0454,0.0080,0.0472,0.0253,0.0048,0.0074,0.0119,0.0046
1380,0.1107,0.0060,0.1080,0.0594,0.0072,0.0079,0.0152,0.0051
1381,0.0515,0.0041,0.0589,0.0450,0.0178,0.0140,0.0124,0.0092
1382,0.0751,0.0043,0.0819,0.0545,0.0104,0.0114,0.0120,0.0067
1383,0.1332,0.0071,0.1504,0.0193,0.0025,0.0079,0.0058,0.0046
1384,0.0711,0.0042,0.0737,0.0567,0.0049,0.0096,0.0119,0.0043
1385,0.0587,0.0040,0.0604,0.0500,0.0051,0.0099,0.0117,0.0043
1386,0.0538,0.0039,0.0575,0.0439,0.0083,0.0104,0.0121,0.0052
1387,0.0469,0.0037,0.0517,0.0393,0.0111,0.0113,0.0121,0.0074
1388,0.0407,0.0050,0.0423,0.0088,0.0064,0.0102,0.0052,0.0037
1389,0.0596,0.0042,0.0620,0.0108,0.0041,0.0098,0.0045,0.0034
1390,0.0523,0.0043,0.0554,0.0088,0.0026,0.0088,0.0049,0.0042
1391,0.1047,0.0059,0.1005,0.0561,0.0067,0.0095,0.0117,0.0075
1392,0.0424,0.0042,0.0451,0.0083,0.0031,0.0088,0.0055,0.0045
1393,0.0390,0.0043,0.0414,0.0105,0.0044,0.0088,0.0046,0.0035
1394,0.0354,0.0044,0.0377,0.0108,0.0059,0.0086,0.0045,0.0035
1395,0.0860,0.0070,0.0945,0.0483,0.0062,0.0096,0.0127,0.0071
1396,0.0561,0.0061,0.0600,0.0337,0.0075,0.0089,0.0145,0.0045
1397,0.0754,0.0058,0.0770,0.0466,0.0064,0.0080,0.0095,0.0041
1398,0.0598,0.0053,0.0606,0.0393,0.0042,0.0073,0.0083,0.0046
1399,0.0468,0.0055,0.0476,0.0307,0.0032,0.0074,0.0080,0.0050
1400,0.0460,0.0054,0.0466,0.0307,0.0040,0.0069,0.0089,0.0039
1401,0.0438,0.0058,0.0448,0.0272,0.0049,0.0078,0.0117,0.0040
1402,0.0391,0.0110,0.0403,0.0229,0.0075,0.0148,0.0142,0.0046
1403,0.0606,0.0052,0.0698,0.0435,0.0164,0.0166,0.0132,0.0098
1404,0.0857,0.0058,0.0947,0.0547,0.0096,0.0108,0.0090,0.0093
1405,0.0802,0.0066,0.0846,0.0595,0.0047,0.0093,0.0080,0.0071
1406,0.0683,0.0063,0.0709,0.0536,0.0047,0.0098,0.0080,0.0069
1407,0.0794,0.0064,0.0898,0.0481,0.0046,0.0086,0.0093,0.0058
1408,0.0661,0.0057,0.0704,0.0465,0.0076,0.0098,0.0087,0.0082
1409,0.0586,0.0050,0.0637,0.0411,0.0102,0.0111,0.0097,0.0097
1410,0.0295,0.0070,0.0342,0.0111,0.0077,0.0133,0.0056,0.0034
1411,0.0485,0.0060,0.0541,0.0118,0.0054,0.0109,0.0046,0.0035
1412,0.0353,0.0059,0.0405,0.0110,0.0037,0.0098,0.0058,0.0046
1413,0.0344,0.0087,0.0352,0.0329,0.0074,0.0120,0.0114,0.0076
1414,0.0260,0.0059,0.0302,0.0108,0.0039,0.0098,0.0063,0.0050
1415,0.0260,0.0058,0.0298,0.0117,0.0054,0.0099,0.0049,0.0038
1416,0.0244,0.0061,0.0277,0.0117,0.0067,0.0103,0.0044,0.0037
1417,0.0364,0.0060,0.0439,0.0309,0.0077,0.0106,0.0154,0.0037
1418,0.0550,0.0054,0.0609,0.0430,0.0069,0.0099,0.0103,0.0033
1419,0.0839,0.0064,0.0961,0.0500,0.0033,0.0104,0.0082,0.0058
1420,0.0422,0.0058,0.0475,0.0345,0.0047,0.0101,0.0108,0.0038
1421,0.0328,0.0061,0.0374,0.0265,0.0036,0.0100,0.0104,0.0041
1422,0.0325,0.0055,0.0368,0.0275,0.0048,0.0093,0.0100,0.0032
1423,0.0316,0.0055,0.0361,0.0243,0.0058,0.0097,0.0117,0.0034
1424,0.0362,0.0080,0.0374,0.0243,0.0046,0.0117,0.0112,0.0045
1425,0.0557,0.0039,0.0627,0.0534,0.0189,0.0143,0.0139,0.0080
1426,0.0805,0.0041,0.0872,0.0614,0.0110,0.0117,0.0132,0.0060
1427,0.0799,0.0038,0.0836,0.0601,0.0052,0.0097,0.0140,0.0051
1428,0.0665,0.0038,0.0702,0.0521,0.0053,0.0097,0.0138,0.0051
1429,0.0579,0.0038,0.0634,0.0469,0.0087,0.0106,0.0136,0.0052
1430,0.0500,0.0038,0.0563,0.0425,0.0116,0.0115,0.0133,0.0065
1431,0.1002,0.0064,0.1143,0.0582,0.0029,0.0109,0.0082,0.0058
1432,0.0716,0.0049,0.0729,0.0074,0.0050,0.0108,0.0072,0.0039
1433,0.0896,0.0054,0.0934,0.0069,0.0031,0.0104,0.0061,0.0034
1434,0.0794,0.0048,0.0859,0.0074,0.0024,0.0090,0.0061,0.0030
1435,0.0342,0.0080,0.0350,0.0175,0.0034,0.0116,0.0107,0.0039
1436,0.0664,0.0048,0.0736,0.0079,0.0031,0.0092,0.0065,0.0034
1437,0.0627,0.0055,0.0686,0.0063,0.0042,0.0095,0.0061,0.0031
1438,0.0580,0.0058,0.0629,0.0068,0.0055,0.0095,0.0061,0.0034
1439,0.0849,0.0084,0.0879,0.0326,0.0082,0.0102,0.0144,0.0093
1440,0.0956,0.0075,0.0957,0.0469,0.0065,0.0084,0.0103,0.0071
1441,0.0711,0.0057,0.0708,0.0427,0.0043,0.0084,0.0081,0.0039
1442,0.0543,0.0059,0.0548,0.0335,0.0035,0.0087,0.0079,0.0039
1443,0.1077,0.0063,0.1212,0.0637,0.0037,0.0088,0.0083,0.0057
1444,0.0554,0.0065,0.0560,0.0313,0.0040,0.0075,0.0093,0.0055
1445,0.0558,0.0075,0.0572,0.0274,0.0049,0.0077,0.0122,0.0072
1446,0.0729,0.0047,0.0837,0.0132,0.0056,0.0109,0.0052,0.0045
1447,0.0404,0.0082,0.0400,0.0173,0.0047,0.0112,0.0106,0.0069
1448,0.0483,0.0038,0.0555,0.0443,0.0173,0.0151,0.0130,0.0058
1449,0.0725,0.0039,0.0796,0.0538,0.0101,0.0123,0.0132,0.0046
1450,0.0698,0.0038,0.0729,0.0558,0.0048,0.0094,0.0127,0.0039
1451,0.0578,0.0036,0.0600,0.0492,0.0049,0.0095,0.0123,0.0039
1452,0.0522,0.0036,0.0564,0.0432,0.0080,0.0105,0.0130,0.0039
1453,0.0453,0.0034,0.0503,0.0387,0.0108,0.0119,0.0131,0.0050
1454,0.0508,0.0047,0.0514,0.0079,0.0056,0.0101,0.0055,0.0043
1455,0.0731,0.0043,0.0755,0.0095,0.0035,0.0098,0.0051,0.0038
1456,0.1219,0.0065,0.1344,0.0712,0.0052,0.0081,0.0092,0.0059
1457,0.0656,0.0043,0.0692,0.0074,0.0025,0.0088,0.0059,0.0034
1458,0.0473,0.0086,0.0462,0.0178,0.0056,0.0113,0.0119,0.0067
1459,0.0549,0.0043,0.0579,0.0072,0.0030,0.0088,0.0063,0.0037
1460,0.0511,0.0044,0.0531,0.0089,0.0042,0.0089,0.0053,0.0035
1461,0.0464,0.0045,0.0475,0.0095,0.0055,0.0088,0.0049,0.0038
1462,0.0673,0.0059,0.0708,0.0358,0.0075,0.0098,0.0137,0.0070
1463,0.0868,0.0056,0.0879,0.0493,0.0062,0.0086,0.0098,0.0059
1464,0.0699,0.0052,0.0706,0.0428,0.0041,0.0084,0.0083,0.0040
1465,0.0557,0.0055,0.0561,0.0341,0.0033,0.0086,0.0082,0.0040
1466,0.0548,0.0052,0.0549,0.0336,0.0039,0.0077,0.0092,0.0050
1467,0.0525,0.0056,0.0528,0.0297,0.0045,0.0082,0.0118,0.0059
1468,0.1434,0.0045,0.1433,0.0263,0.0026,0.0087,0.0079,0.0033
1469,0.0278,0.0041,0.0268,0.0199,0.0257,0.0185,0.0131,0.0088
1470,0.0581,0.0047,0.0763,0.0328,0.0085,0.0142,0.0109,0.0064
1471,0.0561,0.0046,0.0650,0.0421,0.0160,0.0152,0.0119,0.0067
1472,0.0816,0.0052,0.0907,0.0532,0.0093,0.0111,0.0095,0.0070
1473,0.0773,0.0060,0.0819,0.0581,0.0045,0.0089,0.0084,0.0058
1474,0.0659,0.0057,0.0686,0.0523,0.0047,0.0093,0.0083,0.0057
1475,0.0629,0.0051,0.0674,0.0452,0.0074,0.0094,0.0091,0.0063
1476,0.0553,0.0043,0.0605,0.0400,0.0100,0.0106,0.0098,0.0072
1477,0.0374,0.0060,0.0412,0.0105,0.0069,0.0125,0.0053,0.0038
1478,0.0599,0.0054,0.0654,0.0107,0.0047,0.0107,0.0054,0.0031
1479,0.0473,0.0054,0.0528,0.0100,0.0035,0.0100,0.0071,0.0035
1480,0.0233,0.0045,0.0232,0.0212,0.0149,0.0131,0.0107,0.0048
1481,0.0369,0.0054,0.0408,0.0100,0.0037,0.0100,0.0075,0.0038
1482,0.0558,0.0052,0.0746,0.0312,0.0052,0.0105,0.0075,0.0067
1483,0.0368,0.0053,0.0398,0.0105,0.0051,0.0099,0.0059,0.0030
1484,0.0345,0.0054,0.0362,0.0106,0.0063,0.0102,0.0051,0.0031
1485,0.0432,0.0061,0.0508,0.0331,0.0072,0.0116,0.0142,0.0060
1486,0.0639,0.0053,0.0694,0.0455,0.0064,0.0101,0.0105,0.0052
1487,0.0497,0.0057,0.0549,0.0374,0.0043,0.0095,0.0101,0.0034
1488,0.0378,0.0059,0.0422,0.0293,0.0034,0.0094,0.0097,0.0033
1489,0.0373,0.0054,0.0410,0.0302,0.0045,0.0091,0.0099,0.0044
1490,0.0350,0.0054,0.0389,0.0268,0.0052,0.0099,0.0117,0.0051
1491,0.0232,0.0037,0.0224,0.0187,0.0068,0.0101,0.0094,0.0043
1492,0.0516,0.0043,0.0556,0.0577,0.0184,0.0169,0.0160,0.0070
1493,0.0838,0.0041,0.0891,0.0687,0.0107,0.0108,0.0128,0.0064
1494,0.0541,0.0066,0.0736,0.0311,0.0032,0.0090,0.0058,0.0067
1495,0.0818,0.0036,0.0857,0.0634,0.0051,0.0091,0.0146,0.0046
1496,0.0677,0.0037,0.0717,0.0543,0.0052,0.0092,0.0147,0.0045
1497,0.0599,0.0038,0.0651,0.0511,0.0085,0.0100,0.0134,0.0051
1498,0.0505,0.0040,0.0560,0.0466,0.0114,0.0116,0.0130,0.0064
1499,0.0731,0.0139,0.0758,0.0095,0.0048,0.0138,0.0063,0.0060
1500,0.0875,0.0098,0.0924,0.0071,0.0029,0.0111,0.0057,0.0035
1501,0.0758,0.0060,0.0831,0.0094,0.0025,0.0100,0.0056,0.0038
1502,0.0228,0.0036,0.0236,0.0172,0.0063,0.0095,0.0092,0.0043
1503,0.0643,0.0057,0.0721,0.0101,0.0031,0.0103,0.0060,0.0046
1504,0.0619,0.0083,0.0684,0.0071,0.0043,0.0101,0.0060,0.0030
1505,0.0601,0.0105,0.0656,0.0067,0.0056,0.0102,0.0066,0.0037
1506,0.0664,0.0065,0.0901,0.0333,0.0033,0.0094,0.0057,0.0067
1507,0.0780,0.0071,0.0828,0.0321,0.0082,0.0126,0.0130,0.0083
1508,0.0981,0.0069,0.0997,0.0472,0.0064,0.0096,0.0097,0.0060
1509,0.0746,0.0054,0.0750,0.0442,0.0042,0.0077,0.0089,0.0042
1510,0.0581,0.0056,0.0592,0.0352,0.0033,0.0078,0.0085,0.0047
1511,0.0593,0.0063,0.0609,0.0326,0.0039,0.0080,0.0085,0.0047
1512,0.0587,0.0071,0.0613,0.0286,0.0045,0.0088,0.0097,0.0061
1513,0.0963,0.0054,0.0952,0.0543,0.0051,0.0075,0.0087,0.0046
1514,0.0462,0.0044,0.0499,0.0495,0.0168,0.0185,0.0140,0.0053
1515,0.0805,0.0037,0.0861,0.0630,0.0098,0.0112,0.0124,0.0051
1516,0.0743,0.0033,0.0775,0.0602,0.0046,0.0094,0.0132,0.0033
1517,0.0605,0.0032,0.0628,0.0520,0.0049,0.0096,0.0131,0.0033
1518,0.0826,0.0057,0.1077,0.0403,0.0039,0.0087,0.0064,0.0068
1519,0.0569,0.0034,0.0606,0.0483,0.0079,0.0102,0.0127,0.0037
1520,0.0473,0.0036,0.0514,0.0430,0.0107,0.0118,0.0124,0.0049
1521,0.0504,0.0121,0.0526,0.0078,0.0047,0.0125,0.0053,0.0058
1522,0.0692,0.0076,0.0729,0.0074,0.0031,0.0097,0.0043,0.0039
1523,0.0611,0.0048,0.0656,0.0064,0.0026,0.0081,0.0053,0.0040
1524,0.0244,0.0037,0.0261,0.0180,0.0111,0.0116,0.0103,0.0040
1525,0.0520,0.0046,0.0557,0.0065,0.0031,0.0081,0.0058,0.0047
1526,0.0493,0.0064,0.0521,0.0068,0.0042,0.0086,0.0045,0.0035
1527,0.0471,0.0083,0.0490,0.0072,0.0054,0.0088,0.0044,0.0040
1528,0.0623,0.0065,0.0673,0.0348,0.0073,0.0126,0.0125,0.0066
1529,0.0885,0.0055,0.0912,0.0494,0.0060,0.0099,0.0094,0.0053
1530,0.1011,0.0047,0.1275,0.0500,0.0042,0.0097,0.0072,0.0067
1531,0.0724,0.0052,0.0738,0.0442,0.0040,0.0079,0.0086,0.0042
1532,0.0585,0.0054,0.0595,0.0357,0.0031,0.0079,0.0081,0.0045
1533,0.0578,0.0053,0.0587,0.0348,0.0037,0.0082,0.0084,0.0044
1534,0.0548,0.0055,0.0562,0.0306,0.0044,0.0093,0.0096,0.0052
1535,0.0270,0.0038,0.0283,0.0197,0.0153,0.0132,0.0115,0.0052
1536,0.0631,0.0050,0.0678,0.0476,0.0155,0.0229,0.0153,0.0062
1537,0.0978,0.0044,0.1057,0.0635,0.0090,0.0123,0.0098,0.0073
1538,0.0853,0.0048,0.0899,0.0632,0.0045,0.0100,0.0089,0.0059
1539,0.0710,0.0046,0.0735,0.0557,0.0047,0.0105,0.0088,0.0058
1540,0.0732,0.0043,0.0771,0.0513,0.0074,0.0109,0.0092,0.0062
1541,0.0639,0.0041,0.0675,0.0449,0.0099,0.0132,0.0102,0.0068
1542,0.0978,0.0091,0.1204,0.0143,0.0034,0.0090,0.0175,0.0049
1543,0.0361,0.0111,0.0413,0.0110,0.0056,0.0128,0.0054,0.0053
1544,0.0546,0.0064,0.0617,0.0094,0.0042,0.0096,0.0048,0.0032
1545,0.0424,0.0047,0.0488,0.0091,0.0035,0.0081,0.0068,0.0044
1546,0.0311,0.0132,0.0334,0.0126,0.0093,0.0112,0.0072,0.0054
1547,0.0339,0.0047,0.0386,0.0092,0.0038,0.0082,0.0072,0.0051
1548,0.0344,0.0055,0.0383,0.0091,0.0049,0.0085,0.0052,0.0034
1549,0.0344,0.0070,0.0372,0.0090,0.0059,0.0089,0.0044,0.0036
1550,0.0410,0.0087,0.0496,0.0316,0.0070,0.0153,0.0134,0.0061
1551,0.0653,0.0056,0.0726,0.0452,0.0061,0.0115,0.0111,0.0048
1552,0.0513,0.0057,0.0573,0.0385,0.0043,0.0106,0.0116,0.0035
1553,0.0396,0.0059,0.0445,0.0307,0.0035,0.0105,0.0110,0.0036
1554,0.0818,0.0055,0.1034,0.0118,0.0028,0.0080,0.0066,0.0044
1555,0.0394,0.0055,0.0438,0.0311,0.0042,0.0103,0.0106,0.0039
1556,0.0371,0.0058,0.0416,0.0273,0.0050,0.0112,0.0107,0.0046
1557,0.0792,0.0057,0.0923,0.0130,0.0079,0.0128,0.0053,0.0054
1558,0.0288,0.0082,0.0299,0.0149,0.0053,0.0115,0.0096,0.0038
1559,0.0421,0.0058,0.0413,0.0326,0.0284,0.0153,0.0174,0.0132
1560,0.0359,0.0055,0.0372,0.0324,0.0166,0.0104,0.0157,0.0079
1561,0.0362,0.0044,0.0386,0.0366,0.0082,0.0090,0.0127,0.0053
1562,0.0442,0.0042,0.0477,0.0458,0.0075,0.0092,0.0128,0.0053
1563,0.0490,0.0043,0.0501,0.0484,0.0123,0.0100,0.0152,0.0059
1564,0.0576,0.0047,0.0564,0.0527,0.0168,0.0109,0.0168,0.0087
1565,0.0869,0.0126,0.0834,0.0100,0.0095,0.0120,0.0066,0.0108
1566,0.0824,0.0093,0.0783,0.0117,0.0053,0.0113,0.0074,0.0045
1567,0.0859,0.0042,0.1083,0.0144,0.0024,0.0102,0.0076,0.0035
1568,0.0875,0.0097,0.0830,0.0089,0.0028,0.0097,0.0070,0.0037
1569,0.0280,0.0075,0.0298,0.0100,0.0026,0.0105,0.0095,0.0035
1570,0.1026,0.0098,0.0977,0.0086,0.0037,0.0100,0.0073,0.0040
1571,0.1076,0.0094,0.1028,0.0109,0.0061,0.0103,0.0064,0.0035
1572,0.1186,0.0094,0.1142,0.0109,0.0082,0.0110,0.0068,0.0053
1573,0.0821,0.0094,0.0775,0.0462,0.0078,0.0147,0.0177,0.0075
1574,0.0802,0.0084,0.0760,0.0437,0.0081,0.0132,0.0115,0.0044
1575,0.0825,0.0083,0.0788,0.0485,0.0048,0.0145,0.0121,0.0045
1576,0.0940,0.0083,0.0896,0.0589,0.0034,0.0145,0.0118,0.0050
1577,0.1037,0.0083,0.0978,0.0605,0.0052,0.0138,0.0110,0.0040
1578,0.1080,0.0083,0.1009,0.0648,0.0062,0.0132,0.0133,0.0045
1579,0.1027,0.0041,0.1276,0.0149,0.0023,0.0107,0.0088,0.0034
1580,0.0268,0.0074,0.0285,0.0093,0.0035,0.0104,0.0095,0.0033
1581,0.0417,0.0045,0.0460,0.0285,0.0260,0.0152,0.0138,0.0127
1582,0.0318,0.0043,0.0376,0.0274,0.0151,0.0113,0.0110,0.0067
1583,0.0333,0.0040,0.0423,0.0303,0.0071,0.0095,0.0098,0.0044
1584,0.0419,0.0040,0.0533,0.0382,0.0067,0.0094,0.0099,0.0044
1585,0.0473,0.0040,0.0569,0.0417,0.0112,0.0105,0.0109,0.0046
1586,0.0542,0.0041,0.0624,0.0465,0.0155,0.0116,0.0120,0.0075
1587,0.0739,0.0118,0.0807,0.0127,0.0093,0.0122,0.0048,0.0098
1588,0.0646,0.0072,0.0695,0.0150,0.0053,0.0117,0.0072,0.0041
1589,0.0663,0.0070,0.0713,0.0113,0.0024,0.0104,0.0078,0.0037
1590,0.0769,0.0070,0.0830,0.0105,0.0033,0.0103,0.0080,0.0040
1591,0.0273,0.0077,0.0292,0.0133,0.0057,0.0107,0.0080,0.0043
1592,0.0312,0.0085,0.0341,0.0139,0.0078,0.0109,0.0083,0.0035
1593,0.0375,0.0082,0.0400,0.0200,0.0069,0.0126,0.0132,0.0050
1594,0.0315,0.0064,0.0336,0.0286,0.0068,0.0108,0.0107,0.0061
1595,0.1040,0.0051,0.1045,0.0552,0.0036,0.0069,0.0074,0.0051
1596,0.0305,0.0057,0.0332,0.0200,0.0047,0.0099,0.0095,0.0045
1597,0.0306,0.0057,0.0330,0.0172,0.0041,0.0097,0.0091,0.0039
1598,0.0945,0.0084,0.1091,0.0471,0.0057,0.0104,0.0111,0.0077
1599,0.0394,0.0059,0.0413,0.0171,0.0045,0.0095,0.0101,0.0060
1600,0.0451,0.0064,0.0471,0.0178,0.0054,0.0104,0.0121,0.0052
1601,0.0308,0.0058,0.0319,0.0211,0.0240,0.0173,0.0127,0.0099
1602,0.0376,0.0048,0.0406,0.0243,0.0140,0.0158,0.0112,0.0063
1603,0.0378,0.0046,0.0377,0.0241,0.0063,0.0123,0.0092,0.0043
1604,0.0357,0.0047,0.0347,0.0215,0.0059,0.0113,0.0089,0.0043
1605,0.0331,0.0047,0.0336,0.0209,0.0104,0.0143,0.0104,0.0046
1606,0.0321,0.0049,0.0331,0.0223,0.0144,0.0152,0.0117,0.0069
1607,0.1249,0.0051,0.1261,0.0634,0.0030,0.0072,0.0073,0.0052
1608,0.0329,0.0119,0.0349,0.0128,0.0099,0.0119,0.0060,0.0049
1609,0.0885,0.0047,0.0924,0.0482,0.0069,0.0142,0.0183,0.0125
1610,0.0286,0.0065,0.0289,0.0139,0.0059,0.0122,0.0072,0.0045
1611,0.0280,0.0050,0.0289,0.0108,0.0027,0.0109,0.0070,0.0041
1612,0.0270,0.0049,0.0275,0.0103,0.0034,0.0106,0.0072,0.0040
1613,0.0270,0.0055,0.0276,0.0127,0.0058,0.0110,0.0060,0.0048
1614,0.0287,0.0069,0.0306,0.0129,0.0079,0.0119,0.0064,0.0043
1615,0.0442,0.0062,0.0442,0.0199,0.0064,0.0134,0.0132,0.0062
1616,0.0392,0.0048,0.0387,0.0242,0.0063,0.0119,0.0112,0.0048
1617,0.0374,0.0044,0.0377,0.0197,0.0048,0.0114,0.0103,0.0040
1618,0.0399,0.0045,0.0402,0.0230,0.0044,0.0112,0.0101,0.0033
1619,0.1330,0.0053,0.1323,0.0706,0.0040,0.0067,0.0074,0.0049
1620,0.0862,0.0045,0.0900,0.0447,0.0069,0.0121,0.0118,0.0046
1621,0.0492,0.0043,0.0493,0.0217,0.0045,0.0109,0.0109,0.0052
1622,0.0516,0.0049,0.0526,0.0223,0.0054,0.0119,0.0128,0.0040
1623,0.0329,0.0058,0.0337,0.0199,0.0272,0.0143,0.0181,0.0084
1624,0.0358,0.0047,0.0365,0.0212,0.0158,0.0132,0.0153,0.0058
1625,0.0301,0.0046,0.0284,0.0176,0.0074,0.0106,0.0107,0.0045
1626,0.0279,0.0046,0.0273,0.0179,0.0067,0.0103,0.0106,0.0044
1627,0.0292,0.0048,0.0290,0.0198,0.0116,0.0129,0.0136,0.0046
1628,0.0309,0.0049,0.0302,0.0220,0.0160,0.0137,0.0163,0.0060
1629,0.0386,0.0095,0.0370,0.0106,0.0091,0.0158,0.0065,0.0050
1630,0.0329,0.0075,0.0323,0.0101,0.0047,0.0121,0.0061,0.0029
1631,0.0910,0.0052,0.0958,0.0530,0.0048,0.0134,0.0110,0.0038
1632,0.1485,0.0054,0.1458,0.0804,0.0055,0.0070,0.0081,0.0051
1633,0.0325,0.0075,0.0308,0.0100,0.0032,0.0102,0.0052,0.0032
1634,0.0377,0.0077,0.0346,0.0105,0.0041,0.0107,0.0055,0.0039
1635,0.0389,0.0070,0.0354,0.0097,0.0061,0.0108,0.0063,0.0034
1636,0.0421,0.0070,0.0381,0.0100,0.0081,0.0115,0.0078,0.0045
1637,0.0375,0.0085,0.0387,0.0213,0.0074,0.0170,0.0146,0.0043
1638,0.0362,0.0082,0.0385,0.0333,0.0071,0.0138,0.0129,0.0060
1639,0.0392,0.0079,0.0417,0.0250,0.0045,0.0128,0.0134,0.0040
1640,0.0350,0.0079,0.0371,0.0176,0.0032,0.0126,0.0127,0.0040
1641,0.0373,0.0081,0.0377,0.0174,0.0044,0.0124,0.0122,0.0055
1642,0.0999,0.0052,0.1061,0.0630,0.0042,0.0134,0.0107,0.0044
1643,0.0423,0.0082,0.0413,0.0179,0.0053,0.0128,0.0117,0.0054
1644,0.0771,0.0052,0.0885,0.0442,0.0090,0.0135,0.0106,0.0055
1645,0.0295,0.0075,0.0295,0.0202,0.0249,0.0149,0.0149,0.0100
1646,0.0284,0.0047,0.0278,0.0227,0.0145,0.0131,0.0120,0.0053
1647,0.0226,0.0045,0.0234,0.0185,0.0066,0.0115,0.0097,0.0040
1648,0.0235,0.0045,0.0268,0.0176,0.0062,0.0114,0.0096,0.0039
1649,0.0255,0.0049,0.0281,0.0185,0.0109,0.0130,0.0112,0.0039
1650,0.0262,0.0050,0.0273,0.0197,0.0150,0.0136,0.0127,0.0054
1651,0.0424,0.0090,0.0420,0.0088,0.0084,0.0144,0.0061,0.0052
1652,0.0277,0.0066,0.0287,0.0117,0.0045,0.0116,0.0062,0.0037
1653,0.1098,0.0048,0.1362,0.0125,0.0026,0.0085,0.0051,0.0039
1654,0.1069,0.0048,0.1127,0.0614,0.0048,0.0126,0.0118,0.0037
1655,0.0263,0.0056,0.0279,0.0084,0.0026,0.0098,0.0072,0.0034
1656,0.0283,0.0057,0.0298,0.0079,0.0035,0.0099,0.0073,0.0038
1657,0.0724,0.0034,0.0836,0.0415,0.0054,0.0097,0.0090,0.0058
1658,0.0310,0.0053,0.0324,0.0105,0.0055,0.0102,0.0050,0.0040
1659,0.0356,0.0058,0.0372,0.0107,0.0074,0.0109,0.0051,0.0045
1660,0.0336,0.0061,0.0358,0.0188,0.0068,0.0157,0.0132,0.0056
1661,0.0312,0.0060,0.0349,0.0290,0.0065,0.0129,0.0115,0.0049
1662,0.0319,0.0057,0.0354,0.0204,0.0046,0.0108,0.0102,0.0039
1663,0.0297,0.0058,0.0326,0.0171,0.0039,0.0105,0.0094,0.0038
1664,0.0336,0.0059,0.0354,0.0172,0.0042,0.0109,0.0103,0.0048
1665,0.1074,0.0044,0.1137,0.0626,0.0059,0.0129,0.0149,0.0059
1666,0.0371,0.0061,0.0381,0.0180,0.0051,0.0122,0.0111,0.0046
1667,0.0437,0.0092,0.0459,0.0239,0.0231,0.0171,0.0154,0.0125
1668,0.0553,0.0059,0.0568,0.0301,0.0134,0.0134,0.0121,0.0075
1669,0.0709,0.0036,0.0826,0.0412,0.0033,0.0104,0.0073,0.0062
1670,0.0377,0.0053,0.0363,0.0253,0.0061,0.0118,0.0097,0.0042
1671,0.0338,0.0054,0.0322,0.0216,0.0059,0.0117,0.0096,0.0042
1672,0.0376,0.0058,0.0360,0.0212,0.0102,0.0133,0.0114,0.0045
1673,0.0424,0.0062,0.0410,0.0210,0.0141,0.0143,0.0129,0.0073
1674,0.0561,0.0092,0.0544,0.0104,0.0088,0.0143,0.0063,0.0054
1675,0.0292,0.0065,0.0280,0.0113,0.0049,0.0115,0.0057,0.0045
1676,0.0379,0.0051,0.0361,0.0320,0.0276,0.0194,0.0164,0.0092
1677,0.0263,0.0041,0.0265,0.0095,0.0026,0.0099,0.0061,0.0042
1678,0.0273,0.0038,0.0277,0.0093,0.0034,0.0097,0.0062,0.0046
1679,0.0303,0.0044,0.0307,0.0107,0.0054,0.0101,0.0049,0.0047
1680,0.0345,0.0054,0.0358,0.0103,0.0073,0.0110,0.0052,0.0050
1681,0.0859,0.0036,0.1001,0.0467,0.0035,0.0110,0.0072,0.0062
1682,0.0366,0.0055,0.0377,0.0198,0.0063,0.0180,0.0130,0.0066
1683,0.0334,0.0048,0.0369,0.0243,0.0061,0.0138,0.0119,0.0040
1684,0.0326,0.0047,0.0349,0.0191,0.0046,0.0122,0.0106,0.0034
1685,0.0337,0.0046,0.0348,0.0220,0.0043,0.0121,0.0100,0.0033
1686,0.0384,0.0046,0.0381,0.0209,0.0044,0.0120,0.0109,0.0042
1687,0.0320,0.0050,0.0328,0.0318,0.0162,0.0105,0.0146,0.0060
1688,0.0392,0.0048,0.0390,0.0219,0.0051,0.0137,0.0118,0.0042
1689,0.0352,0.0098,0.0343,0.0417,0.0287,0.0133,0.0153,0.0125
1690,0.0439,0.0091,0.0420,0.0416,0.0166,0.0097,0.0131,0.0076
1691,0.0438,0.0070,0.0385,0.0371,0.0077,0.0083,0.0096,0.0052
1692,0.0424,0.0064,0.0373,0.0325,0.0071,0.0084,0.0097,0.0052
1693,0.1049,0.0054,0.1049,0.0584,0.0053,0.0066,0.0120,0.0048
1694,0.1023,0.0034,0.1172,0.0545,0.0042,0.0091,0.0082,0.0060
1695,0.0425,0.0069,0.0400,0.0316,0.0124,0.0091,0.0122,0.0057
1696,0.0406,0.0077,0.0400,0.0305,0.0170,0.0099,0.0142,0.0083
1697,0.0268,0.0118,0.0269,0.0119,0.0105,0.0111,0.0093,0.0095
1698,0.0318,0.0042,0.0330,0.0358,0.0080,0.0087,0.0121,0.0050
1699,0.0260,0.0089,0.0271,0.0135,0.0066,0.0109,0.0105,0.0039
1700,0.0247,0.0094,0.0261,0.0096,0.0039,0.0094,0.0104,0.0033
1701,0.0247,0.0095,0.0254,0.0094,0.0046,0.0098,0.0102,0.0036
1702,0.0254,0.0090,0.0257,0.0121,0.0071,0.0101,0.0087,0.0031
1703,0.0287,0.0089,0.0281,0.0128,0.0090,0.0103,0.0090,0.0046
1704,0.0308,0.0105,0.0332,0.0399,0.0073,0.0140,0.0124,0.0054
1705,0.0323,0.0080,0.0342,0.0510,0.0079,0.0132,0.0114,0.0049
1706,0.1230,0.0036,0.1389,0.0645,0.0043,0.0092,0.0088,0.0057
1707,0.0382,0.0076,0.0406,0.0417,0.0049,0.0145,0.0131,0.0040
1708,0.0344,0.0076,0.0373,0.0323,0.0035,0.0148,0.0127,0.0043
1709,0.0385,0.0040,0.0405,0.0449,0.0073,0.0087,0.0122,0.0050
1710,0.0297,0.0076,0.0321,0.0325,0.0054,0.0134,0.0112,0.0043
1711,0.0302,0.0078,0.0320,0.0299,0.0064,0.0126,0.0114,0.0044
1712,0.0309,0.0056,0.0299,0.0373,0.0265,0.0134,0.0118,0.0120
1713,0.0320,0.0064,0.0318,0.0388,0.0155,0.0117,0.0099,0.0066
1714,0.0320,0.0049,0.0298,0.0359,0.0070,0.0096,0.0091,0.0042
1715,0.0322,0.0044,0.0299,0.0324,0.0066,0.0092,0.0090,0.0042
1716,0.0323,0.0048,0.0312,0.0311,0.0116,0.0108,0.0098,0.0045
1717,0.0322,0.0051,0.0320,0.0299,0.0160,0.0115,0.0107,0.0072
1718,0.0974,0.0151,0.1123,0.0151,0.0023,0.0113,0.0145,0.0042
1719,0.0285,0.0111,0.0297,0.0143,0.0106,0.0108,0.0069,0.0083
1720,0.0845,0.0073,0.1014,0.0484,0.0043,0.0083,0.0079,0.0073
1721,0.0224,0.0067,0.0233,0.0164,0.0066,0.0115,0.0103,0.0034
1722,0.0222,0.0066,0.0238,0.0116,0.0034,0.0100,0.0111,0.0032
1723,0.0217,0.0066,0.0231,0.0108,0.0041,0.0099,0.0111,0.0035
1724,0.0219,0.0064,0.0229,0.0150,0.0066,0.0101,0.0092,0.0030
1725,0.0243,0.0068,0.0252,0.0155,0.0087,0.0105,0.0088,0.0039
1726,0.0257,0.0075,0.0283,0.0332,0.0067,0.0118,0.0111,0.0082
1727,0.0240,0.0054,0.0268,0.0434,0.0070,0.0115,0.0103,0.0042
1728,0.0264,0.0054,0.0303,0.0336,0.0044,0.0115,0.0099,0.0038
1729,0.0249,0.0054,0.0283,0.0263,0.0035,0.0116,0.0094,0.0041
1730,0.0818,0.0086,0.0947,0.0173,0.0021,0.0086,0.0049,0.0046
1731,0.0455,0.0041,0.0454,0.0480,0.0119,0.0096,0.0141,0.0050
1732,0.0252,0.0052,0.0271,0.0276,0.0048,0.0109,0.0097,0.0038
1733,0.0263,0.0054,0.0278,0.0266,0.0060,0.0111,0.0110,0.0042
1734,0.0387,0.0053,0.0444,0.0355,0.0248,0.0133,0.0124,0.0129
1735,0.0500,0.0059,0.0576,0.0409,0.0146,0.0137,0.0102,0.0085
1736,0.0494,0.0053,0.0533,0.0410,0.0065,0.0117,0.0092,0.0050
1737,0.0499,0.0051,0.0524,0.0379,0.0061,0.0109,0.0090,0.0049
1738,0.0503,0.0052,0.0546,0.0353,0.0109,0.0130,0.0099,0.0060
1739,0.0501,0.0051,0.0554,0.0330,0.0150,0.0128,0.0108,0.0090
1740,0.0346,0.0100,0.0326,0.0145,0.0112,0.0133,0.0060,0.0072
1741,0.0238,0.0050,0.0215,0.0154,0.0074,0.0122,0.0075,0.0039
1742,0.0544,0.0043,0.0520,0.0522,0.0163,0.0110,0.0155,0.0065
1743,0.0873,0.0058,0.1002,0.0212,0.0021,0.0074,0.0079,0.0043
1744,0.0232,0.0042,0.0217,0.0124,0.0038,0.0103,0.0078,0.0041
1745,0.0233,0.0041,0.0215,0.0118,0.0042,0.0098,0.0080,0.0044
1746,0.0235,0.0043,0.0214,0.0144,0.0068,0.0104,0.0066,0.0038
1747,0.0248,0.0052,0.0227,0.0144,0.0091,0.0116,0.0066,0.0043
1748,0.0291,0.0056,0.0273,0.0231,0.0063,0.0142,0.0114,0.0100
1749,0.0264,0.0039,0.0246,0.0319,0.0066,0.0131,0.0114,0.0034
1750,0.0256,0.0051,0.0250,0.0222,0.0044,0.0139,0.0109,0.0030
1751,0.0264,0.0051,0.0248,0.0181,0.0037,0.0139,0.0103,0.0033
1752,0.0322,0.0042,0.0286,0.0193,0.0047,0.0128,0.0107,0.0030
1753,0.0743,0.0143,0.0707,0.0098,0.0089,0.0131,0.0080,0.0065
1754,0.0312,0.0039,0.0283,0.0194,0.0060,0.0130,0.0118,0.0042
1755,0.1063,0.0056,0.1203,0.0217,0.0020,0.0078,0.0089,0.0042
1756,0.0358,0.0090,0.0349,0.0409,0.0280,0.0175,0.0136,0.0084
1757,0.0433,0.0085,0.0418,0.0408,0.0163,0.0102,0.0120,0.0056
1758,0.0454,0.0066,0.0409,0.0369,0.0075,0.0084,0.0096,0.0049
1759,0.0449,0.0061,0.0407,0.0327,0.0069,0.0083,0.0097,0.0048
1760,0.0432,0.0064,0.0413,0.0315,0.0120,0.0094,0.0113,0.0048
1761,0.0415,0.0071,0.0413,0.0304,0.0165,0.0106,0.0130,0.0061
1762,0.0298,0.0133,0.0297,0.0118,0.0099,0.0124,0.0113,0.0053
1763,0.0333,0.0098,0.0346,0.0130,0.0059,0.0113,0.0108,0.0029
1764,0.0827,0.0068,0.0894,0.0139,0.0056,0.0105,0.0064,0.0035
1765,0.0694,0.0104,0.0653,0.0110,0.0047,0.0117,0.0074,0.0031
1766,0.0299,0.0097,0.0324,0.0096,0.0037,0.0099,0.0099,0.0027
1767,0.0263,0.0096,0.0289,0.0097,0.0045,0.0103,0.0096,0.0027
1768,0.1129,0.0070,0.1283,0.0190,0.0021,0.0077,0.0050,0.0046
1769,0.0269,0.0097,0.0290,0.0115,0.0068,0.0107,0.0084,0.0033
1770,0.0264,0.0100,0.0274,0.0125,0.0088,0.0107,0.0094,0.0029
1771,0.0349,0.0117,0.0384,0.0416,0.0071,0.0145,0.0137,0.0054
1772,0.0357,0.0086,0.0374,0.0551,0.0073,0.0122,0.0117,0.0086
1773,0.0467,0.0076,0.0483,0.0470,0.0046,0.0119,0.0116,0.0049
1774,0.0434,0.0075,0.0457,0.0373,0.0033,0.0119,0.0110,0.0041
1775,0.0341,0.0079,0.0368,0.0371,0.0047,0.0112,0.0108,0.0076
1776,0.0730,0.0100,0.0683,0.0087,0.0026,0.0102,0.0065,0.0030
1777,0.0342,0.0085,0.0368,0.0335,0.0057,0.0112,0.0113,0.0076
1778,0.0327,0.0050,0.0309,0.0357,0.0258,0.0180,0.0123,0.0084
1779,0.0293,0.0057,0.0291,0.0370,0.0152,0.0136,0.0108,0.0047
1780,0.1297,0.0093,0.1470,0.0171,0.0025,0.0087,0.0061,0.0050
1781,0.0304,0.0043,0.0288,0.0348,0.0069,0.0104,0.0100,0.0043
1782,0.0312,0.0040,0.0294,0.0316,0.0064,0.0098,0.0097,0.0043
1783,0.0305,0.0042,0.0299,0.0300,0.0114,0.0122,0.0105,0.0039
1784,0.0307,0.0045,0.0306,0.0290,0.0155,0.0137,0.0115,0.0051
1785,0.0247,0.0127,0.0257,0.0135,0.0099,0.0110,0.0090,0.0048
1786,0.0269,0.0079,0.0284,0.0157,0.0060,0.0115,0.0114,0.0038
1787,0.0856,0.0100,0.0802,0.0087,0.0036,0.0104,0.0068,0.0030
1788,0.0280,0.0072,0.0306,0.0102,0.0032,0.0104,0.0114,0.0035
1789,0.0263,0.0072,0.0287,0.0095,0.0039,0.0104,0.0113,0.0032
1790,0.0250,0.0075,0.0266,0.0138,0.0062,0.0106,0.0097,0.0044
1791,0.0236,0.0082,0.0242,0.0148,0.0084,0.0106,0.0099,0.0035
1792,0.0880,0.0077,0.0948,0.0480,0.0060,0.0103,0.0109,0.0075
1793,0.0296,0.0089,0.0332,0.0352,0.0066,0.0121,0.0128,0.0045
1794,0.0268,0.0063,0.0299,0.0474,0.0066,0.0110,0.0105,0.0071
1795,0.0329,0.0053,0.0366,0.0384,0.0045,0.0100,0.0091,0.0050
1796,0.0314,0.0053,0.0349,0.0306,0.0038,0.0098,0.0087,0.0042
1797,0.0272,0.0056,0.0303,0.0318,0.0044,0.0095,0.0094,0.0068
1798,0.0897,0.0103,0.0847,0.0100,0.0058,0.0109,0.0062,0.0033
1799,0.0291,0.0063,0.0319,0.0300,0.0054,0.0102,0.0108,0.0059
1800,0.0367,0.0048,0.0400,0.0334,0.0243,0.0170,0.0122,0.0096
1801,0.0415,0.0051,0.0484,0.0382,0.0143,0.0168,0.0117,0.0063
1802,0.0434,0.0046,0.0476,0.0387,0.0064,0.0130,0.0102,0.0043
1803,0.0449,0.0044,0.0479,0.0360,0.0060,0.0119,0.0097,0.0043
1804,0.0770,0.0069,0.0866,0.0470,0.0045,0.0080,0.0080,0.0058
1805,0.0432,0.0045,0.0477,0.0333,0.0107,0.0152,0.0111,0.0047
1806,0.0429,0.0045,0.0480,0.0314,0.0148,0.0160,0.0122,0.0068
1807,0.0283,0.0114,0.0272,0.0134,0.0105,0.0112,0.0072,0.0043
1808,0.0240,0.0061,0.0250,0.0145,0.0066,0.0121,0.0086,0.0046
1809,0.0998,0.0107,0.0954,0.0105,0.0079,0.0113,0.0069,0.0033
1810,0.0247,0.0048,0.0273,0.0112,0.0034,0.0107,0.0086,0.0039
1811,0.0246,0.0047,0.0262,0.0106,0.0039,0.0104,0.0086,0.0038
1812,0.0240,0.0052,0.0243,0.0133,0.0064,0.0108,0.0073,0.0049
1813,0.0236,0.0066,0.0221,0.0136,0.0085,0.0114,0.0076,0.0042
1814,0.0278,0.0069,0.0284,0.0248,0.0061,0.0131,0.0128,0.0052
1815,0.0234,0.0048,0.0243,0.0355,0.0062,0.0123,0.0115,0.0057
1816,0.1142,0.0049,0.1161,0.0602,0.0036,0.0075,0.0109,0.0051
1817,0.0808,0.0067,0.0921,0.0484,0.0030,0.0080,0.0065,0.0056
1818,0.0225,0.0043,0.0265,0.0258,0.0045,0.0118,0.0100,0.0046
1819,0.0223,0.0044,0.0253,0.0205,0.0041,0.0116,0.0096,0.0037
1820,0.0797,0.0104,0.0771,0.0435,0.0077,0.0157,0.0164,0.0044
1821,0.0271,0.0041,0.0268,0.0222,0.0044,0.0112,0.0103,0.0060
1822,0.0283,0.0049,0.0283,0.0218,0.0054,0.0119,0.0117,0.0046
1823,0.0413,0.0062,0.0421,0.0375,0.0273,0.0133,0.0178,0.0079
1824,0.0484,0.0053,0.0471,0.0396,0.0159,0.0126,0.0147,0.0055
1825,0.0426,0.0053,0.0384,0.0353,0.0073,0.0103,0.0100,0.0044
1826,0.0416,0.0053,0.0378,0.0313,0.0068,0.0102,0.0099,0.0044
1827,0.0421,0.0053,0.0400,0.0301,0.0118,0.0125,0.0128,0.0045
1828,0.0435,0.0054,0.0436,0.0294,0.0162,0.0131,0.0157,0.0056
1829,0.0974,0.0067,0.1105,0.0567,0.0026,0.0083,0.0063,0.0056
1830,0.0342,0.0108,0.0355,0.0108,0.0095,0.0144,0.0091,0.0052
1831,0.0733,0.0089,0.0707,0.0410,0.0075,0.0121,0.0118,0.0068
1832,0.0289,0.0079,0.0318,0.0110,0.0053,0.0115,0.0074,0.0029
1833,0.0252,0.0071,0.0278,0.0105,0.0038,0.0102,0.0072,0.0032
1834,0.0246,0.0073,0.0264,0.0110,0.0047,0.0107,0.0071,0.0039
1835,0.0248,0.0068,0.0266,0.0104,0.0066,0.0106,0.0058,0.0034
1836,0.0271,0.0072,0.0281,0.0108,0.0086,0.0110,0.0065,0.0045
1837,0.0413,0.0084,0.0445,0.0408,0.0071,0.0171,0.0147,0.0045
1838,0.0457,0.0078,0.0484,0.0560,0.0070,0.0140,0.0139,0.0066
1839,0.0550,0.0074,0.0573,0.0483,0.0044,0.0132,0.0141,0.0040
1840,0.0510,0.0074,0.0537,0.0390,0.0032,0.0131,0.0134,0.0038
1841,0.1064,0.0067,0.1187,0.0630,0.0036,0.0074,0.0067,0.0057
1842,0.0877,0.0069,0.1063,0.0520,0.0031,0.0087,0.0072,0.0082
1843,0.0406,0.0077,0.0441,0.0384,0.0045,0.0127,0.0129,0.0059
1844,0.0390,0.0079,0.0423,0.0346,0.0054,0.0130,0.0119,0.0057
1845,0.0338,0.0075,0.0342,0.0363,0.0250,0.0140,0.0147,0.0096
1846,0.0360,0.0047,0.0356,0.0393,0.0147,0.0126,0.0121,0.0050
1847,0.0288,0.0043,0.0277,0.0344,0.0067,0.0114,0.0100,0.0040
1848,0.0288,0.0043,0.0279,0.0308,0.0064,0.0113,0.0099,0.0040
1849,0.0306,0.0047,0.0297,0.0301,0.0112,0.0128,0.0113,0.0039
1850,0.0338,0.0050,0.0334,0.0296,0.0152,0.0132,0.0128,0.0050
1851,0.0433,0.0103,0.0409,0.0092,0.0089,0.0130,0.0090,0.0053
1852,0.0243,0.0073,0.0252,0.0125,0.0052,0.0109,0.0091,0.0036
1853,0.0716,0.0084,0.0694,0.0442,0.0047,0.0117,0.0110,0.0043
1854,0.1230,0.0069,0.1342,0.0715,0.0051,0.0076,0.0073,0.0060
1855,0.0228,0.0053,0.0253,0.0088,0.0032,0.0096,0.0098,0.0032
1856,0.0228,0.0054,0.0250,0.0083,0.0040,0.0097,0.0096,0.0036
1857,0.0227,0.0054,0.0241,0.0113,0.0060,0.0098,0.0070,0.0039
1858,0.0253,0.0063,0.0256,0.0115,0.0079,0.0101,0.0065,0.0045
1859,0.0345,0.0060,0.0393,0.0341,0.0065,0.0155,0.0130,0.0048
1860,0.0363,0.0057,0.0416,0.0483,0.0064,0.0130,0.0123,0.0055
1861,0.0409,0.0054,0.0456,0.0394,0.0043,0.0109,0.0105,0.0041
1862,0.0382,0.0054,0.0424,0.0319,0.0037,0.0108,0.0096,0.0037
1863,0.0315,0.0055,0.0358,0.0329,0.0042,0.0110,0.0105,0.0052
1864,0.0813,0.0084,0.0785,0.0534,0.0034,0.0115,0.0105,0.0039
1865,0.0316,0.0058,0.0355,0.0310,0.0051,0.0122,0.0107,0.0046
1866,0.0573,0.0041,0.0764,0.0332,0.0083,0.0152,0.0114,0.0055
1867,0.0511,0.0091,0.0566,0.0381,0.0233,0.0154,0.0153,0.0122
1868,0.0605,0.0056,0.0659,0.0450,0.0137,0.0127,0.0123,0.0073
1869,0.0433,0.0048,0.0457,0.0401,0.0062,0.0116,0.0102,0.0042
1870,0.0429,0.0049,0.0444,0.0364,0.0060,0.0116,0.0101,0.0042
1871,0.0504,0.0054,0.0526,0.0360,0.0105,0.0128,0.0117,0.0044
1872,0.0591,0.0059,0.0621,0.0349,0.0144,0.0137,0.0132,0.0070
1873,0.0647,0.0106,0.0584,0.0107,0.0095,0.0124,0.0086,0.0056
1874,0.0292,0.0074,0.0244,0.0119,0.0057,0.0107,0.0080,0.0044
1875,0.0928,0.0073,0.1010,0.0139,0.0078,0.0115,0.0063,0.0048
1876,0.0950,0.0085,0.0913,0.0553,0.0046,0.0113,0.0109,0.0063
1877,0.0227,0.0041,0.0223,0.0099,0.0033,0.0095,0.0082,0.0039
1878,0.0225,0.0037,0.0224,0.0096,0.0039,0.0093,0.0080,0.0043
1879,0.0554,0.0048,0.0747,0.0309,0.0050,0.0100,0.0079,0.0053
1880,0.0240,0.0049,0.0220,0.0113,0.0060,0.0096,0.0063,0.0046
1881,0.0274,0.0062,0.0248,0.0109,0.0079,0.0100,0.0061,0.0049
1882,0.0284,0.0054,0.0355,0.0242,0.0060,0.0175,0.0121,0.0056
1883,0.0282,0.0046,0.0378,0.0365,0.0059,0.0141,0.0129,0.0045
1884,0.0266,0.0047,0.0351,0.0268,0.0044,0.0127,0.0109,0.0036
1885,0.0247,0.0046,0.0315,0.0215,0.0040,0.0126,0.0101,0.0031
1886,0.0233,0.0045,0.0282,0.0232,0.0042,0.0124,0.0112,0.0045
1887,0.1037,0.0087,0.0992,0.0603,0.0056,0.0117,0.0130,0.0060
1888,0.0246,0.0046,0.0297,0.0228,0.0051,0.0137,0.0114,0.0040
1889,0.0359,0.0079,0.0371,0.0260,0.0367,0.0184,0.0212,0.0087
1890,0.0364,0.0065,0.0377,0.0246,0.0213,0.0131,0.0155,0.0096
1891,0.0536,0.0061,0.0735,0.0307,0.0031,0.0089,0.0066,0.0058
1892,0.0341,0.0083,0.0343,0.0255,0.0100,0.0111,0.0126,0.0063
1893,0.0346,0.0089,0.0346,0.0316,0.0091,0.0110,0.0125,0.0064
1894,0.0345,0.0076,0.0342,0.0313,0.0158,0.0125,0.0146,0.0070
1895,0.0373,0.0065,0.0361,0.0362,0.0216,0.0134,0.0162,0.0097
1896,0.0867,0.0176,0.0831,0.0076,0.0146,0.0166,0.0079,0.0101
1897,0.0829,0.0162,0.0790,0.0069,0.0072,0.0121,0.0086,0.0066
1898,0.0420,0.0045,0.0454,0.0288,0.0253,0.0194,0.0149,0.0092
1899,0.0833,0.0182,0.0805,0.0065,0.0033,0.0108,0.0063,0.0037
1900,0.0973,0.0184,0.0942,0.0065,0.0044,0.0109,0.0065,0.0039
1901,0.1026,0.0172,0.0980,0.0070,0.0074,0.0111,0.0073,0.0045
1902,0.1194,0.0161,0.1140,0.0076,0.0100,0.0122,0.0084,0.0075
1903,0.0665,0.0060,0.0904,0.0331,0.0034,0.0092,0.0065,0.0059
1904,0.0863,0.0138,0.0808,0.0389,0.0069,0.0157,0.0228,0.0093
1905,0.0822,0.0143,0.0763,0.0355,0.0082,0.0126,0.0148,0.0056
1906,0.0853,0.0160,0.0798,0.0379,0.0055,0.0141,0.0133,0.0050
1907,0.0970,0.0163,0.0911,0.0460,0.0039,0.0133,0.0130,0.0054
1908,0.1031,0.0151,0.0961,0.0490,0.0060,0.0122,0.0127,0.0045
1909,0.0309,0.0039,0.0363,0.0276,0.0147,0.0128,0.0114,0.0049
1910,0.1038,0.0140,0.0957,0.0548,0.0071,0.0124,0.0180,0.0065
1911,0.0269,0.0081,0.0296,0.0212,0.0337,0.0174,0.0173,0.0104
1912,0.0273,0.0078,0.0295,0.0206,0.0194,0.0123,0.0123,0.0088
1913,0.0250,0.0102,0.0279,0.0206,0.0090,0.0106,0.0110,0.0053
1914,0.0251,0.0108,0.0303,0.0246,0.0082,0.0104,0.0108,0.0055
1915,0.0829,0.0053,0.1084,0.0403,0.0039,0.0086,0.0070,0.0056
1916,0.0254,0.0093,0.0295,0.0252,0.0144,0.0114,0.0120,0.0057
1917,0.0268,0.0083,0.0309,0.0294,0.0197,0.0127,0.0134,0.0091
1918,0.0689,0.0160,0.0764,0.0089,0.0135,0.0156,0.0072,0.0093
1919,0.0668,0.0135,0.0727,0.0087,0.0068,0.0124,0.0101,0.0049
1920,0.0315,0.0038,0.0396,0.0305,0.0070,0.0099,0.0099,0.0045
1921,0.0665,0.0155,0.0737,0.0086,0.0030,0.0111,0.0079,0.0031
1922,0.0764,0.0157,0.0849,0.0086,0.0040,0.0111,0.0075,0.0031
1923,0.0808,0.0145,0.0884,0.0089,0.0069,0.0112,0.0074,0.0034
1924,0.0939,0.0136,0.1022,0.0089,0.0094,0.0128,0.0079,0.0058
1925,0.0882,0.0111,0.0916,0.0372,0.0063,0.0143,0.0200,0.0140
1926,0.0798,0.0118,0.0814,0.0343,0.0074,0.0121,0.0133,0.0064
1927,0.1021,0.0044,0.1292,0.0507,0.0042,0.0093,0.0074,0.0052
1928,0.0809,0.0139,0.0834,0.0381,0.0048,0.0124,0.0120,0.0043
1929,0.0901,0.0142,0.0935,0.0462,0.0035,0.0118,0.0116,0.0046
1930,0.0963,0.0129,0.0986,0.0482,0.0052,0.0116,0.0124,0.0046
1931,0.0396,0.0039,0.0499,0.0384,0.0065,0.0095,0.0098,0.0044
1932,0.0974,0.0114,0.0995,0.0523,0.0066,0.0127,0.0166,0.0080
1933,0.0295,0.0105,0.0326,0.0240,0.0313,0.0182,0.0172,0.0118
1934,0.0295,0.0095,0.0324,0.0226,0.0181,0.0130,0.0124,0.0093
1935,0.0277,0.0115,0.0322,0.0230,0.0082,0.0113,0.0111,0.0046
1936,0.0281,0.0120,0.0348,0.0261,0.0075,0.0107,0.0111,0.0045
1937,0.0279,0.0110,0.0329,0.0278,0.0134,0.0121,0.0120,0.0059
1938,0.0286,0.0104,0.0328,0.0322,0.0185,0.0132,0.0134,0.0097
1939,0.1358,0.0049,0.1384,0.0695,0.0030,0.0081,0.0109,0.0050
1940,0.0976,0.0142,0.1206,0.0160,0.0029,0.0105,0.0187,0.0043
1941,0.0625,0.0135,0.0729,0.0130,0.0128,0.0200,0.0086,0.0077
1942,0.0481,0.0039,0.0568,0.0425,0.0109,0.0113,0.0109,0.0041
1943,0.0623,0.0103,0.0704,0.0131,0.0070,0.0132,0.0084,0.0044
1944,0.0649,0.0116,0.0742,0.0135,0.0031,0.0113,0.0066,0.0034
1945,0.0718,0.0118,0.0836,0.0133,0.0040,0.0112,0.0066,0.0035
1946,0.0724,0.0110,0.0840,0.0132,0.0069,0.0114,0.0069,0.0036
1947,0.0789,0.0105,0.0923,0.0132,0.0092,0.0140,0.0073,0.0051
1948,0.0808,0.0090,0.0860,0.0379,0.0060,0.0195,0.0196,0.0168
1949,0.0711,0.0100,0.0731,0.0354,0.0069,0.0142,0.0129,0.0068
1950,0.0730,0.0115,0.0761,0.0402,0.0047,0.0149,0.0129,0.0032
1951,0.0796,0.0117,0.0844,0.0479,0.0039,0.0146,0.0126,0.0034
1952,0.0794,0.0077,0.1010,0.0112,0.0027,0.0076,0.0067,0.0046
1953,0.0554,0.0039,0.0629,0.0474,0.0151,0.0130,0.0122,0.0054
1954,0.0837,0.0108,0.0878,0.0489,0.0051,0.0140,0.0128,0.0042
1955,0.0834,0.0094,0.0883,0.0516,0.0064,0.0153,0.0158,0.0089
1956,0.0320,0.0070,0.0330,0.0258,0.0357,0.0238,0.0194,0.0058
1957,0.0331,0.0062,0.0347,0.0238,0.0208,0.0122,0.0145,0.0070
1958,0.0315,0.0083,0.0319,0.0244,0.0098,0.0102,0.0133,0.0060
1959,0.0299,0.0088,0.0295,0.0300,0.0088,0.0099,0.0132,0.0060
1960,0.0307,0.0076,0.0303,0.0306,0.0153,0.0111,0.0140,0.0057
1961,0.0337,0.0065,0.0322,0.0365,0.0209,0.0125,0.0153,0.0069
1962,0.0867,0.0200,0.0838,0.0069,0.0144,0.0203,0.0066,0.0049
1963,0.0761,0.0180,0.0728,0.0063,0.0068,0.0114,0.0086,0.0041
1964,0.1022,0.0069,0.1232,0.0612,0.0028,0.0089,0.0072,0.0083
1965,0.0838,0.0046,0.1059,0.0121,0.0026,0.0080,0.0072,0.0040
1966,0.0728,0.0192,0.0701,0.0059,0.0031,0.0106,0.0056,0.0035
1967,0.0843,0.0192,0.0810,0.0059,0.0043,0.0107,0.0060,0.0034
1968,0.0914,0.0190,0.0872,0.0064,0.0073,0.0106,0.0071,0.0034
1969,0.1111,0.0181,0.1065,0.0069,0.0100,0.0116,0.0082,0.0046
1970,0.0930,0.0151,0.0913,0.0359,0.0066,0.0189,0.0196,0.0044
1971,0.0791,0.0162,0.0759,0.0318,0.0075,0.0120,0.0143,0.0057
1972,0.0758,0.0178,0.0726,0.0324,0.0050,0.0110,0.0124,0.0044
1973,0.0859,0.0180,0.0825,0.0386,0.0035,0.0101,0.0117,0.0039
1974,0.0969,0.0173,0.0930,0.0424,0.0050,0.0105,0.0128,0.0056
1975,0.0614,0.0136,0.0679,0.0118,0.0087,0.0121,0.0060,0.0061
1976,0.1031,0.0157,0.0985,0.0496,0.0062,0.0118,0.0165,0.0049
1977,0.1015,0.0044,0.1259,0.0125,0.0026,0.0085,0.0084,0.0040
1978,0.0244,0.0080,0.0263,0.0211,0.0328,0.0224,0.0175,0.0063
1979,0.0241,0.0078,0.0260,0.0199,0.0190,0.0133,0.0132,0.0065
1980,0.0233,0.0103,0.0248,0.0201,0.0088,0.0108,0.0117,0.0057
1981,0.0225,0.0109,0.0256,0.0238,0.0080,0.0103,0.0112,0.0059
1982,0.0236,0.0095,0.0269,0.0253,0.0139,0.0118,0.0126,0.0049
1983,0.0255,0.0085,0.0289,0.0305,0.0192,0.0137,0.0145,0.0066
1984,0.0688,0.0189,0.0772,0.0087,0.0131,0.0157,0.0060,0.0050
1985,0.0603,0.0159,0.0667,0.0086,0.0064,0.0114,0.0107,0.0036
1986,0.0784,0.0065,0.0807,0.0430,0.0073,0.0123,0.0174,0.0107
1987,0.0529,0.0086,0.0572,0.0141,0.0046,0.0118,0.0080,0.0038
1988,0.0569,0.0170,0.0638,0.0085,0.0027,0.0111,0.0074,0.0045
1989,0.0646,0.0171,0.0727,0.0084,0.0039,0.0111,0.0070,0.0041
1990,0.1086,0.0060,0.1348,0.0109,0.0026,0.0073,0.0050,0.0045
1991,0.0705,0.0167,0.0785,0.0088,0.0067,0.0109,0.0072,0.0042
1992,0.0862,0.0161,0.0952,0.0088,0.0093,0.0119,0.0084,0.0037
1993,0.0950,0.0127,0.1019,0.0343,0.0062,0.0157,0.0175,0.0076
1994,0.0774,0.0145,0.0817,0.0306,0.0069,0.0116,0.0132,0.0047
1995,0.0717,0.0163,0.0764,0.0325,0.0047,0.0107,0.0117,0.0050
1996,0.0795,0.0165,0.0852,0.0392,0.0038,0.0103,0.0111,0.0043
1997,0.0905,0.0159,0.0958,0.0418,0.0047,0.0105,0.0126,0.0053
1998,0.0535,0.0077,0.0578,0.0098,0.0023,0.0108,0.0078,0.0036
1999,0.0968,0.0139,0.1022,0.0471,0.0059,0.0120,0.0155,0.0045
2000,0.0292,0.0109,0.0321,0.0254,0.0306,0.0203,0.0166,0.0080
2001,0.0267,0.0096,0.0298,0.0232,0.0178,0.0152,0.0137,0.0069
2002,0.1252,0.0084,0.1537,0.0113,0.0029,0.0074,0.0084,0.0050
2003,0.0263,0.0116,0.0305,0.0232,0.0080,0.0121,0.0112,0.0047
2004,0.0266,0.0121,0.0325,0.0263,0.0073,0.0112,0.0108,0.0049
2005,0.0273,0.0112,0.0329,0.0292,0.0130,0.0138,0.0127,0.0046
2006,0.0276,0.0107,0.0328,0.0345,0.0181,0.0153,0.0149,0.0072
2007,0.0610,0.0167,0.0728,0.0128,0.0125,0.0149,0.0068,0.0042
2008,0.0555,0.0130,0.0639,0.0129,0.0065,0.0122,0.0090,0.0039
2009,0.0612,0.0076,0.0666,0.0090,0.0033,0.0107,0.0080,0.0035
2010,0.0548,0.0135,0.0637,0.0134,0.0028,0.0116,0.0064,0.0050
2011,0.0598,0.0136,0.0710,0.0132,0.0038,0.0115,0.0064,0.0044
2012,0.0622,0.0137,0.0740,0.0130,0.0065,0.0114,0.0067,0.0049
2013,0.0710,0.0134,0.0851,0.0130,0.0089,0.0128,0.0073,0.0036
2014,0.0981,0.0094,0.1111,0.0466,0.0057,0.0113,0.0111,0.0084
2015,0.0838,0.0112,0.0921,0.0346,0.0060,0.0165,0.0167,0.0105
2016,0.0659,0.0133,0.0702,0.0313,0.0065,0.0129,0.0131,0.0038
2017,0.0617,0.0145,0.0667,0.0343,0.0049,0.0121,0.0122,0.0052
2018,0.0671,0.0146,0.0739,0.0409,0.0045,0.0118,0.0118,0.0044
2019,0.0754,0.0144,0.0821,0.0422,0.0047,0.0121,0.0128,0.0047
2020,0.0659,0.0080,0.0723,0.0126,0.0053,0.0110,0.0067,0.0042
2021,0.0796,0.0126,0.0875,0.0459,0.0059,0.0137,0.0150,0.0043
2022,0.0366,0.0122,0.0317,0.0344,0.0349,0.0197,0.0213,0.0065
2023,0.0294,0.0108,0.0295,0.0264,0.0203,0.0180,0.0156,0.0056
2024,0.0276,0.0114,0.0271,0.0259,0.0095,0.0127,0.0140,0.0059
2025,0.0297,0.0114,0.0284,0.0327,0.0085,0.0122,0.0141,0.0059
2026,0.0828,0.0079,0.0988,0.0475,0.0041,0.0081,0.0096,0.0075
2027,0.0359,0.0119,0.0338,0.0381,0.0149,0.0170,0.0145,0.0056
2028,0.0445,0.0110,0.0402,0.0485,0.0205,0.0189,0.0166,0.0054
2029,0.0731,0.0139,0.0664,0.0142,0.0142,0.0242,0.0095,0.0064
2030,0.0719,0.0139,0.0667,0.0085,0.0066,0.0130,0.0105,0.0044
2031,0.0752,0.0089,0.0833,0.0130,0.0074,0.0115,0.0070,0.0036
2032,0.0738,0.0166,0.0699,0.0067,0.0032,0.0105,0.0071,0.0031
2033,0.0856,0.0170,0.0812,0.0062,0.0044,0.0107,0.0078,0.0035
2034,0.0906,0.0157,0.0846,0.0066,0.0072,0.0110,0.0131,0.0040
2035,0.1032,0.0142,0.0961,0.0094,0.0100,0.0132,0.0148,0.0067
2036,0.0839,0.0141,0.0799,0.0344,0.0067,0.0201,0.0189,0.0046
2037,0.0726,0.0158,0.0689,0.0294,0.0073,0.0145,0.0137,0.0046
2038,0.0849,0.0073,0.1026,0.0507,0.0030,0.0072,0.0092,0.0079
2039,0.0696,0.0187,0.0675,0.0295,0.0048,0.0117,0.0135,0.0040
2040,0.0789,0.0191,0.0767,0.0350,0.0034,0.0109,0.0126,0.0040
2041,0.0906,0.0178,0.0867,0.0397,0.0047,0.0121,0.0124,0.0049
2042,0.0747,0.0076,0.0786,0.0402,0.0073,0.0137,0.0158,0.0059
2043,0.0966,0.0155,0.0910,0.0478,0.0058,0.0140,0.0143,0.0054
2044,0.0299,0.0168,0.0295,0.0274,0.0319,0.0195,0.0194,0.0055
2045,0.0249,0.0141,0.0258,0.0215,0.0185,0.0171,0.0137,0.0054
2046,0.0219,0.0143,0.0238,0.0210,0.0086,0.0140,0.0118,0.0067
2047,0.0231,0.0142,0.0276,0.0257,0.0078,0.0136,0.0115,0.0068
2048,0.0283,0.0146,0.0333,0.0308,0.0136,0.0168,0.0130,0.0058
2049,0.0319,0.0141,0.0356,0.0394,0.0188,0.0180,0.0148,0.0052
2050,0.0999,0.0073,0.1199,0.0601,0.0026,0.0074,0.0091,0.0079
2051,0.0638,0.0120,0.0667,0.0116,0.0129,0.0206,0.0077,0.0071
2052,0.0595,0.0112,0.0631,0.0089,0.0060,0.0125,0.0082,0.0037
2053,0.0683,0.0066,0.0721,0.0374,0.0069,0.0110,0.0117,0.0053
2054,0.0592,0.0141,0.0650,0.0088,0.0028,0.0105,0.0055,0.0034
2055,0.0674,0.0147,0.0745,0.0086,0.0040,0.0106,0.0055,0.0034
2056,0.0723,0.0129,0.0782,0.0085,0.0066,0.0109,0.0076,0.0040
2057,0.0831,0.0114,0.0888,0.0093,0.0091,0.0129,0.0086,0.0057
2058,0.0814,0.0116,0.0845,0.0343,0.0062,0.0186,0.0171,0.0063
2059,0.0685,0.0136,0.0714,0.0288,0.0067,0.0145,0.0133,0.0040
2060,0.0657,0.0172,0.0710,0.0301,0.0047,0.0116,0.0125,0.0042
2061,0.0731,0.0177,0.0795,0.0364,0.0038,0.0112,0.0116,0.0037
2062,0.1430,0.0052,0.1437,0.0762,0.0041,0.0064,0.0111,0.0050
2063,0.1100,0.0076,0.1299,0.0651,0.0034,0.0072,0.0090,0.0074
2064,0.0665,0.0061,0.0710,0.0420,0.0050,0.0100,0.0102,0.0041
2065,0.0831,0.0161,0.0876,0.0397,0.0045,0.0124,0.0123,0.0043
2066,0.0876,0.0133,0.0911,0.0457,0.0057,0.0146,0.0138,0.0058
2067,0.0354,0.0207,0.0371,0.0300,0.0295,0.0206,0.0189,0.0087
2068,0.0323,0.0166,0.0332,0.0243,0.0171,0.0170,0.0139,0.0061
2069,0.0261,0.0158,0.0305,0.0238,0.0078,0.0150,0.0117,0.0061
2070,0.0269,0.0156,0.0342,0.0274,0.0072,0.0149,0.0117,0.0062
2071,0.0284,0.0165,0.0352,0.0317,0.0128,0.0172,0.0134,0.0052
2072,0.0287,0.0167,0.0330,0.0382,0.0177,0.0182,0.0150,0.0057
2073,0.0648,0.0105,0.0704,0.0151,0.0122,0.0189,0.0083,0.0069
2074,0.0568,0.0081,0.0622,0.0136,0.0060,0.0128,0.0083,0.0041
2075,0.0748,0.0060,0.0799,0.0515,0.0044,0.0097,0.0100,0.0038
2076,0.1271,0.0081,0.1470,0.0716,0.0048,0.0077,0.0088,0.0074
2077,0.0568,0.0103,0.0646,0.0137,0.0027,0.0112,0.0064,0.0041
2078,0.0622,0.0109,0.0724,0.0135,0.0038,0.0113,0.0065,0.0038
2079,0.0650,0.0091,0.0745,0.0133,0.0062,0.0114,0.0083,0.0046
2080,0.0714,0.0079,0.0818,0.0140,0.0087,0.0132,0.0083,0.0052
2081,0.0646,0.0098,0.0682,0.0351,0.0059,0.0226,0.0167,0.0088
2082,0.0533,0.0120,0.0562,0.0294,0.0063,0.0156,0.0139,0.0036
2083,0.0538,0.0155,0.0589,0.0317,0.0049,0.0123,0.0132,0.0043
2084,0.0590,0.0160,0.0657,0.0379,0.0046,0.0120,0.0124,0.0035
2085,0.0644,0.0145,0.0696,0.0397,0.0045,0.0134,0.0132,0.0039
2086,0.1107,0.0071,0.1319,0.0655,0.0035,0.0079,0.0071,0.0075
2087,0.0658,0.0118,0.0710,0.0441,0.0056,0.0164,0.0140,0.0063
2088,0.0432,0.0080,0.0469,0.0324,0.0106,0.0132,0.0102,0.0120
2089,0.0269,0.0095,0.0278,0.0261,0.0368,0.0162,0.0214,0.0088
2090,0.0297,0.0064,0.0312,0.0276,0.0212,0.0120,0.0153,0.0097
2091,0.0319,0.0065,0.0319,0.0243,0.0098,0.0101,0.0123,0.0060
2092,0.0293,0.0071,0.0294,0.0220,0.0090,0.0101,0.0123,0.0060
2093,0.0303,0.0059,0.0321,0.0222,0.0159,0.0115,0.0140,0.0069
2094,0.0291,0.0058,0.0319,0.0219,0.0218,0.0122,0.0158,0.0096
2095,0.0478,0.0171,0.0461,0.0085,0.0150,0.0144,0.0082,0.0092
2096,0.0448,0.0158,0.0432,0.0082,0.0077,0.0118,0.0120,0.0062
2097,0.0756,0.0060,0.0781,0.0402,0.0073,0.0111,0.0115,0.0045
2098,0.0880,0.0062,0.0926,0.0517,0.0045,0.0098,0.0112,0.0054
2099,0.0433,0.0180,0.0427,0.0085,0.0039,0.0107,0.0095,0.0036
2100,0.0506,0.0182,0.0495,0.0084,0.0049,0.0108,0.0092,0.0038
2101,0.0514,0.0055,0.0551,0.0355,0.0063,0.0101,0.0092,0.0125
2102,0.0528,0.0169,0.0502,0.0082,0.0078,0.0109,0.0091,0.0043
2103,0.0655,0.0158,0.0617,0.0086,0.0104,0.0114,0.0101,0.0071
2104,0.0570,0.0133,0.0557,0.0197,0.0066,0.0149,0.0172,0.0070
2105,0.0463,0.0134,0.0430,0.0251,0.0080,0.0135,0.0128,0.0048
2106,0.0428,0.0145,0.0392,0.0203,0.0055,0.0156,0.0134,0.0045
2107,0.0474,0.0148,0.0432,0.0173,0.0040,0.0150,0.0131,0.0050
2108,0.0536,0.0140,0.0489,0.0176,0.0060,0.0133,0.0116,0.0041
2109,0.0950,0.0065,0.0997,0.0548,0.0054,0.0110,0.0139,0.0046
2110,0.0551,0.0130,0.0499,0.0191,0.0071,0.0127,0.0153,0.0054
2111,0.0250,0.0078,0.0254,0.0262,0.0338,0.0155,0.0170,0.0105
2112,0.0234,0.0070,0.0244,0.0266,0.0196,0.0116,0.0119,0.0089
2113,0.0520,0.0048,0.0547,0.0339,0.0036,0.0111,0.0075,0.0117
2114,0.0240,0.0086,0.0240,0.0243,0.0089,0.0101,0.0109,0.0050
2115,0.0242,0.0092,0.0240,0.0224,0.0082,0.0098,0.0106,0.0052
2116,0.0255,0.0078,0.0258,0.0224,0.0146,0.0108,0.0116,0.0056
2117,0.0268,0.0070,0.0278,0.0219,0.0201,0.0119,0.0128,0.0091
2118,0.0419,0.0153,0.0460,0.0113,0.0138,0.0136,0.0076,0.0082
2119,0.0407,0.0130,0.0432,0.0111,0.0073,0.0123,0.0141,0.0044
2120,0.0306,0.0074,0.0337,0.0290,0.0237,0.0182,0.0141,0.0102
2121,0.0388,0.0150,0.0424,0.0115,0.0035,0.0110,0.0117,0.0031
2122,0.0431,0.0153,0.0476,0.0114,0.0044,0.0109,0.0109,0.0030
2123,0.0445,0.0140,0.0481,0.0112,0.0074,0.0110,0.0106,0.0032
2124,0.0534,0.0130,0.0574,0.0113,0.0098,0.0120,0.0109,0.0052
2125,0.0367,0.0049,0.0398,0.0267,0.0039,0.0120,0.0075,0.0116
2126,0.0693,0.0108,0.0725,0.0190,0.0060,0.0138,0.0144,0.0115
2127,0.0547,0.0111,0.0545,0.0216,0.0072,0.0128,0.0116,0.0052
2128,0.0478,0.0124,0.0476,0.0182,0.0047,0.0134,0.0117,0.0039
2129,0.0509,0.0127,0.0510,0.0190,0.0034,0.0130,0.0113,0.0042
2130,0.0579,0.0119,0.0576,0.0194,0.0052,0.0122,0.0111,0.0041
2131,0.0266,0.0051,0.0284,0.0248,0.0137,0.0151,0.0114,0.0063
2132,0.0598,0.0106,0.0597,0.0209,0.0065,0.0128,0.0138,0.0067
2133,0.0308,0.0089,0.0314,0.0226,0.0316,0.0163,0.0171,0.0120
2134,0.0257,0.0083,0.0277,0.0230,0.0185,0.0125,0.0117,0.0095
2135,0.0249,0.0102,0.0276,0.0225,0.0083,0.0109,0.0104,0.0046
2136,0.0246,0.0107,0.0274,0.0218,0.0077,0.0102,0.0102,0.0045
2137,0.0345,0.0053,0.0376,0.0260,0.0051,0.0096,0.0086,0.0123
2138,0.0255,0.0096,0.0278,0.0216,0.0138,0.0118,0.0113,0.0060
2139,0.0279,0.0090,0.0300,0.0220,0.0191,0.0126,0.0126,0.0097
2140,0.0450,0.0126,0.0482,0.0153,0.0132,0.0185,0.0076,0.0065
2141,0.0454,0.0095,0.0463,0.0154,0.0075,0.0131,0.0111,0.0037
2142,0.0248,0.0051,0.0267,0.0252,0.0065,0.0118,0.0093,0.0044
2143,0.0467,0.0108,0.0484,0.0164,0.0038,0.0110,0.0082,0.0032
2144,0.0491,0.0111,0.0524,0.0162,0.0045,0.0108,0.0078,0.0031
2145,0.0475,0.0103,0.0504,0.0156,0.0074,0.0111,0.0080,0.0033
2146,0.0503,0.0097,0.0545,0.0155,0.0096,0.0133,0.0088,0.0042
2147,0.0678,0.0092,0.0697,0.0193,0.0057,0.0200,0.0141,0.0144
2148,0.0533,0.0095,0.0501,0.0204,0.0067,0.0153,0.0123,0.0053
2149,0.0441,0.0062,0.0460,0.0294,0.0060,0.0102,0.0093,0.0127
2150,0.0478,0.0101,0.0447,0.0191,0.0045,0.0161,0.0130,0.0030
2151,0.0488,0.0102,0.0466,0.0219,0.0037,0.0159,0.0125,0.0030
2152,0.0539,0.0099,0.0516,0.0218,0.0050,0.0149,0.0122,0.0034
2153,0.0245,0.0053,0.0311,0.0305,0.0061,0.0110,0.0092,0.0043
2154,0.0541,0.0088,0.0529,0.0227,0.0063,0.0159,0.0136,0.0073
2155,0.0264,0.0081,0.0269,0.0242,0.0359,0.0216,0.0179,0.0055
2156,0.0290,0.0059,0.0309,0.0267,0.0208,0.0113,0.0142,0.0069
2157,0.0338,0.0064,0.0346,0.0245,0.0095,0.0096,0.0135,0.0056
2158,0.0320,0.0070,0.0329,0.0222,0.0087,0.0093,0.0135,0.0056
2159,0.0313,0.0058,0.0338,0.0222,0.0154,0.0104,0.0137,0.0055
2160,0.0297,0.0055,0.0329,0.0220,0.0211,0.0117,0.0149,0.0067
2161,0.0501,0.0080,0.0547,0.0189,0.0024,0.0106,0.0125,0.0054
2162,0.0495,0.0193,0.0484,0.0088,0.0147,0.0182,0.0091,0.0043
2163,0.0412,0.0175,0.0401,0.0086,0.0073,0.0107,0.0123,0.0039
2164,0.0278,0.0054,0.0353,0.0358,0.0102,0.0135,0.0105,0.0046
2165,0.0377,0.0189,0.0372,0.0091,0.0037,0.0103,0.0086,0.0037
2166,0.0420,0.0190,0.0410,0.0089,0.0048,0.0104,0.0082,0.0035
2167,0.0454,0.0186,0.0434,0.0086,0.0076,0.0102,0.0086,0.0035
2168,0.0599,0.0177,0.0570,0.0089,0.0104,0.0106,0.0102,0.0042
2169,0.0686,0.0151,0.0718,0.0194,0.0065,0.0172,0.0163,0.0049
2170,0.0463,0.0154,0.0464,0.0278,0.0073,0.0118,0.0125,0.0066
2171,0.0370,0.0162,0.0356,0.0244,0.0050,0.0114,0.0121,0.0047
2172,0.0398,0.0163,0.0381,0.0185,0.0035,0.0105,0.0114,0.0040
2173,0.0583,0.0050,0.0635,0.0221,0.0022,0.0090,0.0050,0.0052
2174,0.0498,0.0162,0.0483,0.0174,0.0051,0.0105,0.0115,0.0063
2175,0.0318,0.0058,0.0398,0.0422,0.0142,0.0147,0.0120,0.0070
2176,0.0569,0.0149,0.0552,0.0176,0.0062,0.0111,0.0141,0.0056
2177,0.0266,0.0072,0.0261,0.0242,0.0330,0.0203,0.0152,0.0063
2178,0.0225,0.0066,0.0234,0.0253,0.0192,0.0129,0.0127,0.0064
2179,0.0240,0.0087,0.0240,0.0242,0.0087,0.0106,0.0120,0.0053
2180,0.0251,0.0093,0.0246,0.0226,0.0079,0.0100,0.0115,0.0055
2181,0.0248,0.0079,0.0253,0.0223,0.0142,0.0116,0.0125,0.0046
2182,0.0259,0.0070,0.0271,0.0220,0.0195,0.0134,0.0139,0.0064
2183,0.0437,0.0181,0.0487,0.0116,0.0135,0.0134,0.0087,0.0043
2184,0.0372,0.0152,0.0403,0.0115,0.0069,0.0110,0.0150,0.0036
2185,0.1570,0.0053,0.1557,0.0852,0.0057,0.0063,0.0120,0.0050
2186,0.0571,0.0124,0.0667,0.0122,0.0091,0.0133,0.0052,0.0056
2187,0.0512,0.0045,0.0565,0.0254,0.0025,0.0082,0.0070,0.0035
2188,0.0334,0.0165,0.0367,0.0120,0.0033,0.0109,0.0113,0.0049
2189,0.0357,0.0166,0.0398,0.0118,0.0043,0.0109,0.0104,0.0044
2190,0.0381,0.0161,0.0420,0.0116,0.0071,0.0104,0.0106,0.0045
2191,0.0485,0.0154,0.0534,0.0117,0.0098,0.0108,0.0118,0.0035
2192,0.0794,0.0130,0.0863,0.0189,0.0059,0.0138,0.0151,0.0056
2193,0.0557,0.0139,0.0587,0.0239,0.0067,0.0113,0.0118,0.0055
2194,0.0412,0.0147,0.0433,0.0202,0.0045,0.0105,0.0109,0.0057
2195,0.0429,0.0149,0.0453,0.0178,0.0035,0.0102,0.0103,0.0047
2196,0.0544,0.0148,0.0571,0.0179,0.0046,0.0101,0.0111,0.0061
2197,0.0480,0.0068,0.0540,0.0132,0.0051,0.0125,0.0060,0.0045
2198,0.0616,0.0133,0.0649,0.0190,0.0058,0.0111,0.0130,0.0046
2199,0.0536,0.0045,0.0572,0.0259,0.0026,0.0088,0.0080,0.0033
2200,0.0370,0.0089,0.0366,0.0218,0.0309,0.0184,0.0144,0.0080
2201,0.0284,0.0081,0.0292,0.0219,0.0182,0.0152,0.0129,0.0070
2202,0.0248,0.0102,0.0273,0.0220,0.0081,0.0121,0.0110,0.0046
2203,0.0238,0.0108,0.0265,0.0216,0.0075,0.0110,0.0104,0.0047
2204,0.0246,0.0097,0.0273,0.0217,0.0135,0.0139,0.0123,0.0046
2205,0.0253,0.0091,0.0279,0.0228,0.0186,0.0153,0.0141,0.0072
2206,0.0457,0.0157,0.0503,0.0154,0.0129,0.0128,0.0079,0.0036
2207,0.0416,0.0121,0.0430,0.0155,0.0071,0.0118,0.0122,0.0041
2208,0.0780,0.0060,0.0815,0.0465,0.0048,0.0115,0.0102,0.0044
2209,0.1254,0.0074,0.1465,0.0713,0.0049,0.0079,0.0076,0.0072
2210,0.0402,0.0127,0.0419,0.0166,0.0034,0.0112,0.0084,0.0053
2211,0.0413,0.0128,0.0442,0.0165,0.0043,0.0111,0.0079,0.0047
2212,0.0561,0.0047,0.0595,0.0237,0.0025,0.0084,0.0050,0.0044
2213,0.0414,0.0128,0.0444,0.0157,0.0070,0.0108,0.0083,0.0052
2214,0.0457,0.0125,0.0506,0.0156,0.0095,0.0118,0.0097,0.0036
2215,0.0736,0.0119,0.0788,0.0189,0.0056,0.0154,0.0147,0.0082
2216,0.0514,0.0129,0.0510,0.0219,0.0062,0.0134,0.0127,0.0045
2217,0.0389,0.0130,0.0381,0.0189,0.0046,0.0128,0.0118,0.0062
2218,0.0388,0.0130,0.0388,0.0189,0.0041,0.0125,0.0112,0.0051
2219,0.0478,0.0135,0.0483,0.0191,0.0046,0.0124,0.0120,0.0057
2220,0.0485,0.0053,0.0549,0.0105,0.0022,0.0113,0.0058,0.0043
2221,0.0526,0.0123,0.0547,0.0201,0.0058,0.0136,0.0132,0.0038
2222,0.0286,0.0116,0.0327,0.0230,0.0350,0.0176,0.0201,0.0063
2223,0.0351,0.0100,0.0376,0.0241,0.0203,0.0159,0.0152,0.0053
2224,0.0665,0.0054,0.0695,0.0221,0.0024,0.0092,0.0059,0.0054
2225,0.0341,0.0102,0.0346,0.0238,0.0093,0.0117,0.0145,0.0056
2226,0.0303,0.0102,0.0311,0.0220,0.0084,0.0114,0.0147,0.0056
2227,0.0286,0.0110,0.0302,0.0224,0.0150,0.0155,0.0142,0.0055
2228,0.0283,0.0103,0.0302,0.0258,0.0207,0.0172,0.0162,0.0052
2229,0.0401,0.0147,0.0366,0.0154,0.0145,0.0206,0.0111,0.0070
2230,0.0395,0.0132,0.0370,0.0113,0.0071,0.0114,0.0101,0.0046
2231,0.0534,0.0051,0.0619,0.0100,0.0031,0.0110,0.0061,0.0043
2232,0.0397,0.0157,0.0381,0.0113,0.0037,0.0095,0.0067,0.0032
2233,0.0446,0.0163,0.0423,0.0109,0.0049,0.0099,0.0069,0.0036
2234,0.0460,0.0147,0.0422,0.0102,0.0076,0.0099,0.0096,0.0042
2235,0.0538,0.0133,0.0480,0.0118,0.0103,0.0113,0.0108,0.0067
2236,0.0500,0.0059,0.0553,0.0389,0.0069,0.0078,0.0146,0.0052
2237,0.0585,0.0129,0.0576,0.0198,0.0064,0.0189,0.0158,0.0054
2238,0.0414,0.0144,0.0403,0.0287,0.0071,0.0139,0.0129,0.0052
2239,0.0347,0.0168,0.0345,0.0256,0.0047,0.0116,0.0135,0.0041
2240,0.0363,0.0172,0.0359,0.0195,0.0034,0.0107,0.0126,0.0039
2241,0.0453,0.0162,0.0436,0.0179,0.0047,0.0116,0.0118,0.0051
2242,0.0564,0.0058,0.0664,0.0121,0.0052,0.0114,0.0053,0.0048
2243,0.0512,0.0142,0.0481,0.0179,0.0059,0.0132,0.0125,0.0053
2244,0.0288,0.0166,0.0308,0.0230,0.0321,0.0174,0.0178,0.0053
2245,0.0305,0.0137,0.0310,0.0245,0.0187,0.0152,0.0133,0.0051
2246,0.0259,0.0134,0.0249,0.0242,0.0085,0.0132,0.0121,0.0064
2247,0.0248,0.0134,0.0238,0.0224,0.0078,0.0130,0.0118,0.0066
2248,0.0551,0.0053,0.0597,0.0408,0.0051,0.0065,0.0114,0.0047
2249,0.0252,0.0141,0.0251,0.0221,0.0139,0.0156,0.0128,0.0057
2250,0.0271,0.0138,0.0276,0.0237,0.0192,0.0164,0.0144,0.0048
2251,0.0432,0.0130,0.0418,0.0144,0.0133,0.0170,0.0127,0.0075
2252,0.0388,0.0106,0.0388,0.0124,0.0065,0.0109,0.0133,0.0038
2253,0.0623,0.0072,0.0748,0.0121,0.0074,0.0126,0.0056,0.0044
2254,0.0369,0.0129,0.0392,0.0132,0.0032,0.0095,0.0094,0.0034
2255,0.0397,0.0136,0.0427,0.0129,0.0044,0.0098,0.0085,0.0034
2256,0.0413,0.0116,0.0429,0.0122,0.0070,0.0096,0.0083,0.0041
2257,0.0477,0.0105,0.0486,0.0126,0.0096,0.0109,0.0092,0.0056
2258,0.0635,0.0104,0.0649,0.0191,0.0059,0.0171,0.0146,0.0047
2259,0.0464,0.0122,0.0469,0.0246,0.0065,0.0139,0.0132,0.0043
2260,0.0496,0.0047,0.0523,0.0395,0.0035,0.0073,0.0105,0.0050
2261,0.0375,0.0153,0.0400,0.0209,0.0044,0.0110,0.0122,0.0045
2262,0.0388,0.0157,0.0418,0.0180,0.0035,0.0105,0.0112,0.0037
2263,0.0479,0.0145,0.0493,0.0182,0.0043,0.0116,0.0118,0.0047
2264,0.0819,0.0057,0.0870,0.0449,0.0068,0.0144,0.0162,0.0073
2265,0.0522,0.0120,0.0529,0.0193,0.0056,0.0136,0.0123,0.0052
2266,0.0389,0.0206,0.0407,0.0235,0.0298,0.0179,0.0184,0.0091
2267,0.0341,0.0163,0.0357,0.0235,0.0174,0.0149,0.0135,0.0061
2268,0.0245,0.0151,0.0262,0.0227,0.0078,0.0138,0.0112,0.0059
2269,0.0236,0.0149,0.0256,0.0217,0.0074,0.0139,0.0110,0.0061
2270,0.0267,0.0161,0.0278,0.0221,0.0132,0.0157,0.0127,0.0053
2271,0.0328,0.0165,0.0330,0.0236,0.0181,0.0164,0.0144,0.0053
2272,0.0527,0.0048,0.0558,0.0362,0.0029,0.0079,0.0105,0.0049
2273,0.0567,0.0120,0.0538,0.0177,0.0126,0.0159,0.0126,0.0074
2274,0.0467,0.0081,0.0440,0.0164,0.0066,0.0112,0.0127,0.0041
2275,0.0769,0.0050,0.0816,0.0413,0.0065,0.0118,0.0122,0.0041
2276,0.0446,0.0087,0.0447,0.0172,0.0033,0.0101,0.0082,0.0040
2277,0.0454,0.0095,0.0472,0.0171,0.0042,0.0103,0.0076,0.0036
2278,0.0458,0.0077,0.0465,0.0163,0.0068,0.0101,0.0079,0.0046
2279,0.0488,0.0073,0.0497,0.0167,0.0092,0.0113,0.0087,0.0049
2280,0.0514,0.0087,0.0500,0.0191,0.0056,0.0213,0.0136,0.0067
2281,0.0368,0.0107,0.0344,0.0225,0.0061,0.0155,0.0147,0.0036
2282,0.0327,0.0135,0.0327,0.0191,0.0046,0.0128,0.0133,0.0049
2283,0.0329,0.0140,0.0333,0.0184,0.0042,0.0124,0.0123,0.0038
2284,0.0562,0.0050,0.0580,0.0373,0.0036,0.0063,0.0106,0.0049
2285,0.0375,0.0129,0.0365,0.0188,0.0044,0.0133,0.0133,0.0042
2286,0.0776,0.0047,0.0831,0.0482,0.0051,0.0113,0.0111,0.0036
2287,0.0387,0.0105,0.0378,0.0199,0.0056,0.0159,0.0132,0.0054
2288,0.0364,0.0118,0.0347,0.0387,0.0368,0.0148,0.0233,0.0089
2289,0.0288,0.0074,0.0284,0.0393,0.0212,0.0115,0.0162,0.0098
2290,0.0335,0.0049,0.0319,0.0376,0.0097,0.0096,0.0131,0.0057
2291,0.0354,0.0054,0.0338,0.0359,0.0092,0.0096,0.0132,0.0057
2292,0.0350,0.0048,0.0351,0.0363,0.0162,0.0108,0.0144,0.0068
2293,0.0337,0.0062,0.0350,0.0351,0.0222,0.0115,0.0165,0.0095
2294,0.0336,0.0165,0.0336,0.0116,0.0152,0.0131,0.0114,0.0083
2295,0.0321,0.0154,0.0324,0.0115,0.0081,0.0120,0.0164,0.0059
2296,0.0657,0.0052,0.0653,0.0414,0.0047,0.0062,0.0115,0.0048
2297,0.0853,0.0047,0.0922,0.0577,0.0048,0.0111,0.0111,0.0032
2298,0.0298,0.0177,0.0310,0.0130,0.0044,0.0109,0.0137,0.0036
2299,0.0325,0.0180,0.0333,0.0128,0.0054,0.0110,0.0129,0.0037
2300,0.0326,0.0166,0.0323,0.0116,0.0083,0.0111,0.0126,0.0042
2301,0.0408,0.0155,0.0391,0.0118,0.0109,0.0111,0.0133,0.0066
2302,0.0550,0.0134,0.0592,0.0328,0.0064,0.0154,0.0137,0.0051
2303,0.0384,0.0126,0.0394,0.0407,0.0080,0.0149,0.0119,0.0045
2304,0.0289,0.0132,0.0280,0.0355,0.0056,0.0176,0.0139,0.0041
2305,0.0293,0.0133,0.0280,0.0299,0.0042,0.0171,0.0136,0.0045
2306,0.0347,0.0130,0.0332,0.0293,0.0061,0.0149,0.0112,0.0039
2307,0.0371,0.0122,0.0356,0.0272,0.0071,0.0138,0.0132,0.0046
2308,0.0958,0.0046,0.1028,0.0563,0.0046,0.0110,0.0121,0.0045
2309,0.0778,0.0062,0.0884,0.0440,0.0095,0.0136,0.0101,0.0086
2310,0.0355,0.0055,0.0399,0.0288,0.0097,0.0135,0.0101,0.0086
2311,0.0406,0.0087,0.0400,0.0365,0.0339,0.0144,0.0187,0.0106
2312,0.0287,0.0069,0.0294,0.0358,0.0198,0.0114,0.0127,0.0090
2313,0.0229,0.0070,0.0244,0.0346,0.0091,0.0100,0.0120,0.0047
2314,0.0239,0.0077,0.0244,0.0338,0.0086,0.0097,0.0117,0.0049
2315,0.0245,0.0064,0.0256,0.0339,0.0151,0.0107,0.0123,0.0056
2316,0.0261,0.0064,0.0276,0.0333,0.0207,0.0116,0.0133,0.0090
2317,0.0353,0.0145,0.0375,0.0145,0.0141,0.0127,0.0107,0.0072
2318,0.0357,0.0124,0.0365,0.0143,0.0078,0.0125,0.0184,0.0040
2319,0.0879,0.0060,0.0918,0.0568,0.0039,0.0115,0.0099,0.0049
2320,0.0993,0.0050,0.1072,0.0579,0.0055,0.0123,0.0147,0.0037
2321,0.0327,0.0145,0.0346,0.0155,0.0041,0.0112,0.0158,0.0032
2322,0.0334,0.0148,0.0357,0.0153,0.0050,0.0112,0.0148,0.0031
2323,0.0414,0.0039,0.0440,0.0347,0.0059,0.0105,0.0089,0.0092
2324,0.0329,0.0134,0.0344,0.0145,0.0079,0.0111,0.0145,0.0032
2325,0.0381,0.0125,0.0397,0.0145,0.0104,0.0118,0.0146,0.0046
2326,0.0721,0.0113,0.0774,0.0285,0.0057,0.0145,0.0126,0.0092
2327,0.0554,0.0106,0.0561,0.0334,0.0071,0.0140,0.0114,0.0046
2328,0.0398,0.0111,0.0389,0.0282,0.0046,0.0148,0.0120,0.0039
2329,0.0379,0.0112,0.0370,0.0245,0.0033,0.0145,0.0115,0.0039
2330,0.0460,0.0110,0.0452,0.0248,0.0052,0.0133,0.0107,0.0039
2331,0.0824,0.0079,0.0802,0.0550,0.0098,0.0125,0.0106,0.0081
2332,0.0484,0.0100,0.0483,0.0242,0.0065,0.0135,0.0119,0.0055
2333,0.0535,0.0080,0.0508,0.0289,0.0317,0.0151,0.0190,0.0122
2334,0.0408,0.0075,0.0387,0.0288,0.0189,0.0125,0.0123,0.0097
2335,0.0447,0.0043,0.0456,0.0358,0.0034,0.0106,0.0072,0.0086
2336,0.0322,0.0089,0.0334,0.0290,0.0088,0.0111,0.0112,0.0046
2337,0.0267,0.0095,0.0291,0.0288,0.0083,0.0103,0.0109,0.0046
2338,0.0266,0.0083,0.0285,0.0283,0.0146,0.0120,0.0119,0.0061
2339,0.0263,0.0078,0.0289,0.0279,0.0198,0.0125,0.0130,0.0097
2340,0.0447,0.0117,0.0434,0.0179,0.0135,0.0175,0.0094,0.0054
2341,0.0469,0.0087,0.0430,0.0182,0.0081,0.0131,0.0145,0.0032
2342,0.0452,0.0057,0.0409,0.0356,0.0270,0.0158,0.0194,0.0089
2343,0.0475,0.0100,0.0445,0.0197,0.0044,0.0109,0.0113,0.0031
2344,0.0465,0.0103,0.0447,0.0195,0.0051,0.0107,0.0106,0.0029
2345,0.0435,0.0095,0.0411,0.0184,0.0080,0.0111,0.0107,0.0032
2346,0.0439,0.0089,0.0423,0.0181,0.0102,0.0131,0.0116,0.0035
2347,0.0323,0.0043,0.0372,0.0267,0.0037,0.0113,0.0071,0.0085
2348,0.0731,0.0103,0.0748,0.0244,0.0053,0.0208,0.0132,0.0121
2349,0.0587,0.0094,0.0539,0.0280,0.0065,0.0168,0.0134,0.0042
2350,0.0452,0.0088,0.0387,0.0231,0.0043,0.0174,0.0136,0.0034
2351,0.0411,0.0088,0.0352,0.0210,0.0035,0.0174,0.0130,0.0030
2352,0.0475,0.0092,0.0420,0.0215,0.0050,0.0161,0.0125,0.0032
2353,0.0322,0.0044,0.0320,0.0334,0.0158,0.0141,0.0166,0.0061
2354,0.0478,0.0086,0.0440,0.0215,0.0063,0.0168,0.0127,0.0058
2355,0.0382,0.0103,0.0358,0.0363,0.0359,0.0196,0.0184,0.0053
2356,0.0283,0.0068,0.0280,0.0381,0.0208,0.0110,0.0149,0.0070
2357,0.0339,0.0048,0.0330,0.0373,0.0096,0.0096,0.0148,0.0052
2358,0.0370,0.0053,0.0363,0.0358,0.0089,0.0093,0.0148,0.0053
2359,0.0328,0.0040,0.0417,0.0224,0.0049,0.0097,0.0082,0.0090
2360,0.0351,0.0046,0.0359,0.0358,0.0157,0.0102,0.0144,0.0053
2361,0.0335,0.0056,0.0353,0.0343,0.0215,0.0114,0.0155,0.0066
2362,0.0359,0.0186,0.0363,0.0125,0.0149,0.0169,0.0136,0.0040
2363,0.0306,0.0170,0.0312,0.0126,0.0078,0.0106,0.0169,0.0038
2364,0.0340,0.0044,0.0357,0.0380,0.0077,0.0110,0.0122,0.0046
2365,0.0275,0.0186,0.0285,0.0142,0.0042,0.0104,0.0128,0.0039
2366,0.0283,0.0187,0.0291,0.0139,0.0053,0.0105,0.0119,0.0037
2367,0.0291,0.0182,0.0294,0.0126,0.0082,0.0102,0.0122,0.0037
2368,0.0375,0.0172,0.0367,0.0127,0.0108,0.0100,0.0138,0.0040
2369,0.0693,0.0155,0.0773,0.0334,0.0063,0.0169,0.0159,0.0066
2370,0.0426,0.0147,0.0470,0.0444,0.0071,0.0128,0.0119,0.0080
2371,0.0453,0.0041,0.0557,0.0239,0.0057,0.0104,0.0089,0.0093
2372,0.0271,0.0147,0.0278,0.0414,0.0050,0.0129,0.0123,0.0052
2373,0.0271,0.0148,0.0276,0.0357,0.0036,0.0121,0.0116,0.0042
2374,0.0339,0.0151,0.0352,0.0341,0.0052,0.0117,0.0109,0.0072
2375,0.0447,0.0044,0.0469,0.0478,0.0070,0.0108,0.0121,0.0045
2376,0.0412,0.0142,0.0430,0.0305,0.0062,0.0117,0.0122,0.0066
2377,0.0462,0.0076,0.0449,0.0340,0.0331,0.0187,0.0150,0.0062
2378,0.0318,0.0063,0.0320,0.0341,0.0194,0.0130,0.0132,0.0064
2379,0.0220,0.0070,0.0233,0.0339,0.0090,0.0109,0.0135,0.0049
2380,0.0231,0.0078,0.0236,0.0334,0.0084,0.0102,0.0130,0.0051
2381,0.0232,0.0064,0.0244,0.0329,0.0147,0.0119,0.0133,0.0044
2382,0.0247,0.0061,0.0262,0.0321,0.0201,0.0135,0.0143,0.0063
2383,0.0451,0.0088,0.0548,0.0161,0.0029,0.0094,0.0165,0.0067
2384,0.0382,0.0172,0.0412,0.0152,0.0138,0.0122,0.0131,0.0039
2385,0.0341,0.0144,0.0356,0.0151,0.0073,0.0110,0.0196,0.0038
2386,0.0542,0.0047,0.0541,0.0524,0.0117,0.0136,0.0150,0.0047
2387,0.0294,0.0159,0.0312,0.0164,0.0038,0.0111,0.0156,0.0052
2388,0.0293,0.0161,0.0313,0.0162,0.0048,0.0111,0.0144,0.0047
2389,0.0298,0.0155,0.0315,0.0153,0.0077,0.0104,0.0147,0.0049
2390,0.0357,0.0148,0.0381,0.0153,0.0102,0.0103,0.0159,0.0035
2391,0.0832,0.0139,0.0916,0.0293,0.0057,0.0135,0.0168,0.0045
2392,0.0595,0.0135,0.0634,0.0370,0.0065,0.0121,0.0119,0.0069
2393,0.0354,0.0132,0.0371,0.0331,0.0044,0.0114,0.0107,0.0065
2394,0.0326,0.0133,0.0342,0.0289,0.0033,0.0111,0.0100,0.0054
2395,0.0536,0.0056,0.0606,0.0193,0.0021,0.0084,0.0061,0.0057
2396,0.0448,0.0138,0.0470,0.0286,0.0046,0.0108,0.0105,0.0072
2397,0.0615,0.0047,0.0581,0.0572,0.0160,0.0146,0.0175,0.0064
2398,0.0524,0.0128,0.0557,0.0270,0.0058,0.0113,0.0116,0.0054
2399,0.0652,0.0076,0.0621,0.0270,0.0312,0.0172,0.0145,0.0081
2400,0.0502,0.0071,0.0472,0.0271,0.0187,0.0155,0.0133,0.0071
2401,0.0357,0.0088,0.0358,0.0277,0.0087,0.0125,0.0123,0.0045
2402,0.0279,0.0095,0.0294,0.0278,0.0082,0.0113,0.0116,0.0046
2403,0.0300,0.0083,0.0307,0.0270,0.0143,0.0144,0.0131,0.0046
2404,0.0279,0.0077,0.0291,0.0267,0.0194,0.0156,0.0142,0.0071
2405,0.0472,0.0146,0.0472,0.0183,0.0132,0.0116,0.0113,0.0035
2406,0.0453,0.0111,0.0422,0.0185,0.0077,0.0116,0.0161,0.0045
2407,0.0479,0.0046,0.0561,0.0241,0.0020,0.0089,0.0069,0.0036
2408,0.0696,0.0085,0.0643,0.0107,0.0087,0.0177,0.0076,0.0049
2409,0.0431,0.0118,0.0403,0.0203,0.0041,0.0111,0.0118,0.0057
2410,0.0416,0.0120,0.0397,0.0201,0.0049,0.0109,0.0110,0.0051
2411,0.0403,0.0120,0.0383,0.0188,0.0077,0.0106,0.0114,0.0057
2412,0.0420,0.0117,0.0410,0.0185,0.0100,0.0113,0.0130,0.0038
2413,0.0797,0.0133,0.0845,0.0254,0.0052,0.0155,0.0176,0.0062
2414,0.0596,0.0128,0.0579,0.0314,0.0060,0.0146,0.0140,0.0058
2415,0.0381,0.0115,0.0345,0.0270,0.0043,0.0140,0.0120,0.0073
2416,0.0332,0.0115,0.0301,0.0240,0.0038,0.0138,0.0112,0.0062
2417,0.0435,0.0127,0.0411,0.0245,0.0045,0.0135,0.0121,0.0070
2418,0.0483,0.0121,0.0479,0.0238,0.0057,0.0143,0.0127,0.0042
2419,0.0671,0.0074,0.0621,0.0094,0.0042,0.0130,0.0080,0.0030
2420,0.0459,0.0045,0.0562,0.0249,0.0021,0.0094,0.0081,0.0034
2421,0.0327,0.0111,0.0377,0.0339,0.0351,0.0165,0.0200,0.0060
2422,0.0405,0.0093,0.0418,0.0370,0.0203,0.0142,0.0157,0.0052
2423,0.0396,0.0090,0.0385,0.0373,0.0094,0.0111,0.0160,0.0053
2424,0.0392,0.0091,0.0384,0.0353,0.0088,0.0110,0.0162,0.0054
2425,0.0383,0.0102,0.0389,0.0339,0.0154,0.0144,0.0149,0.0053
2426,0.0372,0.0097,0.0399,0.0322,0.0211,0.0158,0.0168,0.0050
2427,0.0306,0.0161,0.0291,0.0181,0.0148,0.0180,0.0179,0.0078
2428,0.0303,0.0130,0.0295,0.0153,0.0075,0.0104,0.0151,0.0050
2429,0.0299,0.0149,0.0299,0.0170,0.0043,0.0088,0.0105,0.0033
Highest RMSE Cases
Vdc  Max RMSE=  0.1652 at Case 147; 1199 > 0.05
Idc  Max RMSE=  0.0238 at Case 600; 0 > 0.05
Vdlo Max RMSE=  0.1662 at Case 147; 1264 > 0.05
Vqlo Max RMSE=  0.0852 at Case 2185; 261 > 0.05
V0lo Max RMSE=  0.0428 at Case 261; 0 > 0.05
Vdhi Max RMSE=  0.0291 at Case 200; 0 > 0.05
Vqhi Max RMSE=  0.0429 at Case 460; 0 > 0.05
V0hi Max RMSE=  0.0205 at Case 607; 0 > 0.05
Total Error Summary
Vdc  RMSE=  0.0612
Idc  RMSE=  0.0087
Vdlo RMSE=  0.0646
Vqlo RMSE=  0.0321
V0lo RMSE=  0.0103
Vdhi RMSE=  0.0124
Vqhi RMSE=  0.0120
V0hi RMSE=  0.0060
