Read Model from: ./ucf7d/
Export Model to: ./ucf7d/ucf7d_fhf.json
idx_in [0, 1, 2, 3, 4, 5, 6]
idx_out [7, 8, 9, 10]
make_mimo_block iir
H1s[0][0]  Real Poles: [-119.05869438  -60.36158757] Freqs [Hz]: []
H1s[0][1]  Real Poles: [-144.10716301  -28.04095143] Freqs [Hz]: []
H1s[0][2]  Real Poles: [-105.37754968 -105.37754968] Freqs [Hz]: [8.239137342978145]
H1s[0][3]  Real Poles: [-106.77108272  -90.69122755] Freqs [Hz]: []
H1s[1][0]  Real Poles: [-100.02344433 -100.02344433] Freqs [Hz]: [3.887863632530389]
H1s[1][1]  Real Poles: [-148.982761    -19.61544385] Freqs [Hz]: []
H1s[1][2]  Real Poles: [-112.92218315  -71.43171233] Freqs [Hz]: []
H1s[1][3]  Real Poles: [-126.62488961  -63.8858997 ] Freqs [Hz]: []
H1s[2][0]  Real Poles: [-101.50042949 -101.50042949] Freqs [Hz]: [7.042923738398583]
H1s[2][1]  Real Poles: [-144.56959867  -21.75158954] Freqs [Hz]: []
H1s[2][2]  Real Poles: [-95.82704641 -95.82704641] Freqs [Hz]: [7.130317798483138]
H1s[2][3]  Real Poles: [-91.39176011 -91.39176011] Freqs [Hz]: [4.193526572495828]
H1s[3][0]  Real Poles: [-99.16718435 -99.16718435] Freqs [Hz]: [5.688217179510694]
H1s[3][1]  Real Poles: [-124.20630594  -64.0441821 ] Freqs [Hz]: []
H1s[3][2]  Real Poles: [-127.33413244  -57.1842361 ] Freqs [Hz]: []
H1s[3][3]  Real Poles: [-137.33608745  -32.47712828] Freqs [Hz]: []
model_folder = ./ucf7d/
model_root = ucf7d
data_path = d:/data/ucf3/ucf7.hdf5
idx_in [0, 1, 2, 3, 4, 5, 6]
idx_out [7, 8, 9, 10]
read 3600 dataframes
dt=0.010000 data_len=401 n_io=11 n_case=3600
['G', 'Ud', 'Uq', 'Vd', 'Vq', 'GVrms', 'Ctrl'] ['Vdc', 'Idc', 'Id', 'Iq'] (3600, 401, 11)
make_mimo_block iir
prepending initial conditions (3600, 100, 11) (3600, 401, 11) float32 float32
results in (3600, 501, 11)
Idx,Vdc,Idc,Id,Iq
#,RMSE,RMSE,RMSE,RMSE
Total,0.0044,0.0195,0.0187,0.0100
0,0.0038,0.0147,0.0115,0.0019
1,0.0038,0.0147,0.0115,0.0019
2,0.0058,0.0330,0.0276,0.0042
3,0.0034,0.0122,0.0099,0.0019
4,0.0038,0.0146,0.0116,0.0019
5,0.0038,0.0146,0.0116,0.0019
6,0.0038,0.0146,0.0116,0.0019
7,0.0044,0.0188,0.0172,0.0017
8,0.0044,0.0188,0.0172,0.0017
9,0.0047,0.0182,0.0174,0.0017
10,0.0041,0.0195,0.0183,0.0025
11,0.0038,0.0198,0.0158,0.0033
12,0.0037,0.0244,0.0194,0.0040
13,0.0045,0.0300,0.0237,0.0045
14,0.0034,0.0122,0.0099,0.0019
15,0.0056,0.0338,0.0282,0.0051
16,0.0063,0.0388,0.0342,0.0060
17,0.0057,0.0387,0.0355,0.0067
18,0.0057,0.0314,0.0278,0.0066
19,0.0047,0.0182,0.0174,0.0017
20,0.0052,0.0385,0.0292,0.0329
21,0.0046,0.0379,0.0302,0.0267
22,0.0043,0.0342,0.0304,0.0200
23,0.0043,0.0284,0.0267,0.0144
24,0.0046,0.0233,0.0220,0.0114
25,0.0034,0.0122,0.0099,0.0019
26,0.0051,0.0216,0.0195,0.0110
27,0.0044,0.0201,0.0186,0.0097
28,0.0030,0.0184,0.0175,0.0077
29,0.0035,0.0168,0.0159,0.0054
30,0.0037,0.0164,0.0144,0.0034
31,0.0041,0.0195,0.0183,0.0025
32,0.0050,0.0183,0.0146,0.0027
33,0.0039,0.0239,0.0168,0.0036
34,0.0047,0.0196,0.0151,0.0051
35,0.0039,0.0193,0.0169,0.0071
36,0.0038,0.0141,0.0120,0.0017
37,0.0035,0.0196,0.0179,0.0078
38,0.0039,0.0219,0.0202,0.0086
39,0.0043,0.0264,0.0235,0.0110
40,0.0047,0.0334,0.0292,0.0148
41,0.0047,0.0362,0.0299,0.0182
42,0.0053,0.0372,0.0310,0.0230
43,0.0038,0.0198,0.0158,0.0033
44,0.0038,0.0146,0.0116,0.0019
45,0.0038,0.0146,0.0116,0.0019
46,0.0038,0.0146,0.0116,0.0019
47,0.0038,0.0141,0.0120,0.0017
48,0.0038,0.0146,0.0116,0.0019
49,0.0038,0.0146,0.0116,0.0019
50,0.0038,0.0146,0.0116,0.0019
51,0.0038,0.0146,0.0116,0.0019
52,0.0038,0.0146,0.0116,0.0019
53,0.0038,0.0146,0.0116,0.0019
54,0.0038,0.0146,0.0116,0.0019
55,0.0037,0.0244,0.0194,0.0040
56,0.0038,0.0146,0.0116,0.0019
57,0.0038,0.0146,0.0116,0.0019
58,0.0040,0.0135,0.0123,0.0016
59,0.0038,0.0146,0.0116,0.0019
60,0.0038,0.0146,0.0116,0.0019
61,0.0038,0.0146,0.0116,0.0019
62,0.0038,0.0146,0.0116,0.0019
63,0.0038,0.0146,0.0116,0.0019
64,0.0038,0.0146,0.0116,0.0019
65,0.0038,0.0146,0.0116,0.0019
66,0.0038,0.0146,0.0116,0.0019
67,0.0045,0.0300,0.0237,0.0045
68,0.0038,0.0146,0.0116,0.0019
69,0.0035,0.0162,0.0154,0.0021
70,0.0038,0.0146,0.0116,0.0019
71,0.0038,0.0146,0.0116,0.0019
72,0.0038,0.0146,0.0116,0.0019
73,0.0038,0.0146,0.0116,0.0019
74,0.0038,0.0146,0.0116,0.0019
75,0.0038,0.0146,0.0116,0.0019
76,0.0038,0.0146,0.0116,0.0019
77,0.0038,0.0146,0.0116,0.0019
78,0.0038,0.0146,0.0116,0.0019
79,0.0056,0.0338,0.0282,0.0051
80,0.0035,0.0180,0.0147,0.0028
81,0.0038,0.0146,0.0116,0.0019
82,0.0038,0.0146,0.0116,0.0019
83,0.0038,0.0146,0.0116,0.0019
84,0.0038,0.0146,0.0116,0.0019
85,0.0038,0.0146,0.0116,0.0019
86,0.0065,0.0272,0.0220,0.0108
87,0.0063,0.0216,0.0197,0.0084
88,0.0061,0.0179,0.0188,0.0064
89,0.0059,0.0150,0.0172,0.0048
90,0.0045,0.0300,0.0237,0.0045
91,0.0037,0.0242,0.0205,0.0033
92,0.0063,0.0388,0.0342,0.0060
93,0.0048,0.0128,0.0157,0.0029
94,0.0042,0.0129,0.0142,0.0025
95,0.0037,0.0136,0.0150,0.0022
96,0.0034,0.0137,0.0139,0.0020
97,0.0034,0.0141,0.0128,0.0020
98,0.0044,0.0188,0.0172,0.0017
99,0.0047,0.0182,0.0174,0.0017
100,0.0041,0.0195,0.0183,0.0025
101,0.0038,0.0198,0.0158,0.0033
102,0.0045,0.0274,0.0227,0.0036
103,0.0037,0.0244,0.0194,0.0040
104,0.0057,0.0387,0.0355,0.0067
105,0.0045,0.0300,0.0237,0.0045
106,0.0056,0.0338,0.0282,0.0051
107,0.0063,0.0388,0.0342,0.0060
108,0.0057,0.0387,0.0355,0.0067
109,0.0057,0.0314,0.0278,0.0066
110,0.0052,0.0385,0.0292,0.0329
111,0.0046,0.0379,0.0302,0.0267
112,0.0043,0.0342,0.0304,0.0200
113,0.0064,0.0375,0.0330,0.0049
114,0.0057,0.0321,0.0281,0.0041
115,0.0034,0.0123,0.0101,0.0019
116,0.0034,0.0123,0.0101,0.0019
117,0.0034,0.0123,0.0101,0.0019
118,0.0037,0.0140,0.0122,0.0017
119,0.0037,0.0140,0.0122,0.0017
120,0.0039,0.0139,0.0129,0.0017
121,0.0035,0.0172,0.0164,0.0024
122,0.0035,0.0191,0.0158,0.0032
123,0.0037,0.0252,0.0213,0.0038
124,0.0044,0.0278,0.0228,0.0043
125,0.0063,0.0357,0.0326,0.0048
126,0.0055,0.0329,0.0287,0.0050
127,0.0062,0.0375,0.0342,0.0059
128,0.0056,0.0363,0.0347,0.0067
129,0.0056,0.0275,0.0260,0.0066
130,0.0039,0.0139,0.0129,0.0017
131,0.0052,0.0310,0.0254,0.0249
132,0.0046,0.0301,0.0245,0.0199
133,0.0044,0.0279,0.0254,0.0153
134,0.0042,0.0236,0.0224,0.0119
135,0.0046,0.0195,0.0182,0.0110
136,0.0056,0.0340,0.0326,0.0054
137,0.0050,0.0186,0.0166,0.0113
138,0.0043,0.0165,0.0151,0.0100
139,0.0030,0.0152,0.0144,0.0080
140,0.0037,0.0140,0.0131,0.0056
141,0.0037,0.0142,0.0127,0.0037
142,0.0035,0.0172,0.0164,0.0024
143,0.0050,0.0150,0.0124,0.0026
144,0.0037,0.0208,0.0150,0.0032
145,0.0041,0.0153,0.0124,0.0049
146,0.0038,0.0170,0.0151,0.0072
147,0.0056,0.0250,0.0235,0.0054
148,0.0035,0.0182,0.0169,0.0079
149,0.0039,0.0197,0.0181,0.0081
150,0.0042,0.0215,0.0193,0.0091
151,0.0046,0.0276,0.0244,0.0119
152,0.0046,0.0291,0.0245,0.0145
153,0.0053,0.0321,0.0286,0.0202
154,0.0035,0.0191,0.0158,0.0032
155,0.0034,0.0123,0.0101,0.0019
156,0.0034,0.0123,0.0101,0.0019
157,0.0034,0.0123,0.0101,0.0019
158,0.0040,0.0135,0.0123,0.0016
159,0.0034,0.0123,0.0101,0.0019
160,0.0034,0.0123,0.0101,0.0019
161,0.0034,0.0123,0.0101,0.0019
162,0.0034,0.0123,0.0101,0.0019
163,0.0034,0.0123,0.0101,0.0019
164,0.0034,0.0123,0.0101,0.0019
165,0.0034,0.0123,0.0101,0.0019
166,0.0037,0.0252,0.0213,0.0038
167,0.0034,0.0123,0.0101,0.0019
168,0.0034,0.0123,0.0101,0.0019
169,0.0056,0.0322,0.0287,0.0243
170,0.0034,0.0123,0.0101,0.0019
171,0.0034,0.0123,0.0101,0.0019
172,0.0034,0.0123,0.0101,0.0019
173,0.0034,0.0123,0.0101,0.0019
174,0.0034,0.0123,0.0101,0.0019
175,0.0034,0.0123,0.0101,0.0019
176,0.0034,0.0123,0.0101,0.0019
177,0.0034,0.0123,0.0101,0.0019
178,0.0044,0.0278,0.0228,0.0043
179,0.0034,0.0123,0.0101,0.0019
180,0.0048,0.0279,0.0230,0.0195
181,0.0034,0.0123,0.0101,0.0019
182,0.0034,0.0123,0.0101,0.0019
183,0.0034,0.0123,0.0101,0.0019
184,0.0034,0.0123,0.0101,0.0019
185,0.0034,0.0123,0.0101,0.0019
186,0.0034,0.0123,0.0101,0.0019
187,0.0034,0.0123,0.0101,0.0019
188,0.0034,0.0123,0.0101,0.0019
189,0.0034,0.0123,0.0101,0.0019
190,0.0055,0.0329,0.0287,0.0050
191,0.0045,0.0255,0.0230,0.0155
192,0.0034,0.0123,0.0101,0.0019
193,0.0034,0.0123,0.0101,0.0019
194,0.0034,0.0123,0.0101,0.0019
195,0.0034,0.0123,0.0101,0.0019
196,0.0034,0.0123,0.0101,0.0019
197,0.0064,0.0280,0.0227,0.0108
198,0.0063,0.0214,0.0192,0.0085
199,0.0061,0.0179,0.0181,0.0064
200,0.0059,0.0144,0.0162,0.0048
201,0.0044,0.0278,0.0228,0.0043
202,0.0046,0.0221,0.0208,0.0133
203,0.0062,0.0375,0.0342,0.0059
204,0.0048,0.0118,0.0146,0.0029
205,0.0042,0.0116,0.0133,0.0024
206,0.0036,0.0114,0.0135,0.0021
207,0.0032,0.0118,0.0121,0.0020
208,0.0031,0.0124,0.0116,0.0020
209,0.0037,0.0140,0.0122,0.0017
210,0.0039,0.0139,0.0129,0.0017
211,0.0035,0.0172,0.0164,0.0024
212,0.0035,0.0191,0.0158,0.0032
213,0.0051,0.0199,0.0180,0.0131
214,0.0037,0.0252,0.0213,0.0038
215,0.0056,0.0363,0.0347,0.0067
216,0.0044,0.0278,0.0228,0.0043
217,0.0055,0.0329,0.0287,0.0050
218,0.0062,0.0375,0.0342,0.0059
219,0.0056,0.0363,0.0347,0.0067
220,0.0056,0.0275,0.0260,0.0066
221,0.0052,0.0310,0.0254,0.0249
222,0.0046,0.0301,0.0245,0.0199
223,0.0044,0.0279,0.0254,0.0153
224,0.0057,0.0368,0.0337,0.0055
225,0.0055,0.0196,0.0168,0.0132
226,0.0029,0.0080,0.0068,0.0018
227,0.0029,0.0080,0.0068,0.0018
228,0.0029,0.0080,0.0068,0.0018
229,0.0030,0.0087,0.0082,0.0016
230,0.0030,0.0087,0.0082,0.0016
231,0.0032,0.0100,0.0105,0.0016
232,0.0030,0.0145,0.0155,0.0023
233,0.0033,0.0190,0.0188,0.0031
234,0.0037,0.0210,0.0198,0.0036
235,0.0043,0.0239,0.0214,0.0041
236,0.0046,0.0169,0.0152,0.0113
237,0.0052,0.0290,0.0273,0.0048
238,0.0057,0.0307,0.0300,0.0058
239,0.0053,0.0317,0.0330,0.0067
240,0.0055,0.0225,0.0244,0.0066
241,0.0032,0.0100,0.0105,0.0016
242,0.0054,0.0240,0.0243,0.0155
243,0.0046,0.0164,0.0145,0.0126
244,0.0044,0.0157,0.0147,0.0117
245,0.0043,0.0140,0.0131,0.0122
246,0.0046,0.0140,0.0129,0.0132
247,0.0030,0.0147,0.0140,0.0088
248,0.0050,0.0160,0.0141,0.0137
249,0.0043,0.0130,0.0115,0.0118
250,0.0030,0.0108,0.0099,0.0092
251,0.0042,0.0097,0.0091,0.0064
252,0.0042,0.0112,0.0108,0.0043
253,0.0030,0.0145,0.0155,0.0023
254,0.0050,0.0087,0.0086,0.0030
255,0.0034,0.0135,0.0113,0.0034
256,0.0034,0.0110,0.0105,0.0058
257,0.0037,0.0142,0.0133,0.0084
258,0.0036,0.0136,0.0127,0.0060
259,0.0037,0.0171,0.0166,0.0091
260,0.0039,0.0189,0.0182,0.0089
261,0.0041,0.0153,0.0141,0.0078
262,0.0046,0.0171,0.0159,0.0086
263,0.0046,0.0178,0.0165,0.0117
264,0.0053,0.0297,0.0297,0.0213
265,0.0033,0.0190,0.0188,0.0031
266,0.0029,0.0080,0.0068,0.0018
267,0.0029,0.0080,0.0068,0.0018
268,0.0029,0.0080,0.0068,0.0018
269,0.0038,0.0140,0.0124,0.0039
270,0.0029,0.0080,0.0068,0.0018
271,0.0029,0.0080,0.0068,0.0018
272,0.0029,0.0080,0.0068,0.0018
273,0.0029,0.0080,0.0068,0.0018
274,0.0029,0.0080,0.0068,0.0018
275,0.0029,0.0080,0.0068,0.0018
276,0.0029,0.0080,0.0068,0.0018
277,0.0037,0.0210,0.0198,0.0036
278,0.0029,0.0080,0.0068,0.0018
279,0.0029,0.0080,0.0068,0.0018
280,0.0035,0.0162,0.0154,0.0021
281,0.0029,0.0080,0.0068,0.0018
282,0.0029,0.0080,0.0068,0.0018
283,0.0029,0.0080,0.0068,0.0018
284,0.0029,0.0080,0.0068,0.0018
285,0.0029,0.0080,0.0068,0.0018
286,0.0029,0.0080,0.0068,0.0018
287,0.0029,0.0080,0.0068,0.0018
288,0.0029,0.0080,0.0068,0.0018
289,0.0043,0.0239,0.0214,0.0041
290,0.0029,0.0080,0.0068,0.0018
291,0.0048,0.0154,0.0121,0.0027
292,0.0029,0.0080,0.0068,0.0018
293,0.0029,0.0080,0.0068,0.0018
294,0.0029,0.0080,0.0068,0.0018
295,0.0029,0.0080,0.0068,0.0018
296,0.0029,0.0080,0.0068,0.0018
297,0.0029,0.0080,0.0068,0.0018
298,0.0029,0.0080,0.0068,0.0018
299,0.0029,0.0080,0.0068,0.0018
300,0.0029,0.0080,0.0068,0.0018
301,0.0052,0.0290,0.0273,0.0048
302,0.0036,0.0222,0.0157,0.0034
303,0.0029,0.0080,0.0068,0.0018
304,0.0029,0.0080,0.0068,0.0018
305,0.0029,0.0080,0.0068,0.0018
306,0.0029,0.0080,0.0068,0.0018
307,0.0029,0.0080,0.0068,0.0018
308,0.0063,0.0302,0.0278,0.0107
309,0.0062,0.0239,0.0236,0.0083
310,0.0061,0.0190,0.0212,0.0062
311,0.0059,0.0138,0.0173,0.0044
312,0.0043,0.0239,0.0214,0.0041
313,0.0040,0.0155,0.0122,0.0055
314,0.0057,0.0307,0.0300,0.0058
315,0.0048,0.0108,0.0151,0.0025
316,0.0041,0.0094,0.0132,0.0021
317,0.0035,0.0095,0.0129,0.0018
318,0.0031,0.0090,0.0105,0.0018
319,0.0029,0.0091,0.0095,0.0018
320,0.0030,0.0087,0.0082,0.0016
321,0.0032,0.0100,0.0105,0.0016
322,0.0030,0.0145,0.0155,0.0023
323,0.0033,0.0190,0.0188,0.0031
324,0.0038,0.0166,0.0148,0.0080
325,0.0037,0.0210,0.0198,0.0036
326,0.0053,0.0317,0.0330,0.0067
327,0.0043,0.0239,0.0214,0.0041
328,0.0052,0.0290,0.0273,0.0048
329,0.0057,0.0307,0.0300,0.0058
330,0.0053,0.0317,0.0330,0.0067
331,0.0055,0.0225,0.0244,0.0066
332,0.0054,0.0240,0.0243,0.0155
333,0.0046,0.0164,0.0145,0.0126
334,0.0044,0.0157,0.0147,0.0117
335,0.0057,0.0292,0.0254,0.0055
336,0.0036,0.0187,0.0172,0.0089
337,0.0028,0.0068,0.0064,0.0017
338,0.0028,0.0068,0.0064,0.0017
339,0.0028,0.0068,0.0064,0.0017
340,0.0028,0.0064,0.0067,0.0016
341,0.0028,0.0064,0.0067,0.0016
342,0.0031,0.0080,0.0094,0.0017
343,0.0030,0.0117,0.0143,0.0023
344,0.0033,0.0152,0.0172,0.0031
345,0.0037,0.0177,0.0184,0.0036
346,0.0042,0.0188,0.0183,0.0040
347,0.0039,0.0203,0.0186,0.0089
348,0.0049,0.0232,0.0230,0.0047
349,0.0054,0.0275,0.0283,0.0058
350,0.0050,0.0280,0.0307,0.0068
351,0.0055,0.0200,0.0247,0.0069
352,0.0031,0.0080,0.0094,0.0017
353,0.0056,0.0310,0.0307,0.0207
354,0.0047,0.0170,0.0155,0.0177
355,0.0044,0.0137,0.0121,0.0168
356,0.0044,0.0157,0.0140,0.0173
357,0.0046,0.0173,0.0163,0.0169
358,0.0042,0.0217,0.0195,0.0094
359,0.0050,0.0174,0.0170,0.0160
360,0.0043,0.0142,0.0140,0.0133
361,0.0031,0.0119,0.0120,0.0100
362,0.0046,0.0108,0.0115,0.0071
363,0.0047,0.0105,0.0107,0.0045
364,0.0030,0.0117,0.0143,0.0023
365,0.0051,0.0064,0.0067,0.0037
366,0.0035,0.0126,0.0124,0.0045
367,0.0034,0.0088,0.0101,0.0072
368,0.0036,0.0133,0.0140,0.0101
369,0.0046,0.0272,0.0242,0.0118
370,0.0038,0.0201,0.0211,0.0114
371,0.0040,0.0237,0.0237,0.0116
372,0.0042,0.0195,0.0185,0.0110
373,0.0046,0.0167,0.0157,0.0115
374,0.0046,0.0186,0.0181,0.0159
375,0.0052,0.0373,0.0363,0.0275
376,0.0033,0.0152,0.0172,0.0031
377,0.0028,0.0068,0.0064,0.0017
378,0.0028,0.0068,0.0064,0.0017
379,0.0028,0.0068,0.0064,0.0017
380,0.0046,0.0289,0.0246,0.0148
381,0.0028,0.0068,0.0064,0.0017
382,0.0028,0.0068,0.0064,0.0017
383,0.0028,0.0068,0.0064,0.0017
384,0.0028,0.0068,0.0064,0.0017
385,0.0028,0.0068,0.0064,0.0017
386,0.0028,0.0068,0.0064,0.0017
387,0.0028,0.0068,0.0064,0.0017
388,0.0037,0.0177,0.0184,0.0036
389,0.0028,0.0068,0.0064,0.0017
390,0.0028,0.0068,0.0064,0.0017
391,0.0052,0.0328,0.0292,0.0211
392,0.0028,0.0068,0.0064,0.0017
393,0.0028,0.0068,0.0064,0.0017
394,0.0028,0.0068,0.0064,0.0017
395,0.0028,0.0068,0.0064,0.0017
396,0.0028,0.0068,0.0064,0.0017
397,0.0028,0.0068,0.0064,0.0017
398,0.0028,0.0068,0.0064,0.0017
399,0.0028,0.0068,0.0064,0.0017
400,0.0042,0.0188,0.0183,0.0040
401,0.0028,0.0068,0.0064,0.0017
402,0.0035,0.0180,0.0147,0.0028
403,0.0028,0.0068,0.0064,0.0017
404,0.0028,0.0068,0.0064,0.0017
405,0.0028,0.0068,0.0064,0.0017
406,0.0028,0.0068,0.0064,0.0017
407,0.0028,0.0068,0.0064,0.0017
408,0.0028,0.0068,0.0064,0.0017
409,0.0028,0.0068,0.0064,0.0017
410,0.0028,0.0068,0.0064,0.0017
411,0.0028,0.0068,0.0064,0.0017
412,0.0049,0.0232,0.0230,0.0047
413,0.0034,0.0122,0.0099,0.0019
414,0.0028,0.0068,0.0064,0.0017
415,0.0028,0.0068,0.0064,0.0017
416,0.0028,0.0068,0.0064,0.0017
417,0.0028,0.0068,0.0064,0.0017
418,0.0028,0.0068,0.0064,0.0017
419,0.0061,0.0335,0.0350,0.0104
420,0.0061,0.0255,0.0294,0.0079
421,0.0061,0.0216,0.0273,0.0058
422,0.0059,0.0159,0.0223,0.0040
423,0.0042,0.0188,0.0183,0.0040
424,0.0034,0.0122,0.0099,0.0019
425,0.0054,0.0275,0.0283,0.0058
426,0.0049,0.0114,0.0184,0.0022
427,0.0042,0.0102,0.0164,0.0018
428,0.0035,0.0103,0.0163,0.0016
429,0.0031,0.0093,0.0131,0.0016
430,0.0028,0.0086,0.0104,0.0017
431,0.0028,0.0064,0.0067,0.0016
432,0.0031,0.0080,0.0094,0.0017
433,0.0030,0.0117,0.0143,0.0023
434,0.0033,0.0152,0.0172,0.0031
435,0.0034,0.0122,0.0099,0.0019
436,0.0037,0.0177,0.0184,0.0036
437,0.0050,0.0280,0.0307,0.0068
438,0.0042,0.0188,0.0183,0.0040
439,0.0049,0.0232,0.0230,0.0047
440,0.0054,0.0275,0.0283,0.0058
441,0.0050,0.0280,0.0307,0.0068
442,0.0055,0.0200,0.0247,0.0069
443,0.0056,0.0310,0.0307,0.0207
444,0.0047,0.0170,0.0155,0.0177
445,0.0044,0.0137,0.0121,0.0168
446,0.0048,0.0183,0.0173,0.0016
447,0.0034,0.0122,0.0099,0.0019
448,0.0027,0.0069,0.0070,0.0017
449,0.0027,0.0069,0.0070,0.0017
450,0.0027,0.0069,0.0070,0.0017
451,0.0028,0.0057,0.0062,0.0016
452,0.0028,0.0057,0.0062,0.0016
453,0.0032,0.0074,0.0093,0.0017
454,0.0030,0.0101,0.0134,0.0024
455,0.0033,0.0128,0.0152,0.0031
456,0.0037,0.0177,0.0192,0.0036
457,0.0042,0.0144,0.0146,0.0039
458,0.0034,0.0122,0.0099,0.0019
459,0.0049,0.0225,0.0228,0.0047
460,0.0053,0.0258,0.0270,0.0057
461,0.0049,0.0268,0.0306,0.0069
462,0.0054,0.0197,0.0246,0.0070
463,0.0032,0.0074,0.0093,0.0017
464,0.0056,0.0364,0.0351,0.0250
465,0.0047,0.0210,0.0190,0.0213
466,0.0044,0.0173,0.0149,0.0196
467,0.0044,0.0190,0.0175,0.0198
468,0.0046,0.0209,0.0201,0.0187
469,0.0034,0.0122,0.0099,0.0019
470,0.0050,0.0194,0.0193,0.0168
471,0.0042,0.0165,0.0169,0.0138
472,0.0031,0.0133,0.0142,0.0103
473,0.0047,0.0111,0.0122,0.0072
474,0.0048,0.0124,0.0135,0.0048
475,0.0030,0.0101,0.0134,0.0024
476,0.0051,0.0073,0.0078,0.0041
477,0.0037,0.0119,0.0125,0.0052
478,0.0035,0.0085,0.0106,0.0080
479,0.0036,0.0137,0.0151,0.0110
480,0.0034,0.0122,0.0099,0.0019
481,0.0038,0.0217,0.0228,0.0124
482,0.0040,0.0269,0.0267,0.0131
483,0.0042,0.0236,0.0227,0.0131
484,0.0046,0.0191,0.0176,0.0134
485,0.0046,0.0216,0.0200,0.0183
486,0.0052,0.0422,0.0401,0.0310
487,0.0033,0.0128,0.0152,0.0031
488,0.0027,0.0069,0.0070,0.0017
489,0.0027,0.0069,0.0070,0.0017
490,0.0027,0.0069,0.0070,0.0017
491,0.0034,0.0122,0.0099,0.0019
492,0.0027,0.0069,0.0070,0.0017
493,0.0027,0.0069,0.0070,0.0017
494,0.0027,0.0069,0.0070,0.0017
495,0.0027,0.0069,0.0070,0.0017
496,0.0027,0.0069,0.0070,0.0017
497,0.0027,0.0069,0.0070,0.0017
498,0.0027,0.0069,0.0070,0.0017
499,0.0037,0.0177,0.0192,0.0036
500,0.0027,0.0069,0.0070,0.0017
501,0.0027,0.0069,0.0070,0.0017
502,0.0034,0.0122,0.0099,0.0019
503,0.0027,0.0069,0.0070,0.0017
504,0.0027,0.0069,0.0070,0.0017
505,0.0027,0.0069,0.0070,0.0017
506,0.0027,0.0069,0.0070,0.0017
507,0.0027,0.0069,0.0070,0.0017
508,0.0027,0.0069,0.0070,0.0017
509,0.0027,0.0069,0.0070,0.0017
510,0.0027,0.0069,0.0070,0.0017
511,0.0042,0.0144,0.0146,0.0039
512,0.0027,0.0069,0.0070,0.0017
513,0.0034,0.0122,0.0099,0.0019
514,0.0027,0.0069,0.0070,0.0017
515,0.0027,0.0069,0.0070,0.0017
516,0.0027,0.0069,0.0070,0.0017
517,0.0027,0.0069,0.0070,0.0017
518,0.0027,0.0069,0.0070,0.0017
519,0.0027,0.0069,0.0070,0.0017
520,0.0027,0.0069,0.0070,0.0017
521,0.0027,0.0069,0.0070,0.0017
522,0.0027,0.0069,0.0070,0.0017
523,0.0049,0.0225,0.0228,0.0047
524,0.0037,0.0242,0.0205,0.0033
525,0.0027,0.0069,0.0070,0.0017
526,0.0027,0.0069,0.0070,0.0017
527,0.0027,0.0069,0.0070,0.0017
528,0.0027,0.0069,0.0070,0.0017
529,0.0027,0.0069,0.0070,0.0017
530,0.0061,0.0349,0.0386,0.0102
531,0.0061,0.0278,0.0339,0.0077
532,0.0061,0.0230,0.0305,0.0056
533,0.0059,0.0177,0.0257,0.0038
534,0.0042,0.0144,0.0146,0.0039
535,0.0034,0.0122,0.0099,0.0019
536,0.0053,0.0258,0.0270,0.0057
537,0.0049,0.0125,0.0207,0.0020
538,0.0042,0.0100,0.0168,0.0017
539,0.0036,0.0095,0.0159,0.0015
540,0.0031,0.0085,0.0123,0.0015
541,0.0028,0.0087,0.0110,0.0017
542,0.0028,0.0057,0.0062,0.0016
543,0.0032,0.0074,0.0093,0.0017
544,0.0030,0.0101,0.0134,0.0024
545,0.0033,0.0128,0.0152,0.0031
546,0.0034,0.0122,0.0099,0.0019
547,0.0037,0.0177,0.0192,0.0036
548,0.0049,0.0268,0.0306,0.0069
549,0.0042,0.0144,0.0146,0.0039
550,0.0049,0.0225,0.0228,0.0047
551,0.0053,0.0258,0.0270,0.0057
552,0.0049,0.0268,0.0306,0.0069
553,0.0054,0.0197,0.0246,0.0070
554,0.0056,0.0364,0.0351,0.0250
555,0.0047,0.0210,0.0190,0.0213
556,0.0044,0.0173,0.0149,0.0196
557,0.0055,0.0374,0.0306,0.0312
558,0.0034,0.0122,0.0099,0.0019
559,0.0034,0.0122,0.0099,0.0019
560,0.0034,0.0122,0.0099,0.0019
561,0.0034,0.0122,0.0099,0.0019
562,0.0034,0.0122,0.0099,0.0019
563,0.0034,0.0122,0.0099,0.0019
564,0.0034,0.0122,0.0099,0.0019
565,0.0034,0.0122,0.0099,0.0019
566,0.0045,0.0274,0.0227,0.0036
567,0.0034,0.0122,0.0099,0.0019
568,0.0047,0.0345,0.0278,0.0252
569,0.0034,0.0122,0.0099,0.0019
570,0.0034,0.0122,0.0099,0.0019
571,0.0034,0.0122,0.0099,0.0019
572,0.0034,0.0122,0.0099,0.0019
573,0.0034,0.0122,0.0099,0.0019
574,0.0034,0.0122,0.0099,0.0019
575,0.0034,0.0122,0.0099,0.0019
576,0.0034,0.0122,0.0099,0.0019
577,0.0034,0.0122,0.0099,0.0019
578,0.0057,0.0321,0.0281,0.0041
579,0.0045,0.0317,0.0282,0.0193
580,0.0034,0.0122,0.0099,0.0019
581,0.0034,0.0122,0.0099,0.0019
582,0.0034,0.0122,0.0099,0.0019
583,0.0034,0.0122,0.0099,0.0019
584,0.0034,0.0122,0.0099,0.0019
585,0.0062,0.0281,0.0229,0.0102
586,0.0060,0.0215,0.0196,0.0079
587,0.0058,0.0181,0.0187,0.0060
588,0.0056,0.0145,0.0165,0.0044
589,0.0045,0.0274,0.0227,0.0036
590,0.0046,0.0266,0.0249,0.0148
591,0.0063,0.0357,0.0326,0.0048
592,0.0046,0.0118,0.0147,0.0026
593,0.0040,0.0115,0.0132,0.0023
594,0.0035,0.0113,0.0134,0.0020
595,0.0031,0.0118,0.0121,0.0019
596,0.0031,0.0123,0.0114,0.0020
597,0.0038,0.0141,0.0120,0.0017
598,0.0040,0.0135,0.0123,0.0016
599,0.0035,0.0162,0.0154,0.0021
600,0.0035,0.0180,0.0147,0.0028
601,0.0051,0.0231,0.0214,0.0128
602,0.0037,0.0242,0.0205,0.0033
603,0.0056,0.0340,0.0326,0.0054
604,0.0045,0.0274,0.0227,0.0036
605,0.0057,0.0321,0.0281,0.0041
606,0.0063,0.0357,0.0326,0.0048
607,0.0056,0.0340,0.0326,0.0054
608,0.0056,0.0250,0.0235,0.0054
609,0.0056,0.0322,0.0287,0.0243
610,0.0048,0.0279,0.0230,0.0195
611,0.0045,0.0255,0.0230,0.0155
612,0.0038,0.0147,0.0115,0.0019
613,0.0056,0.0220,0.0194,0.0125
614,0.0029,0.0083,0.0070,0.0018
615,0.0029,0.0083,0.0070,0.0018
616,0.0029,0.0083,0.0070,0.0018
617,0.0030,0.0087,0.0079,0.0017
618,0.0030,0.0087,0.0079,0.0017
619,0.0032,0.0092,0.0095,0.0016
620,0.0031,0.0130,0.0141,0.0021
621,0.0033,0.0180,0.0178,0.0027
622,0.0037,0.0200,0.0189,0.0031
623,0.0044,0.0234,0.0210,0.0033
624,0.0047,0.0200,0.0181,0.0107
625,0.0054,0.0285,0.0270,0.0039
626,0.0059,0.0290,0.0285,0.0046
627,0.0054,0.0292,0.0306,0.0053
628,0.0055,0.0197,0.0215,0.0053
629,0.0032,0.0092,0.0095,0.0016
630,0.0059,0.0307,0.0308,0.0193
631,0.0049,0.0191,0.0170,0.0162
632,0.0046,0.0166,0.0146,0.0154
633,0.0046,0.0162,0.0143,0.0159
634,0.0050,0.0169,0.0149,0.0161
635,0.0031,0.0180,0.0170,0.0082
636,0.0055,0.0184,0.0159,0.0160
637,0.0045,0.0147,0.0127,0.0135
638,0.0030,0.0112,0.0099,0.0103
639,0.0041,0.0098,0.0090,0.0071
640,0.0042,0.0112,0.0105,0.0046
641,0.0031,0.0130,0.0141,0.0021
642,0.0048,0.0090,0.0081,0.0032
643,0.0033,0.0152,0.0124,0.0038
644,0.0034,0.0111,0.0106,0.0066
645,0.0037,0.0144,0.0138,0.0095
646,0.0035,0.0163,0.0156,0.0056
647,0.0038,0.0186,0.0178,0.0105
648,0.0040,0.0203,0.0192,0.0103
649,0.0042,0.0164,0.0149,0.0092
650,0.0046,0.0174,0.0161,0.0098
651,0.0046,0.0183,0.0169,0.0131
652,0.0052,0.0310,0.0305,0.0230
653,0.0033,0.0180,0.0178,0.0027
654,0.0029,0.0083,0.0070,0.0018
655,0.0029,0.0083,0.0070,0.0018
656,0.0029,0.0083,0.0070,0.0018
657,0.0038,0.0162,0.0141,0.0036
658,0.0029,0.0083,0.0070,0.0018
659,0.0029,0.0083,0.0070,0.0018
660,0.0029,0.0083,0.0070,0.0018
661,0.0029,0.0083,0.0070,0.0018
662,0.0029,0.0083,0.0070,0.0018
663,0.0029,0.0083,0.0070,0.0018
664,0.0029,0.0083,0.0070,0.0018
665,0.0037,0.0200,0.0189,0.0031
666,0.0029,0.0083,0.0070,0.0018
667,0.0029,0.0083,0.0070,0.0018
668,0.0041,0.0185,0.0173,0.0022
669,0.0029,0.0083,0.0070,0.0018
670,0.0029,0.0083,0.0070,0.0018
671,0.0029,0.0083,0.0070,0.0018
672,0.0029,0.0083,0.0070,0.0018
673,0.0029,0.0083,0.0070,0.0018
674,0.0029,0.0083,0.0070,0.0018
675,0.0029,0.0083,0.0070,0.0018
676,0.0029,0.0083,0.0070,0.0018
677,0.0044,0.0234,0.0210,0.0033
678,0.0029,0.0083,0.0070,0.0018
679,0.0048,0.0189,0.0145,0.0027
680,0.0029,0.0083,0.0070,0.0018
681,0.0029,0.0083,0.0070,0.0018
682,0.0029,0.0083,0.0070,0.0018
683,0.0029,0.0083,0.0070,0.0018
684,0.0029,0.0083,0.0070,0.0018
685,0.0029,0.0083,0.0070,0.0018
686,0.0029,0.0083,0.0070,0.0018
687,0.0029,0.0083,0.0070,0.0018
688,0.0029,0.0083,0.0070,0.0018
689,0.0054,0.0285,0.0270,0.0039
690,0.0039,0.0255,0.0176,0.0036
691,0.0029,0.0083,0.0070,0.0018
692,0.0029,0.0083,0.0070,0.0018
693,0.0029,0.0083,0.0070,0.0018
694,0.0029,0.0083,0.0070,0.0018
695,0.0029,0.0083,0.0070,0.0018
696,0.0060,0.0303,0.0280,0.0101
697,0.0059,0.0241,0.0241,0.0078
698,0.0058,0.0195,0.0220,0.0058
699,0.0056,0.0140,0.0177,0.0041
700,0.0044,0.0234,0.0210,0.0033
701,0.0047,0.0201,0.0152,0.0054
702,0.0059,0.0290,0.0285,0.0046
703,0.0046,0.0111,0.0153,0.0023
704,0.0040,0.0094,0.0130,0.0020
705,0.0034,0.0096,0.0127,0.0018
706,0.0030,0.0091,0.0105,0.0017
707,0.0028,0.0092,0.0095,0.0018
708,0.0030,0.0087,0.0079,0.0017
709,0.0032,0.0092,0.0095,0.0016
710,0.0031,0.0130,0.0141,0.0021
711,0.0033,0.0180,0.0178,0.0027
712,0.0039,0.0187,0.0163,0.0078
713,0.0037,0.0200,0.0189,0.0031
714,0.0054,0.0292,0.0306,0.0053
715,0.0044,0.0234,0.0210,0.0033
716,0.0054,0.0285,0.0270,0.0039
717,0.0059,0.0290,0.0285,0.0046
718,0.0054,0.0292,0.0306,0.0053
719,0.0055,0.0197,0.0215,0.0053
720,0.0059,0.0307,0.0308,0.0193
721,0.0049,0.0191,0.0170,0.0162
722,0.0046,0.0166,0.0146,0.0154
723,0.0045,0.0194,0.0175,0.0017
724,0.0036,0.0200,0.0182,0.0086
725,0.0028,0.0072,0.0066,0.0017
726,0.0028,0.0072,0.0066,0.0017
727,0.0028,0.0072,0.0066,0.0017
728,0.0028,0.0067,0.0067,0.0016
729,0.0028,0.0067,0.0067,0.0016
730,0.0032,0.0069,0.0083,0.0016
731,0.0030,0.0101,0.0126,0.0021
732,0.0032,0.0138,0.0158,0.0026
733,0.0037,0.0167,0.0175,0.0030
734,0.0043,0.0177,0.0174,0.0032
735,0.0039,0.0221,0.0203,0.0091
736,0.0051,0.0224,0.0223,0.0038
737,0.0056,0.0254,0.0263,0.0046
738,0.0051,0.0251,0.0279,0.0054
739,0.0054,0.0173,0.0218,0.0054
740,0.0032,0.0069,0.0083,0.0016
741,0.0063,0.0400,0.0384,0.0265
742,0.0051,0.0236,0.0208,0.0227
743,0.0048,0.0191,0.0160,0.0214
744,0.0048,0.0209,0.0181,0.0215
745,0.0051,0.0222,0.0204,0.0205
746,0.0042,0.0260,0.0234,0.0108
747,0.0054,0.0209,0.0199,0.0187
748,0.0045,0.0166,0.0157,0.0154
749,0.0030,0.0133,0.0127,0.0114
750,0.0045,0.0113,0.0114,0.0080
751,0.0047,0.0109,0.0108,0.0050
752,0.0030,0.0101,0.0126,0.0021
753,0.0049,0.0067,0.0066,0.0039
754,0.0033,0.0147,0.0142,0.0050
755,0.0033,0.0093,0.0109,0.0081
756,0.0036,0.0141,0.0151,0.0113
757,0.0046,0.0331,0.0293,0.0146
758,0.0040,0.0222,0.0227,0.0128
759,0.0041,0.0260,0.0254,0.0134
760,0.0043,0.0213,0.0198,0.0127
761,0.0046,0.0180,0.0165,0.0133
762,0.0046,0.0195,0.0185,0.0177
763,0.0052,0.0386,0.0370,0.0295
764,0.0032,0.0138,0.0158,0.0026
765,0.0028,0.0072,0.0066,0.0017
766,0.0028,0.0072,0.0066,0.0017
767,0.0028,0.0072,0.0066,0.0017
768,0.0047,0.0359,0.0298,0.0180
769,0.0028,0.0072,0.0066,0.0017
770,0.0028,0.0072,0.0066,0.0017
771,0.0028,0.0072,0.0066,0.0017
772,0.0028,0.0072,0.0066,0.0017
773,0.0028,0.0072,0.0066,0.0017
774,0.0028,0.0072,0.0066,0.0017
775,0.0028,0.0072,0.0066,0.0017
776,0.0037,0.0167,0.0175,0.0030
777,0.0028,0.0072,0.0066,0.0017
778,0.0028,0.0072,0.0066,0.0017
779,0.0053,0.0377,0.0316,0.0236
780,0.0028,0.0072,0.0066,0.0017
781,0.0028,0.0072,0.0066,0.0017
782,0.0028,0.0072,0.0066,0.0017
783,0.0028,0.0072,0.0066,0.0017
784,0.0028,0.0072,0.0066,0.0017
785,0.0028,0.0072,0.0066,0.0017
786,0.0028,0.0072,0.0066,0.0017
787,0.0028,0.0072,0.0066,0.0017
788,0.0043,0.0177,0.0174,0.0032
789,0.0028,0.0072,0.0066,0.0017
790,0.0037,0.0188,0.0146,0.0029
791,0.0028,0.0072,0.0066,0.0017
792,0.0028,0.0072,0.0066,0.0017
793,0.0028,0.0072,0.0066,0.0017
794,0.0028,0.0072,0.0066,0.0017
795,0.0028,0.0072,0.0066,0.0017
796,0.0028,0.0072,0.0066,0.0017
797,0.0028,0.0072,0.0066,0.0017
798,0.0028,0.0072,0.0066,0.0017
799,0.0028,0.0072,0.0066,0.0017
800,0.0051,0.0224,0.0223,0.0038
801,0.0038,0.0147,0.0115,0.0019
802,0.0028,0.0072,0.0066,0.0017
803,0.0028,0.0072,0.0066,0.0017
804,0.0028,0.0072,0.0066,0.0017
805,0.0028,0.0072,0.0066,0.0017
806,0.0028,0.0072,0.0066,0.0017
807,0.0059,0.0341,0.0359,0.0099
808,0.0058,0.0259,0.0300,0.0075
809,0.0058,0.0220,0.0278,0.0055
810,0.0056,0.0160,0.0223,0.0038
811,0.0043,0.0177,0.0174,0.0032
812,0.0038,0.0147,0.0115,0.0019
813,0.0056,0.0254,0.0263,0.0046
814,0.0046,0.0117,0.0185,0.0020
815,0.0040,0.0105,0.0165,0.0018
816,0.0034,0.0106,0.0162,0.0016
817,0.0030,0.0093,0.0127,0.0016
818,0.0028,0.0088,0.0103,0.0017
819,0.0028,0.0067,0.0067,0.0016
820,0.0032,0.0069,0.0083,0.0016
821,0.0030,0.0101,0.0126,0.0021
822,0.0032,0.0138,0.0158,0.0026
823,0.0038,0.0147,0.0115,0.0019
824,0.0037,0.0167,0.0175,0.0030
825,0.0051,0.0251,0.0279,0.0054
826,0.0043,0.0177,0.0174,0.0032
827,0.0051,0.0224,0.0223,0.0038
828,0.0056,0.0254,0.0263,0.0046
829,0.0051,0.0251,0.0279,0.0054
830,0.0054,0.0173,0.0218,0.0054
831,0.0063,0.0400,0.0384,0.0265
832,0.0051,0.0236,0.0208,0.0227
833,0.0048,0.0191,0.0160,0.0214
834,0.0045,0.0194,0.0175,0.0017
835,0.0038,0.0147,0.0115,0.0019
836,0.0027,0.0073,0.0070,0.0017
837,0.0027,0.0073,0.0070,0.0017
838,0.0027,0.0073,0.0070,0.0017
839,0.0029,0.0057,0.0060,0.0016
840,0.0029,0.0057,0.0060,0.0016
841,0.0032,0.0066,0.0081,0.0016
842,0.0030,0.0089,0.0119,0.0021
843,0.0033,0.0114,0.0137,0.0026
844,0.0037,0.0168,0.0183,0.0030
845,0.0042,0.0136,0.0139,0.0032
846,0.0038,0.0147,0.0115,0.0019
847,0.0051,0.0212,0.0216,0.0038
848,0.0055,0.0234,0.0248,0.0046
849,0.0051,0.0237,0.0276,0.0054
850,0.0054,0.0165,0.0211,0.0055
851,0.0032,0.0066,0.0081,0.0016
852,0.0064,0.0453,0.0426,0.0309
853,0.0052,0.0288,0.0254,0.0268
854,0.0047,0.0241,0.0202,0.0247
855,0.0048,0.0249,0.0223,0.0241
856,0.0050,0.0255,0.0240,0.0221
857,0.0038,0.0147,0.0115,0.0019
858,0.0054,0.0232,0.0225,0.0198
859,0.0045,0.0195,0.0192,0.0162
860,0.0031,0.0149,0.0152,0.0119
861,0.0047,0.0120,0.0127,0.0082
862,0.0049,0.0129,0.0135,0.0053
863,0.0030,0.0089,0.0119,0.0021
864,0.0049,0.0082,0.0082,0.0043
865,0.0034,0.0136,0.0140,0.0057
866,0.0033,0.0089,0.0118,0.0089
867,0.0035,0.0148,0.0166,0.0122
868,0.0038,0.0147,0.0115,0.0019
869,0.0040,0.0241,0.0246,0.0139
870,0.0042,0.0289,0.0281,0.0147
871,0.0043,0.0255,0.0241,0.0149
872,0.0047,0.0212,0.0191,0.0156
873,0.0047,0.0225,0.0204,0.0201
874,0.0052,0.0437,0.0410,0.0330
875,0.0033,0.0114,0.0137,0.0026
876,0.0027,0.0073,0.0070,0.0017
877,0.0027,0.0073,0.0070,0.0017
878,0.0027,0.0073,0.0070,0.0017
879,0.0038,0.0147,0.0115,0.0019
880,0.0027,0.0073,0.0070,0.0017
881,0.0027,0.0073,0.0070,0.0017
882,0.0027,0.0073,0.0070,0.0017
883,0.0027,0.0073,0.0070,0.0017
884,0.0027,0.0073,0.0070,0.0017
885,0.0027,0.0073,0.0070,0.0017
886,0.0027,0.0073,0.0070,0.0017
887,0.0037,0.0168,0.0183,0.0030
888,0.0027,0.0073,0.0070,0.0017
889,0.0027,0.0073,0.0070,0.0017
890,0.0038,0.0147,0.0115,0.0019
891,0.0027,0.0073,0.0070,0.0017
892,0.0027,0.0073,0.0070,0.0017
893,0.0027,0.0073,0.0070,0.0017
894,0.0027,0.0073,0.0070,0.0017
895,0.0027,0.0073,0.0070,0.0017
896,0.0027,0.0073,0.0070,0.0017
897,0.0027,0.0073,0.0070,0.0017
898,0.0027,0.0073,0.0070,0.0017
899,0.0042,0.0136,0.0139,0.0032
900,0.0027,0.0073,0.0070,0.0017
901,0.0038,0.0147,0.0115,0.0019
902,0.0027,0.0073,0.0070,0.0017
903,0.0027,0.0073,0.0070,0.0017
904,0.0027,0.0073,0.0070,0.0017
905,0.0027,0.0073,0.0070,0.0017
906,0.0027,0.0073,0.0070,0.0017
907,0.0027,0.0073,0.0070,0.0017
908,0.0027,0.0073,0.0070,0.0017
909,0.0027,0.0073,0.0070,0.0017
910,0.0027,0.0073,0.0070,0.0017
911,0.0051,0.0212,0.0216,0.0038
912,0.0037,0.0239,0.0189,0.0034
913,0.0027,0.0073,0.0070,0.0017
914,0.0027,0.0073,0.0070,0.0017
915,0.0027,0.0073,0.0070,0.0017
916,0.0027,0.0073,0.0070,0.0017
917,0.0027,0.0073,0.0070,0.0017
918,0.0058,0.0350,0.0390,0.0098
919,0.0058,0.0283,0.0346,0.0074
920,0.0058,0.0236,0.0312,0.0053
921,0.0056,0.0183,0.0264,0.0036
922,0.0042,0.0136,0.0139,0.0032
923,0.0038,0.0147,0.0115,0.0019
924,0.0055,0.0234,0.0248,0.0046
925,0.0046,0.0129,0.0210,0.0019
926,0.0040,0.0103,0.0168,0.0017
927,0.0034,0.0096,0.0156,0.0015
928,0.0030,0.0087,0.0121,0.0016
929,0.0028,0.0089,0.0108,0.0017
930,0.0029,0.0057,0.0060,0.0016
931,0.0032,0.0066,0.0081,0.0016
932,0.0030,0.0089,0.0119,0.0021
933,0.0033,0.0114,0.0137,0.0026
934,0.0038,0.0147,0.0115,0.0019
935,0.0037,0.0168,0.0183,0.0030
936,0.0051,0.0237,0.0276,0.0054
937,0.0042,0.0136,0.0139,0.0032
938,0.0051,0.0212,0.0216,0.0038
939,0.0055,0.0234,0.0248,0.0046
940,0.0051,0.0237,0.0276,0.0054
941,0.0054,0.0165,0.0211,0.0055
942,0.0064,0.0453,0.0426,0.0309
943,0.0052,0.0288,0.0254,0.0268
944,0.0047,0.0241,0.0202,0.0247
945,0.0048,0.0183,0.0173,0.0016
946,0.0038,0.0147,0.0115,0.0019
947,0.0039,0.0149,0.0114,0.0019
948,0.0039,0.0149,0.0114,0.0019
949,0.0039,0.0149,0.0114,0.0019
950,0.0047,0.0205,0.0183,0.0018
951,0.0047,0.0205,0.0183,0.0018
952,0.0050,0.0192,0.0181,0.0016
953,0.0042,0.0177,0.0164,0.0020
954,0.0038,0.0174,0.0133,0.0025
955,0.0037,0.0222,0.0172,0.0029
956,0.0046,0.0281,0.0221,0.0030
957,0.0038,0.0147,0.0115,0.0019
958,0.0058,0.0308,0.0256,0.0034
959,0.0064,0.0349,0.0304,0.0039
960,0.0057,0.0332,0.0301,0.0045
961,0.0057,0.0258,0.0218,0.0047
962,0.0050,0.0192,0.0181,0.0016
963,0.0061,0.0388,0.0342,0.0305
964,0.0051,0.0330,0.0270,0.0246
965,0.0049,0.0300,0.0263,0.0195
966,0.0051,0.0261,0.0240,0.0161
967,0.0057,0.0243,0.0217,0.0147
968,0.0038,0.0147,0.0115,0.0019
969,0.0062,0.0233,0.0199,0.0142
970,0.0051,0.0206,0.0180,0.0119
971,0.0033,0.0178,0.0165,0.0089
972,0.0034,0.0162,0.0154,0.0061
973,0.0038,0.0164,0.0139,0.0039
974,0.0042,0.0177,0.0164,0.0020
975,0.0047,0.0200,0.0151,0.0028
976,0.0038,0.0267,0.0182,0.0037
977,0.0045,0.0203,0.0149,0.0059
978,0.0038,0.0187,0.0163,0.0086
979,0.0038,0.0147,0.0115,0.0019
980,0.0036,0.0203,0.0183,0.0094
981,0.0039,0.0227,0.0210,0.0098
982,0.0042,0.0265,0.0242,0.0111
983,0.0046,0.0333,0.0298,0.0145
984,0.0047,0.0365,0.0308,0.0182
985,0.0052,0.0385,0.0323,0.0242
986,0.0038,0.0174,0.0133,0.0025
987,0.0039,0.0149,0.0114,0.0019
988,0.0039,0.0149,0.0114,0.0019
989,0.0039,0.0149,0.0114,0.0019
990,0.0038,0.0147,0.0115,0.0019
991,0.0039,0.0149,0.0114,0.0019
992,0.0039,0.0149,0.0114,0.0019
993,0.0039,0.0149,0.0114,0.0019
994,0.0039,0.0149,0.0114,0.0019
995,0.0039,0.0149,0.0114,0.0019
996,0.0039,0.0149,0.0114,0.0019
997,0.0039,0.0149,0.0114,0.0019
998,0.0037,0.0222,0.0172,0.0029
999,0.0039,0.0149,0.0114,0.0019
1000,0.0039,0.0149,0.0114,0.0019
1001,0.0038,0.0147,0.0115,0.0019
1002,0.0039,0.0149,0.0114,0.0019
1003,0.0039,0.0149,0.0114,0.0019
1004,0.0039,0.0149,0.0114,0.0019
1005,0.0039,0.0149,0.0114,0.0019
1006,0.0039,0.0149,0.0114,0.0019
1007,0.0039,0.0149,0.0114,0.0019
1008,0.0039,0.0149,0.0114,0.0019
1009,0.0039,0.0149,0.0114,0.0019
1010,0.0046,0.0281,0.0221,0.0030
1011,0.0039,0.0149,0.0114,0.0019
1012,0.0038,0.0147,0.0115,0.0019
1013,0.0039,0.0149,0.0114,0.0019
1014,0.0039,0.0149,0.0114,0.0019
1015,0.0039,0.0149,0.0114,0.0019
1016,0.0039,0.0149,0.0114,0.0019
1017,0.0039,0.0149,0.0114,0.0019
1018,0.0039,0.0149,0.0114,0.0019
1019,0.0039,0.0149,0.0114,0.0019
1020,0.0039,0.0149,0.0114,0.0019
1021,0.0039,0.0149,0.0114,0.0019
1022,0.0058,0.0308,0.0256,0.0034
1023,0.0038,0.0147,0.0115,0.0019
1024,0.0039,0.0149,0.0114,0.0019
1025,0.0039,0.0149,0.0114,0.0019
1026,0.0039,0.0149,0.0114,0.0019
1027,0.0039,0.0149,0.0114,0.0019
1028,0.0039,0.0149,0.0114,0.0019
1029,0.0060,0.0267,0.0224,0.0093
1030,0.0058,0.0211,0.0199,0.0071
1031,0.0056,0.0177,0.0194,0.0053
1032,0.0054,0.0149,0.0176,0.0039
1033,0.0046,0.0281,0.0221,0.0030
1034,0.0046,0.0293,0.0232,0.0037
1035,0.0064,0.0349,0.0304,0.0039
1036,0.0045,0.0127,0.0161,0.0024
1037,0.0039,0.0128,0.0145,0.0021
1038,0.0035,0.0133,0.0148,0.0019
1039,0.0033,0.0135,0.0138,0.0019
1040,0.0034,0.0142,0.0128,0.0019
1041,0.0047,0.0205,0.0183,0.0018
1042,0.0050,0.0192,0.0181,0.0016
1043,0.0042,0.0177,0.0164,0.0020
1044,0.0038,0.0174,0.0133,0.0025
1045,0.0038,0.0147,0.0115,0.0019
1046,0.0037,0.0222,0.0172,0.0029
1047,0.0057,0.0332,0.0301,0.0045
1048,0.0046,0.0281,0.0221,0.0030
1049,0.0058,0.0308,0.0256,0.0034
1050,0.0064,0.0349,0.0304,0.0039
1051,0.0057,0.0332,0.0301,0.0045
1052,0.0057,0.0258,0.0218,0.0047
1053,0.0061,0.0388,0.0342,0.0305
1054,0.0051,0.0330,0.0270,0.0246
1055,0.0049,0.0300,0.0263,0.0195
1056,0.0041,0.0185,0.0173,0.0022
1057,0.0038,0.0147,0.0115,0.0019
1058,0.0035,0.0125,0.0099,0.0020
1059,0.0035,0.0125,0.0099,0.0020
1060,0.0035,0.0125,0.0099,0.0020
1061,0.0040,0.0151,0.0127,0.0018
1062,0.0040,0.0151,0.0127,0.0018
1063,0.0042,0.0139,0.0125,0.0016
1064,0.0037,0.0146,0.0136,0.0019
1065,0.0036,0.0163,0.0129,0.0023
1066,0.0037,0.0226,0.0189,0.0027
1067,0.0045,0.0259,0.0213,0.0029
1068,0.0038,0.0147,0.0115,0.0019
1069,0.0057,0.0300,0.0262,0.0032
1070,0.0063,0.0328,0.0297,0.0037
1071,0.0056,0.0305,0.0290,0.0043
1072,0.0056,0.0217,0.0200,0.0045
1073,0.0042,0.0139,0.0125,0.0016
1074,0.0063,0.0358,0.0339,0.0248
1075,0.0053,0.0277,0.0234,0.0202
1076,0.0050,0.0250,0.0221,0.0170
1077,0.0051,0.0222,0.0204,0.0155
1078,0.0057,0.0218,0.0191,0.0155
1079,0.0038,0.0147,0.0115,0.0019
1080,0.0061,0.0217,0.0182,0.0152
1081,0.0050,0.0178,0.0154,0.0127
1082,0.0032,0.0150,0.0140,0.0097
1083,0.0035,0.0136,0.0127,0.0066
1084,0.0037,0.0142,0.0123,0.0043
1085,0.0037,0.0146,0.0136,0.0019
1086,0.0047,0.0164,0.0126,0.0028
1087,0.0035,0.0240,0.0170,0.0036
1088,0.0039,0.0160,0.0124,0.0061
1089,0.0038,0.0165,0.0147,0.0089
1090,0.0038,0.0147,0.0115,0.0019
1091,0.0037,0.0194,0.0175,0.0099
1092,0.0039,0.0209,0.0190,0.0098
1093,0.0042,0.0222,0.0202,0.0099
1094,0.0046,0.0277,0.0250,0.0121
1095,0.0046,0.0296,0.0255,0.0152
1096,0.0052,0.0334,0.0294,0.0220
1097,0.0036,0.0163,0.0129,0.0023
1098,0.0035,0.0125,0.0099,0.0020
1099,0.0035,0.0125,0.0099,0.0020
1100,0.0035,0.0125,0.0099,0.0020
1101,0.0038,0.0147,0.0115,0.0019
1102,0.0035,0.0125,0.0099,0.0020
1103,0.0035,0.0125,0.0099,0.0020
1104,0.0035,0.0125,0.0099,0.0020
1105,0.0035,0.0125,0.0099,0.0020
1106,0.0035,0.0125,0.0099,0.0020
1107,0.0035,0.0125,0.0099,0.0020
1108,0.0035,0.0125,0.0099,0.0020
1109,0.0037,0.0226,0.0189,0.0027
1110,0.0035,0.0125,0.0099,0.0020
1111,0.0035,0.0125,0.0099,0.0020
1112,0.0038,0.0147,0.0115,0.0019
1113,0.0035,0.0125,0.0099,0.0020
1114,0.0035,0.0125,0.0099,0.0020
1115,0.0035,0.0125,0.0099,0.0020
1116,0.0035,0.0125,0.0099,0.0020
1117,0.0035,0.0125,0.0099,0.0020
1118,0.0035,0.0125,0.0099,0.0020
1119,0.0035,0.0125,0.0099,0.0020
1120,0.0035,0.0125,0.0099,0.0020
1121,0.0045,0.0259,0.0213,0.0029
1122,0.0035,0.0125,0.0099,0.0020
1123,0.0038,0.0147,0.0115,0.0019
1124,0.0035,0.0125,0.0099,0.0020
1125,0.0035,0.0125,0.0099,0.0020
1126,0.0035,0.0125,0.0099,0.0020
1127,0.0035,0.0125,0.0099,0.0020
1128,0.0035,0.0125,0.0099,0.0020
1129,0.0035,0.0125,0.0099,0.0020
1130,0.0035,0.0125,0.0099,0.0020
1131,0.0035,0.0125,0.0099,0.0020
1132,0.0035,0.0125,0.0099,0.0020
1133,0.0057,0.0300,0.0262,0.0032
1134,0.0038,0.0147,0.0115,0.0019
1135,0.0035,0.0125,0.0099,0.0020
1136,0.0035,0.0125,0.0099,0.0020
1137,0.0035,0.0125,0.0099,0.0020
1138,0.0035,0.0125,0.0099,0.0020
1139,0.0035,0.0125,0.0099,0.0020
1140,0.0059,0.0275,0.0227,0.0094
1141,0.0058,0.0212,0.0197,0.0072
1142,0.0056,0.0180,0.0188,0.0054
1143,0.0054,0.0146,0.0168,0.0039
1144,0.0045,0.0259,0.0213,0.0029
1145,0.0038,0.0147,0.0115,0.0019
1146,0.0063,0.0328,0.0297,0.0037
1147,0.0044,0.0119,0.0150,0.0024
1148,0.0039,0.0115,0.0132,0.0021
1149,0.0034,0.0115,0.0137,0.0019
1150,0.0031,0.0118,0.0121,0.0019
1151,0.0031,0.0127,0.0116,0.0020
1152,0.0040,0.0151,0.0127,0.0018
1153,0.0042,0.0139,0.0125,0.0016
1154,0.0037,0.0146,0.0136,0.0019
1155,0.0036,0.0163,0.0129,0.0023
1156,0.0058,0.0330,0.0276,0.0042
1157,0.0037,0.0226,0.0189,0.0027
1158,0.0056,0.0305,0.0290,0.0043
1159,0.0045,0.0259,0.0213,0.0029
1160,0.0057,0.0300,0.0262,0.0032
1161,0.0063,0.0328,0.0297,0.0037
1162,0.0056,0.0305,0.0290,0.0043
1163,0.0056,0.0217,0.0200,0.0045
1164,0.0063,0.0358,0.0339,0.0248
1165,0.0053,0.0277,0.0234,0.0202
1166,0.0050,0.0250,0.0221,0.0170
1167,0.0037,0.0188,0.0146,0.0029
1168,0.0038,0.0147,0.0115,0.0019
1169,0.0030,0.0085,0.0071,0.0019
1170,0.0030,0.0085,0.0071,0.0019
1171,0.0030,0.0085,0.0071,0.0019
1172,0.0031,0.0097,0.0085,0.0017
1173,0.0031,0.0097,0.0085,0.0017
1174,0.0033,0.0089,0.0089,0.0016
1175,0.0031,0.0108,0.0116,0.0018
1176,0.0033,0.0156,0.0153,0.0023
1177,0.0036,0.0182,0.0172,0.0026
1178,0.0044,0.0215,0.0192,0.0027
1179,0.0038,0.0147,0.0115,0.0019
1180,0.0054,0.0257,0.0243,0.0030
1181,0.0059,0.0251,0.0246,0.0036
1182,0.0053,0.0251,0.0265,0.0042
1183,0.0055,0.0165,0.0180,0.0043
1184,0.0033,0.0089,0.0089,0.0016
1185,0.0067,0.0386,0.0383,0.0237
1186,0.0055,0.0245,0.0218,0.0204
1187,0.0052,0.0204,0.0173,0.0193
1188,0.0052,0.0204,0.0173,0.0195
1189,0.0057,0.0211,0.0183,0.0192
1190,0.0038,0.0147,0.0115,0.0019
1191,0.0061,0.0219,0.0187,0.0184
1192,0.0050,0.0171,0.0144,0.0153
1193,0.0030,0.0122,0.0105,0.0115
1194,0.0039,0.0105,0.0094,0.0078
1195,0.0040,0.0118,0.0107,0.0051
1196,0.0031,0.0108,0.0116,0.0018
1197,0.0047,0.0100,0.0084,0.0033
1198,0.0032,0.0169,0.0138,0.0042
1199,0.0033,0.0116,0.0112,0.0073
1200,0.0037,0.0149,0.0142,0.0105
1201,0.0038,0.0147,0.0115,0.0019
1202,0.0039,0.0194,0.0180,0.0115
1203,0.0040,0.0213,0.0197,0.0116
1204,0.0042,0.0171,0.0154,0.0104
1205,0.0046,0.0179,0.0166,0.0108
1206,0.0046,0.0186,0.0170,0.0142
1207,0.0052,0.0310,0.0300,0.0242
1208,0.0033,0.0156,0.0153,0.0023
1209,0.0030,0.0085,0.0071,0.0019
1210,0.0030,0.0085,0.0071,0.0019
1211,0.0030,0.0085,0.0071,0.0019
1212,0.0038,0.0147,0.0115,0.0019
1213,0.0030,0.0085,0.0071,0.0019
1214,0.0030,0.0085,0.0071,0.0019
1215,0.0030,0.0085,0.0071,0.0019
1216,0.0030,0.0085,0.0071,0.0019
1217,0.0030,0.0085,0.0071,0.0019
1218,0.0030,0.0085,0.0071,0.0019
1219,0.0030,0.0085,0.0071,0.0019
1220,0.0036,0.0182,0.0172,0.0026
1221,0.0030,0.0085,0.0071,0.0019
1222,0.0030,0.0085,0.0071,0.0019
1223,0.0062,0.0272,0.0222,0.0101
1224,0.0030,0.0085,0.0071,0.0019
1225,0.0030,0.0085,0.0071,0.0019
1226,0.0030,0.0085,0.0071,0.0019
1227,0.0030,0.0085,0.0071,0.0019
1228,0.0030,0.0085,0.0071,0.0019
1229,0.0030,0.0085,0.0071,0.0019
1230,0.0030,0.0085,0.0071,0.0019
1231,0.0030,0.0085,0.0071,0.0019
1232,0.0044,0.0215,0.0192,0.0027
1233,0.0030,0.0085,0.0071,0.0019
1234,0.0060,0.0217,0.0199,0.0078
1235,0.0030,0.0085,0.0071,0.0019
1236,0.0030,0.0085,0.0071,0.0019
1237,0.0030,0.0085,0.0071,0.0019
1238,0.0030,0.0085,0.0071,0.0019
1239,0.0030,0.0085,0.0071,0.0019
1240,0.0030,0.0085,0.0071,0.0019
1241,0.0030,0.0085,0.0071,0.0019
1242,0.0030,0.0085,0.0071,0.0019
1243,0.0030,0.0085,0.0071,0.0019
1244,0.0054,0.0257,0.0243,0.0030
1245,0.0058,0.0179,0.0192,0.0059
1246,0.0030,0.0085,0.0071,0.0019
1247,0.0030,0.0085,0.0071,0.0019
1248,0.0030,0.0085,0.0071,0.0019
1249,0.0030,0.0085,0.0071,0.0019
1250,0.0030,0.0085,0.0071,0.0019
1251,0.0058,0.0298,0.0276,0.0094
1252,0.0057,0.0238,0.0237,0.0072
1253,0.0056,0.0194,0.0218,0.0052
1254,0.0054,0.0141,0.0178,0.0037
1255,0.0044,0.0215,0.0192,0.0027
1256,0.0056,0.0150,0.0173,0.0044
1257,0.0059,0.0251,0.0246,0.0036
1258,0.0044,0.0111,0.0152,0.0022
1259,0.0039,0.0096,0.0130,0.0019
1260,0.0034,0.0098,0.0127,0.0017
1261,0.0030,0.0092,0.0104,0.0017
1262,0.0028,0.0095,0.0096,0.0018
1263,0.0031,0.0097,0.0085,0.0017
1264,0.0033,0.0089,0.0089,0.0016
1265,0.0031,0.0108,0.0116,0.0018
1266,0.0033,0.0156,0.0153,0.0023
1267,0.0046,0.0293,0.0232,0.0037
1268,0.0036,0.0182,0.0172,0.0026
1269,0.0053,0.0251,0.0265,0.0042
1270,0.0044,0.0215,0.0192,0.0027
1271,0.0054,0.0257,0.0243,0.0030
1272,0.0059,0.0251,0.0246,0.0036
1273,0.0053,0.0251,0.0265,0.0042
1274,0.0055,0.0165,0.0180,0.0043
1275,0.0067,0.0386,0.0383,0.0237
1276,0.0055,0.0245,0.0218,0.0204
1277,0.0052,0.0204,0.0173,0.0193
1278,0.0037,0.0239,0.0189,0.0034
1279,0.0064,0.0375,0.0330,0.0049
1280,0.0028,0.0079,0.0070,0.0018
1281,0.0028,0.0079,0.0070,0.0018
1282,0.0028,0.0079,0.0070,0.0018
1283,0.0028,0.0076,0.0070,0.0017
1284,0.0028,0.0076,0.0070,0.0017
1285,0.0031,0.0064,0.0073,0.0015
1286,0.0030,0.0084,0.0106,0.0018
1287,0.0032,0.0118,0.0136,0.0022
1288,0.0037,0.0148,0.0156,0.0025
1289,0.0043,0.0158,0.0155,0.0026
1290,0.0046,0.0127,0.0159,0.0027
1291,0.0052,0.0202,0.0202,0.0029
1292,0.0056,0.0220,0.0230,0.0035
1293,0.0051,0.0211,0.0240,0.0042
1294,0.0054,0.0138,0.0177,0.0042
1295,0.0031,0.0064,0.0073,0.0015
1296,0.0071,0.0492,0.0464,0.0320
1297,0.0058,0.0313,0.0273,0.0277
1298,0.0053,0.0258,0.0215,0.0259
1299,0.0054,0.0269,0.0232,0.0254
1300,0.0058,0.0273,0.0248,0.0238
1301,0.0040,0.0129,0.0144,0.0023
1302,0.0061,0.0253,0.0235,0.0214
1303,0.0049,0.0200,0.0185,0.0175
1304,0.0030,0.0155,0.0143,0.0128
1305,0.0043,0.0129,0.0125,0.0089
1306,0.0045,0.0116,0.0111,0.0055
1307,0.0030,0.0084,0.0106,0.0018
1308,0.0048,0.0078,0.0071,0.0040
1309,0.0033,0.0170,0.0162,0.0055
1310,0.0032,0.0101,0.0120,0.0089
1311,0.0036,0.0150,0.0160,0.0123
1312,0.0035,0.0135,0.0148,0.0021
1313,0.0041,0.0236,0.0234,0.0140
1314,0.0042,0.0271,0.0259,0.0147
1315,0.0043,0.0220,0.0199,0.0141
1316,0.0047,0.0183,0.0163,0.0146
1317,0.0047,0.0195,0.0180,0.0190
1318,0.0051,0.0381,0.0359,0.0307
1319,0.0032,0.0118,0.0136,0.0022
1320,0.0028,0.0079,0.0070,0.0018
1321,0.0028,0.0079,0.0070,0.0018
1322,0.0028,0.0079,0.0070,0.0018
1323,0.0033,0.0136,0.0139,0.0019
1324,0.0028,0.0079,0.0070,0.0018
1325,0.0028,0.0079,0.0070,0.0018
1326,0.0028,0.0079,0.0070,0.0018
1327,0.0028,0.0079,0.0070,0.0018
1328,0.0028,0.0079,0.0070,0.0018
1329,0.0028,0.0079,0.0070,0.0018
1330,0.0028,0.0079,0.0070,0.0018
1331,0.0037,0.0148,0.0156,0.0025
1332,0.0028,0.0079,0.0070,0.0018
1333,0.0028,0.0079,0.0070,0.0018
1334,0.0033,0.0140,0.0127,0.0020
1335,0.0028,0.0079,0.0070,0.0018
1336,0.0028,0.0079,0.0070,0.0018
1337,0.0028,0.0079,0.0070,0.0018
1338,0.0028,0.0079,0.0070,0.0018
1339,0.0028,0.0079,0.0070,0.0018
1340,0.0028,0.0079,0.0070,0.0018
1341,0.0028,0.0079,0.0070,0.0018
1342,0.0028,0.0079,0.0070,0.0018
1343,0.0043,0.0158,0.0155,0.0026
1344,0.0028,0.0079,0.0070,0.0018
1345,0.0045,0.0194,0.0175,0.0017
1346,0.0028,0.0079,0.0070,0.0018
1347,0.0028,0.0079,0.0070,0.0018
1348,0.0028,0.0079,0.0070,0.0018
1349,0.0028,0.0079,0.0070,0.0018
1350,0.0028,0.0079,0.0070,0.0018
1351,0.0028,0.0079,0.0070,0.0018
1352,0.0028,0.0079,0.0070,0.0018
1353,0.0028,0.0079,0.0070,0.0018
1354,0.0028,0.0079,0.0070,0.0018
1355,0.0052,0.0202,0.0202,0.0029
1356,0.0048,0.0183,0.0173,0.0016
1357,0.0028,0.0079,0.0070,0.0018
1358,0.0028,0.0079,0.0070,0.0018
1359,0.0028,0.0079,0.0070,0.0018
1360,0.0028,0.0079,0.0070,0.0018
1361,0.0028,0.0079,0.0070,0.0018
1362,0.0057,0.0335,0.0352,0.0093
1363,0.0056,0.0254,0.0294,0.0070
1364,0.0056,0.0217,0.0274,0.0050
1365,0.0054,0.0160,0.0222,0.0034
1366,0.0043,0.0158,0.0155,0.0026
1367,0.0041,0.0185,0.0173,0.0022
1368,0.0056,0.0220,0.0230,0.0035
1369,0.0045,0.0118,0.0183,0.0019
1370,0.0039,0.0105,0.0160,0.0017
1371,0.0033,0.0106,0.0157,0.0016
1372,0.0030,0.0093,0.0121,0.0016
1373,0.0028,0.0091,0.0101,0.0017
1374,0.0028,0.0076,0.0070,0.0017
1375,0.0031,0.0064,0.0073,0.0015
1376,0.0030,0.0084,0.0106,0.0018
1377,0.0032,0.0118,0.0136,0.0022
1378,0.0037,0.0188,0.0146,0.0029
1379,0.0037,0.0148,0.0156,0.0025
1380,0.0051,0.0211,0.0240,0.0042
1381,0.0043,0.0158,0.0155,0.0026
1382,0.0052,0.0202,0.0202,0.0029
1383,0.0056,0.0220,0.0230,0.0035
1384,0.0051,0.0211,0.0240,0.0042
1385,0.0054,0.0138,0.0177,0.0042
1386,0.0071,0.0492,0.0464,0.0320
1387,0.0058,0.0313,0.0273,0.0277
1388,0.0053,0.0258,0.0215,0.0259
1389,0.0046,0.0293,0.0232,0.0037
1390,0.0037,0.0239,0.0189,0.0034
1391,0.0027,0.0081,0.0076,0.0018
1392,0.0027,0.0081,0.0076,0.0018
1393,0.0027,0.0081,0.0076,0.0018
1394,0.0028,0.0063,0.0060,0.0016
1395,0.0028,0.0063,0.0060,0.0016
1396,0.0031,0.0069,0.0076,0.0016
1397,0.0030,0.0078,0.0102,0.0018
1398,0.0032,0.0095,0.0116,0.0022
1399,0.0037,0.0147,0.0163,0.0025
1400,0.0042,0.0115,0.0118,0.0026
1401,0.0057,0.0368,0.0337,0.0055
1402,0.0051,0.0184,0.0189,0.0029
1403,0.0055,0.0197,0.0212,0.0035
1404,0.0050,0.0192,0.0230,0.0042
1405,0.0054,0.0130,0.0169,0.0043
1406,0.0031,0.0069,0.0076,0.0016
1407,0.0073,0.0546,0.0506,0.0365
1408,0.0059,0.0367,0.0322,0.0319
1409,0.0053,0.0311,0.0262,0.0293
1410,0.0055,0.0311,0.0277,0.0281
1411,0.0057,0.0312,0.0290,0.0257
1412,0.0046,0.0293,0.0232,0.0037
1413,0.0060,0.0272,0.0257,0.0223
1414,0.0049,0.0223,0.0214,0.0181
1415,0.0030,0.0169,0.0166,0.0132
1416,0.0044,0.0132,0.0133,0.0091
1417,0.0047,0.0135,0.0136,0.0057
1418,0.0030,0.0078,0.0102,0.0018
1419,0.0048,0.0096,0.0091,0.0044
1420,0.0034,0.0159,0.0161,0.0061
1421,0.0032,0.0098,0.0130,0.0097
1422,0.0035,0.0162,0.0179,0.0133
1423,0.0058,0.0330,0.0276,0.0042
1424,0.0042,0.0256,0.0257,0.0151
1425,0.0043,0.0304,0.0289,0.0162
1426,0.0044,0.0265,0.0244,0.0164
1427,0.0048,0.0215,0.0190,0.0170
1428,0.0047,0.0222,0.0196,0.0214
1429,0.0051,0.0432,0.0399,0.0342
1430,0.0032,0.0095,0.0116,0.0022
1431,0.0027,0.0081,0.0076,0.0018
1432,0.0027,0.0081,0.0076,0.0018
1433,0.0027,0.0081,0.0076,0.0018
1434,0.0064,0.0375,0.0330,0.0049
1435,0.0027,0.0081,0.0076,0.0018
1436,0.0027,0.0081,0.0076,0.0018
1437,0.0027,0.0081,0.0076,0.0018
1438,0.0027,0.0081,0.0076,0.0018
1439,0.0027,0.0081,0.0076,0.0018
1440,0.0027,0.0081,0.0076,0.0018
1441,0.0027,0.0081,0.0076,0.0018
1442,0.0037,0.0147,0.0163,0.0025
1443,0.0027,0.0081,0.0076,0.0018
1444,0.0027,0.0081,0.0076,0.0018
1445,0.0057,0.0368,0.0337,0.0055
1446,0.0027,0.0081,0.0076,0.0018
1447,0.0027,0.0081,0.0076,0.0018
1448,0.0027,0.0081,0.0076,0.0018
1449,0.0027,0.0081,0.0076,0.0018
1450,0.0027,0.0081,0.0076,0.0018
1451,0.0027,0.0081,0.0076,0.0018
1452,0.0027,0.0081,0.0076,0.0018
1453,0.0027,0.0081,0.0076,0.0018
1454,0.0042,0.0115,0.0118,0.0026
1455,0.0027,0.0081,0.0076,0.0018
1456,0.0057,0.0292,0.0254,0.0055
1457,0.0027,0.0081,0.0076,0.0018
1458,0.0027,0.0081,0.0076,0.0018
1459,0.0027,0.0081,0.0076,0.0018
1460,0.0027,0.0081,0.0076,0.0018
1461,0.0027,0.0081,0.0076,0.0018
1462,0.0027,0.0081,0.0076,0.0018
1463,0.0027,0.0081,0.0076,0.0018
1464,0.0027,0.0081,0.0076,0.0018
1465,0.0027,0.0081,0.0076,0.0018
1466,0.0051,0.0184,0.0189,0.0029
1467,0.0055,0.0374,0.0306,0.0312
1468,0.0027,0.0081,0.0076,0.0018
1469,0.0027,0.0081,0.0076,0.0018
1470,0.0027,0.0081,0.0076,0.0018
1471,0.0027,0.0081,0.0076,0.0018
1472,0.0027,0.0081,0.0076,0.0018
1473,0.0057,0.0345,0.0385,0.0092
1474,0.0056,0.0280,0.0342,0.0068
1475,0.0056,0.0236,0.0310,0.0049
1476,0.0054,0.0182,0.0261,0.0033
1477,0.0042,0.0115,0.0118,0.0026
1478,0.0047,0.0345,0.0278,0.0252
1479,0.0055,0.0197,0.0212,0.0035
1480,0.0045,0.0131,0.0208,0.0018
1481,0.0039,0.0103,0.0164,0.0016
1482,0.0033,0.0097,0.0152,0.0015
1483,0.0030,0.0088,0.0118,0.0016
1484,0.0028,0.0094,0.0109,0.0017
1485,0.0028,0.0063,0.0060,0.0016
1486,0.0031,0.0069,0.0076,0.0016
1487,0.0030,0.0078,0.0102,0.0018
1488,0.0032,0.0095,0.0116,0.0022
1489,0.0045,0.0317,0.0282,0.0193
1490,0.0037,0.0147,0.0163,0.0025
1491,0.0050,0.0192,0.0230,0.0042
1492,0.0042,0.0115,0.0118,0.0026
1493,0.0051,0.0184,0.0189,0.0029
1494,0.0055,0.0197,0.0212,0.0035
1495,0.0050,0.0192,0.0230,0.0042
1496,0.0054,0.0130,0.0169,0.0043
1497,0.0073,0.0546,0.0506,0.0365
1498,0.0059,0.0367,0.0322,0.0319
1499,0.0053,0.0311,0.0262,0.0293
1500,0.0038,0.0165,0.0131,0.0034
1501,0.0038,0.0165,0.0131,0.0034
1502,0.0061,0.0326,0.0257,0.0045
1503,0.0089,0.0292,0.0383,0.0486
1504,0.0024,0.0084,0.0083,0.0020
1505,0.0024,0.0082,0.0076,0.0022
1506,0.0024,0.0084,0.0083,0.0020
1507,0.0043,0.0117,0.0115,0.0028
1508,0.0025,0.0106,0.0109,0.0020
1509,0.0024,0.0084,0.0083,0.0020
1510,0.0024,0.0084,0.0083,0.0020
1511,0.0024,0.0082,0.0076,0.0022
1512,0.0024,0.0084,0.0083,0.0020
1513,0.0025,0.0106,0.0109,0.0020
1514,0.0076,0.0264,0.0335,0.0423
1515,0.0024,0.0082,0.0076,0.0022
1516,0.0024,0.0084,0.0083,0.0020
1517,0.0024,0.0084,0.0083,0.0020
1518,0.0024,0.0082,0.0076,0.0022
1519,0.0053,0.0174,0.0173,0.0030
1520,0.0024,0.0084,0.0083,0.0020
1521,0.0024,0.0082,0.0076,0.0022
1522,0.0024,0.0084,0.0083,0.0020
1523,0.0024,0.0084,0.0083,0.0020
1524,0.0025,0.0106,0.0109,0.0020
1525,0.0065,0.0248,0.0297,0.0370
1526,0.0068,0.0344,0.0391,0.0090
1527,0.0068,0.0279,0.0350,0.0067
1528,0.0068,0.0219,0.0284,0.0047
1529,0.0064,0.0184,0.0268,0.0034
1530,0.0044,0.0123,0.0115,0.0026
1531,0.0051,0.0195,0.0212,0.0042
1532,0.0052,0.0135,0.0216,0.0021
1533,0.0044,0.0120,0.0189,0.0018
1534,0.0034,0.0098,0.0146,0.0018
1535,0.0030,0.0135,0.0183,0.0017
1536,0.0053,0.0246,0.0283,0.0330
1537,0.0025,0.0094,0.0111,0.0019
1538,0.0025,0.0067,0.0076,0.0021
1539,0.0029,0.0066,0.0087,0.0018
1540,0.0027,0.0072,0.0099,0.0020
1541,0.0030,0.0118,0.0119,0.0023
1542,0.0036,0.0134,0.0141,0.0026
1543,0.0052,0.0189,0.0228,0.0048
1544,0.0041,0.0115,0.0119,0.0030
1545,0.0050,0.0175,0.0179,0.0032
1546,0.0057,0.0197,0.0211,0.0036
1547,0.0044,0.0254,0.0317,0.0315
1548,0.0050,0.0187,0.0230,0.0051
1549,0.0063,0.0124,0.0167,0.0051
1550,0.0067,0.0487,0.0451,0.0332
1551,0.0053,0.0258,0.0224,0.0240
1552,0.0050,0.0328,0.0287,0.0297
1553,0.0073,0.0377,0.0519,0.0332
1554,0.0071,0.0369,0.0508,0.0350
1555,0.0068,0.0381,0.0514,0.0372
1556,0.0064,0.0371,0.0458,0.0357
1557,0.0052,0.0342,0.0373,0.0321
1558,0.0035,0.0140,0.0115,0.0033
1559,0.0039,0.0162,0.0136,0.0018
1560,0.0039,0.0162,0.0136,0.0018
1561,0.0038,0.0148,0.0115,0.0019
1562,0.0047,0.0208,0.0187,0.0016
1563,0.0048,0.0229,0.0210,0.0016
1564,0.0048,0.0185,0.0175,0.0016
1565,0.0041,0.0183,0.0161,0.0021
1566,0.0037,0.0187,0.0137,0.0028
1567,0.0037,0.0243,0.0194,0.0034
1568,0.0053,0.0297,0.0231,0.0033
1569,0.0035,0.0140,0.0115,0.0033
1570,0.0063,0.0330,0.0275,0.0039
1571,0.0064,0.0373,0.0328,0.0049
1572,0.0063,0.0373,0.0338,0.0052
1573,0.0058,0.0299,0.0257,0.0054
1574,0.0050,0.0221,0.0212,0.0016
1575,0.0057,0.0429,0.0377,0.0331
1576,0.0048,0.0368,0.0307,0.0267
1577,0.0045,0.0315,0.0280,0.0193
1578,0.0047,0.0290,0.0268,0.0172
1579,0.0053,0.0324,0.0302,0.0187
1580,0.0035,0.0140,0.0115,0.0033
1581,0.0056,0.0220,0.0193,0.0124
1582,0.0046,0.0236,0.0214,0.0129
1583,0.0032,0.0201,0.0188,0.0097
1584,0.0035,0.0163,0.0155,0.0057
1585,0.0043,0.0216,0.0210,0.0046
1586,0.0041,0.0183,0.0161,0.0021
1587,0.0048,0.0191,0.0148,0.0027
1588,0.0042,0.0265,0.0187,0.0042
1589,0.0049,0.0212,0.0165,0.0064
1590,0.0043,0.0213,0.0197,0.0102
1591,0.0039,0.0146,0.0125,0.0032
1592,0.0036,0.0223,0.0207,0.0101
1593,0.0039,0.0256,0.0238,0.0109
1594,0.0042,0.0261,0.0235,0.0109
1595,0.0046,0.0336,0.0295,0.0156
1596,0.0045,0.0401,0.0345,0.0224
1597,0.0052,0.0376,0.0315,0.0235
1598,0.0037,0.0187,0.0137,0.0028
1599,0.0039,0.0162,0.0136,0.0018
1600,0.0038,0.0148,0.0115,0.0019
1601,0.0041,0.0180,0.0158,0.0017
1602,0.0038,0.0161,0.0130,0.0031
1603,0.0039,0.0162,0.0136,0.0018
1604,0.0038,0.0148,0.0115,0.0019
1605,0.0039,0.0162,0.0136,0.0018
1606,0.0039,0.0162,0.0136,0.0018
1607,0.0041,0.0180,0.0158,0.0017
1608,0.0039,0.0162,0.0136,0.0018
1609,0.0039,0.0162,0.0136,0.0018
1610,0.0037,0.0243,0.0194,0.0034
1611,0.0039,0.0162,0.0136,0.0018
1612,0.0041,0.0180,0.0158,0.0017
1613,0.0067,0.0370,0.0312,0.0053
1614,0.0043,0.0161,0.0168,0.0029
1615,0.0038,0.0148,0.0115,0.0019
1616,0.0039,0.0162,0.0136,0.0018
1617,0.0039,0.0162,0.0136,0.0018
1618,0.0038,0.0148,0.0115,0.0019
1619,0.0041,0.0180,0.0158,0.0017
1620,0.0039,0.0162,0.0136,0.0018
1621,0.0038,0.0148,0.0115,0.0019
1622,0.0039,0.0162,0.0136,0.0018
1623,0.0049,0.0294,0.0232,0.0035
1624,0.0041,0.0180,0.0158,0.0017
1625,0.0039,0.0191,0.0202,0.0027
1626,0.0039,0.0162,0.0136,0.0018
1627,0.0039,0.0162,0.0136,0.0018
1628,0.0038,0.0148,0.0115,0.0019
1629,0.0039,0.0162,0.0136,0.0018
1630,0.0041,0.0180,0.0158,0.0017
1631,0.0038,0.0148,0.0115,0.0019
1632,0.0039,0.0162,0.0136,0.0018
1633,0.0039,0.0162,0.0136,0.0018
1634,0.0038,0.0148,0.0115,0.0019
1635,0.0068,0.0328,0.0271,0.0037
1636,0.0037,0.0214,0.0195,0.0030
1637,0.0039,0.0162,0.0136,0.0018
1638,0.0038,0.0148,0.0115,0.0019
1639,0.0039,0.0162,0.0136,0.0018
1640,0.0039,0.0162,0.0136,0.0018
1641,0.0041,0.0180,0.0158,0.0017
1642,0.0064,0.0297,0.0276,0.0103
1643,0.0062,0.0243,0.0253,0.0080
1644,0.0058,0.0180,0.0192,0.0059
1645,0.0057,0.0173,0.0214,0.0045
1646,0.0053,0.0297,0.0231,0.0033
1647,0.0043,0.0237,0.0194,0.0034
1648,0.0064,0.0373,0.0328,0.0049
1649,0.0048,0.0144,0.0188,0.0028
1650,0.0042,0.0151,0.0183,0.0024
1651,0.0035,0.0133,0.0146,0.0021
1652,0.0036,0.0177,0.0204,0.0019
1653,0.0035,0.0152,0.0142,0.0018
1654,0.0045,0.0194,0.0174,0.0017
1655,0.0049,0.0201,0.0191,0.0016
1656,0.0041,0.0183,0.0161,0.0021
1657,0.0038,0.0198,0.0147,0.0026
1658,0.0053,0.0287,0.0221,0.0036
1659,0.0039,0.0220,0.0156,0.0032
1660,0.0063,0.0373,0.0338,0.0052
1661,0.0045,0.0292,0.0231,0.0037
1662,0.0063,0.0330,0.0275,0.0039
1663,0.0076,0.0380,0.0332,0.0043
1664,0.0057,0.0369,0.0338,0.0055
1665,0.0058,0.0299,0.0257,0.0054
1666,0.0057,0.0429,0.0377,0.0331
1667,0.0047,0.0345,0.0278,0.0251
1668,0.0047,0.0368,0.0333,0.0237
1669,0.0061,0.0306,0.0250,0.0043
1670,0.0099,0.0303,0.0426,0.0488
1671,0.0081,0.0283,0.0384,0.0430
1672,0.0071,0.0270,0.0341,0.0380
1673,0.0066,0.0266,0.0311,0.0338
1674,0.0059,0.0259,0.0292,0.0305
1675,0.0035,0.0138,0.0122,0.0018
1676,0.0035,0.0138,0.0122,0.0018
1677,0.0034,0.0122,0.0099,0.0019
1678,0.0040,0.0155,0.0132,0.0016
1679,0.0041,0.0173,0.0153,0.0016
1680,0.0066,0.0350,0.0308,0.0052
1681,0.0040,0.0136,0.0124,0.0016
1682,0.0036,0.0153,0.0129,0.0020
1683,0.0035,0.0176,0.0134,0.0026
1684,0.0037,0.0244,0.0207,0.0033
1685,0.0053,0.0277,0.0225,0.0031
1686,0.0062,0.0325,0.0285,0.0038
1687,0.0063,0.0359,0.0329,0.0048
1688,0.0062,0.0342,0.0324,0.0051
1689,0.0056,0.0254,0.0236,0.0052
1690,0.0042,0.0166,0.0155,0.0015
1691,0.0068,0.0321,0.0288,0.0061
1692,0.0058,0.0395,0.0369,0.0276
1693,0.0049,0.0317,0.0272,0.0224
1694,0.0045,0.0257,0.0232,0.0156
1695,0.0047,0.0253,0.0236,0.0166
1696,0.0053,0.0304,0.0285,0.0198
1697,0.0055,0.0195,0.0168,0.0132
1698,0.0045,0.0203,0.0187,0.0135
1699,0.0032,0.0170,0.0162,0.0105
1700,0.0036,0.0136,0.0128,0.0060
1701,0.0043,0.0195,0.0196,0.0049
1702,0.0087,0.0239,0.0200,0.0068
1703,0.0036,0.0153,0.0129,0.0020
1704,0.0048,0.0155,0.0123,0.0027
1705,0.0039,0.0233,0.0170,0.0040
1706,0.0044,0.0167,0.0137,0.0065
1707,0.0043,0.0190,0.0182,0.0105
1708,0.0037,0.0215,0.0203,0.0105
1709,0.0038,0.0243,0.0227,0.0109
1710,0.0042,0.0216,0.0194,0.0093
1711,0.0046,0.0285,0.0253,0.0135
1712,0.0045,0.0352,0.0311,0.0207
1713,0.0042,0.0165,0.0161,0.0027
1714,0.0053,0.0328,0.0292,0.0211
1715,0.0035,0.0176,0.0134,0.0026
1716,0.0035,0.0138,0.0122,0.0018
1717,0.0034,0.0122,0.0099,0.0019
1718,0.0037,0.0157,0.0146,0.0017
1719,0.0035,0.0138,0.0122,0.0018
1720,0.0034,0.0122,0.0099,0.0019
1721,0.0035,0.0138,0.0122,0.0018
1722,0.0035,0.0138,0.0122,0.0018
1723,0.0037,0.0157,0.0146,0.0017
1724,0.0068,0.0347,0.0297,0.0062
1725,0.0059,0.0334,0.0249,0.0262
1726,0.0035,0.0138,0.0122,0.0018
1727,0.0035,0.0138,0.0122,0.0018
1728,0.0037,0.0244,0.0207,0.0033
1729,0.0035,0.0138,0.0122,0.0018
1730,0.0037,0.0157,0.0146,0.0017
1731,0.0034,0.0122,0.0099,0.0019
1732,0.0035,0.0138,0.0122,0.0018
1733,0.0035,0.0138,0.0122,0.0018
1734,0.0034,0.0122,0.0099,0.0019
1735,0.0037,0.0157,0.0146,0.0017
1736,0.0058,0.0364,0.0304,0.0225
1737,0.0035,0.0138,0.0122,0.0018
1738,0.0034,0.0122,0.0099,0.0019
1739,0.0035,0.0138,0.0122,0.0018
1740,0.0049,0.0277,0.0229,0.0033
1741,0.0037,0.0157,0.0146,0.0017
1742,0.0035,0.0138,0.0122,0.0018
1743,0.0035,0.0138,0.0122,0.0018
1744,0.0034,0.0122,0.0099,0.0019
1745,0.0035,0.0138,0.0122,0.0018
1746,0.0037,0.0157,0.0146,0.0017
1747,0.0059,0.0348,0.0324,0.0184
1748,0.0034,0.0122,0.0099,0.0019
1749,0.0035,0.0138,0.0122,0.0018
1750,0.0035,0.0138,0.0122,0.0018
1751,0.0034,0.0122,0.0099,0.0019
1752,0.0067,0.0318,0.0275,0.0035
1753,0.0035,0.0138,0.0122,0.0018
1754,0.0034,0.0122,0.0099,0.0019
1755,0.0035,0.0138,0.0122,0.0018
1756,0.0035,0.0138,0.0122,0.0018
1757,0.0037,0.0157,0.0146,0.0017
1758,0.0055,0.0304,0.0289,0.0152
1759,0.0064,0.0308,0.0286,0.0104
1760,0.0061,0.0241,0.0252,0.0081
1761,0.0058,0.0181,0.0186,0.0059
1762,0.0057,0.0169,0.0210,0.0045
1763,0.0053,0.0277,0.0225,0.0031
1764,0.0063,0.0359,0.0329,0.0048
1765,0.0048,0.0135,0.0180,0.0027
1766,0.0042,0.0138,0.0176,0.0023
1767,0.0034,0.0115,0.0136,0.0020
1768,0.0035,0.0161,0.0194,0.0018
1769,0.0052,0.0238,0.0220,0.0135
1770,0.0032,0.0135,0.0132,0.0019
1771,0.0038,0.0142,0.0122,0.0017
1772,0.0041,0.0149,0.0137,0.0016
1773,0.0036,0.0153,0.0129,0.0020
1774,0.0036,0.0187,0.0143,0.0025
1775,0.0039,0.0225,0.0176,0.0031
1776,0.0062,0.0342,0.0324,0.0051
1777,0.0045,0.0273,0.0226,0.0036
1778,0.0062,0.0325,0.0285,0.0038
1779,0.0074,0.0357,0.0325,0.0042
1780,0.0055,0.0220,0.0204,0.0139
1781,0.0056,0.0342,0.0327,0.0054
1782,0.0056,0.0254,0.0236,0.0052
1783,0.0058,0.0395,0.0369,0.0276
1784,0.0048,0.0278,0.0229,0.0194
1785,0.0048,0.0332,0.0303,0.0223
1786,0.0094,0.0300,0.0419,0.0411
1787,0.0080,0.0280,0.0381,0.0359
1788,0.0072,0.0265,0.0337,0.0315
1789,0.0067,0.0256,0.0297,0.0279
1790,0.0059,0.0239,0.0253,0.0245
1791,0.0051,0.0197,0.0190,0.0130
1792,0.0030,0.0098,0.0096,0.0017
1793,0.0030,0.0098,0.0096,0.0017
1794,0.0029,0.0084,0.0071,0.0018
1795,0.0032,0.0094,0.0083,0.0016
1796,0.0033,0.0115,0.0111,0.0015
1797,0.0032,0.0093,0.0096,0.0016
1798,0.0032,0.0113,0.0107,0.0019
1799,0.0034,0.0172,0.0164,0.0026
1800,0.0037,0.0201,0.0191,0.0031
1801,0.0051,0.0236,0.0207,0.0029
1802,0.0039,0.0183,0.0184,0.0110
1803,0.0059,0.0284,0.0270,0.0036
1804,0.0059,0.0289,0.0283,0.0046
1805,0.0059,0.0295,0.0307,0.0050
1806,0.0055,0.0200,0.0216,0.0050
1807,0.0035,0.0109,0.0112,0.0015
1808,0.0061,0.0404,0.0398,0.0256
1809,0.0050,0.0273,0.0248,0.0218
1810,0.0046,0.0167,0.0147,0.0154
1811,0.0047,0.0223,0.0203,0.0199
1812,0.0052,0.0293,0.0281,0.0230
1813,0.0034,0.0165,0.0163,0.0071
1814,0.0055,0.0185,0.0160,0.0161
1815,0.0045,0.0188,0.0176,0.0158
1816,0.0032,0.0140,0.0136,0.0120
1817,0.0041,0.0098,0.0090,0.0071
1818,0.0048,0.0172,0.0185,0.0056
1819,0.0032,0.0113,0.0107,0.0019
1820,0.0048,0.0091,0.0083,0.0032
1821,0.0037,0.0160,0.0135,0.0046
1822,0.0039,0.0116,0.0117,0.0076
1823,0.0042,0.0167,0.0177,0.0118
1824,0.0036,0.0182,0.0170,0.0036
1825,0.0039,0.0215,0.0213,0.0120
1826,0.0040,0.0249,0.0240,0.0124
1827,0.0042,0.0163,0.0149,0.0092
1828,0.0046,0.0208,0.0193,0.0127
1829,0.0045,0.0306,0.0288,0.0215
1830,0.0052,0.0310,0.0306,0.0230
1831,0.0034,0.0172,0.0164,0.0026
1832,0.0030,0.0098,0.0096,0.0017
1833,0.0029,0.0084,0.0071,0.0018
1834,0.0032,0.0117,0.0121,0.0016
1835,0.0088,0.0278,0.0217,0.0069
1836,0.0039,0.0191,0.0202,0.0027
1837,0.0030,0.0098,0.0096,0.0017
1838,0.0029,0.0084,0.0071,0.0018
1839,0.0030,0.0098,0.0096,0.0017
1840,0.0030,0.0098,0.0096,0.0017
1841,0.0032,0.0117,0.0121,0.0016
1842,0.0030,0.0098,0.0096,0.0017
1843,0.0030,0.0098,0.0096,0.0017
1844,0.0037,0.0201,0.0191,0.0031
1845,0.0030,0.0098,0.0096,0.0017
1846,0.0032,0.0117,0.0121,0.0016
1847,0.0052,0.0161,0.0149,0.0033
1848,0.0029,0.0084,0.0071,0.0018
1849,0.0030,0.0098,0.0096,0.0017
1850,0.0030,0.0098,0.0096,0.0017
1851,0.0029,0.0084,0.0071,0.0018
1852,0.0032,0.0117,0.0121,0.0016
1853,0.0030,0.0098,0.0096,0.0017
1854,0.0029,0.0084,0.0071,0.0018
1855,0.0030,0.0098,0.0096,0.0017
1856,0.0047,0.0233,0.0208,0.0031
1857,0.0032,0.0117,0.0121,0.0016
1858,0.0047,0.0224,0.0190,0.0039
1859,0.0030,0.0098,0.0096,0.0017
1860,0.0030,0.0098,0.0096,0.0017
1861,0.0029,0.0084,0.0071,0.0018
1862,0.0030,0.0098,0.0096,0.0017
1863,0.0032,0.0117,0.0121,0.0016
1864,0.0029,0.0084,0.0071,0.0018
1865,0.0030,0.0098,0.0096,0.0017
1866,0.0030,0.0098,0.0096,0.0017
1867,0.0029,0.0084,0.0071,0.0018
1868,0.0064,0.0283,0.0267,0.0033
1869,0.0051,0.0177,0.0177,0.0050
1870,0.0030,0.0098,0.0096,0.0017
1871,0.0029,0.0084,0.0071,0.0018
1872,0.0030,0.0098,0.0096,0.0017
1873,0.0030,0.0098,0.0096,0.0017
1874,0.0032,0.0117,0.0121,0.0016
1875,0.0063,0.0325,0.0330,0.0103
1876,0.0061,0.0262,0.0290,0.0080
1877,0.0058,0.0195,0.0219,0.0057
1878,0.0057,0.0161,0.0219,0.0042
1879,0.0051,0.0236,0.0207,0.0029
1880,0.0059,0.0238,0.0222,0.0076
1881,0.0059,0.0289,0.0283,0.0046
1882,0.0048,0.0129,0.0189,0.0025
1883,0.0042,0.0119,0.0176,0.0021
1884,0.0034,0.0097,0.0128,0.0018
1885,0.0034,0.0140,0.0186,0.0016
1886,0.0030,0.0100,0.0112,0.0017
1887,0.0030,0.0088,0.0081,0.0017
1888,0.0034,0.0095,0.0097,0.0015
1889,0.0032,0.0113,0.0107,0.0019
1890,0.0035,0.0181,0.0167,0.0024
1891,0.0053,0.0247,0.0246,0.0073
1892,0.0039,0.0179,0.0158,0.0029
1893,0.0059,0.0295,0.0307,0.0050
1894,0.0044,0.0229,0.0205,0.0033
1895,0.0059,0.0284,0.0270,0.0036
1896,0.0069,0.0285,0.0280,0.0040
1897,0.0054,0.0291,0.0304,0.0053
1898,0.0055,0.0200,0.0216,0.0050
1899,0.0061,0.0404,0.0398,0.0256
1900,0.0049,0.0191,0.0169,0.0162
1901,0.0049,0.0302,0.0278,0.0248
1902,0.0053,0.0239,0.0242,0.0077
1903,0.0086,0.0315,0.0433,0.0305
1904,0.0079,0.0300,0.0413,0.0287
1905,0.0073,0.0299,0.0390,0.0274
1906,0.0068,0.0287,0.0348,0.0259
1907,0.0060,0.0257,0.0267,0.0224
1908,0.0029,0.0085,0.0091,0.0016
1909,0.0029,0.0085,0.0091,0.0016
1910,0.0028,0.0073,0.0066,0.0017
1911,0.0030,0.0067,0.0064,0.0015
1912,0.0032,0.0088,0.0093,0.0015
1913,0.0057,0.0295,0.0293,0.0109
1914,0.0032,0.0072,0.0085,0.0016
1915,0.0032,0.0084,0.0096,0.0020
1916,0.0034,0.0133,0.0145,0.0026
1917,0.0037,0.0169,0.0177,0.0030
1918,0.0050,0.0185,0.0179,0.0029
1919,0.0056,0.0228,0.0229,0.0035
1920,0.0056,0.0255,0.0264,0.0046
1921,0.0056,0.0255,0.0282,0.0050
1922,0.0054,0.0175,0.0222,0.0051
1923,0.0035,0.0075,0.0091,0.0015
1924,0.0059,0.0376,0.0356,0.0152
1925,0.0064,0.0490,0.0467,0.0326
1926,0.0052,0.0321,0.0288,0.0281
1927,0.0047,0.0191,0.0160,0.0214
1928,0.0049,0.0273,0.0247,0.0253
1929,0.0053,0.0337,0.0329,0.0269
1930,0.0054,0.0209,0.0199,0.0187
1931,0.0045,0.0214,0.0213,0.0176
1932,0.0032,0.0162,0.0167,0.0130
1933,0.0045,0.0115,0.0115,0.0080
1934,0.0053,0.0165,0.0185,0.0059
1935,0.0053,0.0368,0.0324,0.0165
1936,0.0032,0.0084,0.0096,0.0020
1937,0.0049,0.0069,0.0068,0.0039
1938,0.0037,0.0150,0.0148,0.0057
1939,0.0038,0.0099,0.0124,0.0091
1940,0.0041,0.0162,0.0192,0.0134
1941,0.0041,0.0246,0.0255,0.0141
1942,0.0042,0.0302,0.0298,0.0152
1943,0.0043,0.0215,0.0200,0.0128
1944,0.0047,0.0227,0.0212,0.0162
1945,0.0046,0.0332,0.0314,0.0257
1946,0.0049,0.0204,0.0197,0.0027
1947,0.0063,0.0340,0.0285,0.0175
1948,0.0052,0.0384,0.0368,0.0294
1949,0.0034,0.0133,0.0145,0.0026
1950,0.0029,0.0085,0.0091,0.0016
1951,0.0028,0.0073,0.0066,0.0017
1952,0.0031,0.0103,0.0115,0.0015
1953,0.0029,0.0085,0.0091,0.0016
1954,0.0028,0.0073,0.0066,0.0017
1955,0.0029,0.0085,0.0091,0.0016
1956,0.0029,0.0085,0.0091,0.0016
1957,0.0031,0.0103,0.0115,0.0015
1958,0.0037,0.0214,0.0195,0.0030
1959,0.0029,0.0085,0.0091,0.0016
1960,0.0029,0.0085,0.0091,0.0016
1961,0.0037,0.0169,0.0177,0.0030
1962,0.0029,0.0085,0.0091,0.0016
1963,0.0031,0.0103,0.0115,0.0015
1964,0.0028,0.0073,0.0066,0.0017
1965,0.0029,0.0085,0.0091,0.0016
1966,0.0029,0.0085,0.0091,0.0016
1967,0.0028,0.0073,0.0066,0.0017
1968,0.0031,0.0103,0.0115,0.0015
1969,0.0035,0.0140,0.0115,0.0033
1970,0.0029,0.0085,0.0091,0.0016
1971,0.0028,0.0073,0.0066,0.0017
1972,0.0029,0.0085,0.0091,0.0016
1973,0.0046,0.0181,0.0176,0.0031
1974,0.0031,0.0103,0.0115,0.0015
1975,0.0029,0.0085,0.0091,0.0016
1976,0.0029,0.0085,0.0091,0.0016
1977,0.0028,0.0073,0.0066,0.0017
1978,0.0029,0.0085,0.0091,0.0016
1979,0.0031,0.0103,0.0115,0.0015
1980,0.0035,0.0140,0.0115,0.0033
1981,0.0028,0.0073,0.0066,0.0017
1982,0.0029,0.0085,0.0091,0.0016
1983,0.0029,0.0085,0.0091,0.0016
1984,0.0028,0.0073,0.0066,0.0017
1985,0.0060,0.0230,0.0231,0.0033
1986,0.0029,0.0085,0.0091,0.0016
1987,0.0028,0.0073,0.0066,0.0017
1988,0.0029,0.0085,0.0091,0.0016
1989,0.0029,0.0085,0.0091,0.0016
1990,0.0031,0.0103,0.0115,0.0015
1991,0.0035,0.0161,0.0137,0.0032
1992,0.0061,0.0362,0.0402,0.0101
1993,0.0060,0.0278,0.0342,0.0077
1994,0.0058,0.0219,0.0277,0.0055
1995,0.0057,0.0178,0.0259,0.0039
1996,0.0050,0.0185,0.0179,0.0029
1997,0.0056,0.0255,0.0264,0.0046
1998,0.0048,0.0131,0.0213,0.0021
1999,0.0042,0.0123,0.0197,0.0018
2000,0.0034,0.0105,0.0160,0.0016
2001,0.0034,0.0138,0.0198,0.0015
2002,0.0035,0.0140,0.0115,0.0033
2003,0.0030,0.0091,0.0115,0.0016
2004,0.0028,0.0068,0.0069,0.0016
2005,0.0034,0.0065,0.0079,0.0015
2006,0.0032,0.0084,0.0096,0.0020
2007,0.0036,0.0150,0.0155,0.0024
2008,0.0039,0.0148,0.0147,0.0028
2009,0.0056,0.0255,0.0282,0.0050
2010,0.0043,0.0180,0.0176,0.0032
2011,0.0056,0.0228,0.0229,0.0035
2012,0.0066,0.0268,0.0278,0.0040
2013,0.0035,0.0140,0.0115,0.0033
2014,0.0051,0.0251,0.0280,0.0054
2015,0.0054,0.0175,0.0222,0.0051
2016,0.0064,0.0490,0.0467,0.0326
2017,0.0051,0.0237,0.0209,0.0227
2018,0.0050,0.0342,0.0313,0.0305
2019,0.0083,0.0347,0.0474,0.0303
2020,0.0079,0.0335,0.0457,0.0313
2021,0.0073,0.0350,0.0473,0.0335
2022,0.0070,0.0347,0.0439,0.0335
2023,0.0061,0.0324,0.0354,0.0302
2024,0.0035,0.0140,0.0115,0.0033
2025,0.0029,0.0082,0.0092,0.0016
2026,0.0029,0.0082,0.0092,0.0016
2027,0.0027,0.0073,0.0070,0.0017
2028,0.0031,0.0055,0.0054,0.0015
2029,0.0032,0.0075,0.0083,0.0015
2030,0.0032,0.0065,0.0081,0.0016
2031,0.0032,0.0066,0.0084,0.0020
2032,0.0034,0.0102,0.0119,0.0026
2033,0.0037,0.0167,0.0182,0.0030
2034,0.0048,0.0133,0.0136,0.0028
2035,0.0035,0.0140,0.0115,0.0033
2036,0.0055,0.0206,0.0212,0.0035
2037,0.0055,0.0234,0.0248,0.0046
2038,0.0055,0.0238,0.0275,0.0051
2039,0.0054,0.0159,0.0207,0.0051
2040,0.0036,0.0071,0.0089,0.0016
2041,0.0065,0.0541,0.0506,0.0368
2042,0.0053,0.0367,0.0329,0.0319
2043,0.0047,0.0241,0.0202,0.0247
2044,0.0049,0.0308,0.0284,0.0277
2045,0.0053,0.0372,0.0366,0.0286
2046,0.0035,0.0161,0.0137,0.0032
2047,0.0054,0.0232,0.0225,0.0198
2048,0.0045,0.0235,0.0241,0.0184
2049,0.0033,0.0175,0.0187,0.0135
2050,0.0047,0.0119,0.0125,0.0082
2051,0.0055,0.0178,0.0202,0.0062
2052,0.0032,0.0066,0.0084,0.0020
2053,0.0049,0.0080,0.0080,0.0043
2054,0.0038,0.0145,0.0154,0.0063
2055,0.0038,0.0094,0.0132,0.0099
2056,0.0041,0.0169,0.0206,0.0143
2057,0.0058,0.0420,0.0302,0.0349
2058,0.0035,0.0140,0.0115,0.0033
2059,0.0042,0.0268,0.0280,0.0152
2060,0.0043,0.0331,0.0326,0.0166
2061,0.0043,0.0258,0.0243,0.0150
2062,0.0047,0.0260,0.0241,0.0185
2063,0.0046,0.0361,0.0335,0.0280
2064,0.0052,0.0438,0.0411,0.0330
2065,0.0034,0.0102,0.0119,0.0026
2066,0.0029,0.0082,0.0092,0.0016
2067,0.0027,0.0073,0.0070,0.0017
2068,0.0031,0.0099,0.0116,0.0015
2069,0.0035,0.0140,0.0115,0.0033
2070,0.0029,0.0082,0.0092,0.0016
2071,0.0027,0.0073,0.0070,0.0017
2072,0.0029,0.0082,0.0092,0.0016
2073,0.0029,0.0082,0.0092,0.0016
2074,0.0031,0.0099,0.0116,0.0015
2075,0.0029,0.0082,0.0092,0.0016
2076,0.0029,0.0082,0.0092,0.0016
2077,0.0037,0.0167,0.0182,0.0030
2078,0.0029,0.0082,0.0092,0.0016
2079,0.0031,0.0099,0.0116,0.0015
2080,0.0043,0.0237,0.0194,0.0034
2081,0.0027,0.0073,0.0070,0.0017
2082,0.0029,0.0082,0.0092,0.0016
2083,0.0029,0.0082,0.0092,0.0016
2084,0.0027,0.0073,0.0070,0.0017
2085,0.0031,0.0099,0.0116,0.0015
2086,0.0029,0.0082,0.0092,0.0016
2087,0.0027,0.0073,0.0070,0.0017
2088,0.0029,0.0082,0.0092,0.0016
2089,0.0045,0.0133,0.0138,0.0030
2090,0.0031,0.0099,0.0116,0.0015
2091,0.0035,0.0140,0.0115,0.0033
2092,0.0029,0.0082,0.0092,0.0016
2093,0.0029,0.0082,0.0092,0.0016
2094,0.0027,0.0073,0.0070,0.0017
2095,0.0029,0.0082,0.0092,0.0016
2096,0.0031,0.0099,0.0116,0.0015
2097,0.0027,0.0073,0.0070,0.0017
2098,0.0029,0.0082,0.0092,0.0016
2099,0.0029,0.0082,0.0092,0.0016
2100,0.0027,0.0073,0.0070,0.0017
2101,0.0059,0.0198,0.0204,0.0033
2102,0.0035,0.0161,0.0137,0.0032
2103,0.0029,0.0082,0.0092,0.0016
2104,0.0027,0.0073,0.0070,0.0017
2105,0.0029,0.0082,0.0092,0.0016
2106,0.0029,0.0082,0.0092,0.0016
2107,0.0031,0.0099,0.0116,0.0015
2108,0.0060,0.0369,0.0429,0.0100
2109,0.0060,0.0302,0.0384,0.0076
2110,0.0058,0.0236,0.0311,0.0053
2111,0.0057,0.0199,0.0297,0.0037
2112,0.0048,0.0133,0.0136,0.0028
2113,0.0035,0.0140,0.0115,0.0033
2114,0.0055,0.0234,0.0248,0.0046
2115,0.0048,0.0144,0.0238,0.0020
2116,0.0042,0.0122,0.0204,0.0017
2117,0.0034,0.0096,0.0155,0.0015
2118,0.0034,0.0135,0.0196,0.0014
2119,0.0030,0.0092,0.0121,0.0015
2120,0.0029,0.0058,0.0060,0.0016
2121,0.0034,0.0060,0.0077,0.0016
2122,0.0032,0.0066,0.0084,0.0020
2123,0.0036,0.0121,0.0128,0.0024
2124,0.0035,0.0140,0.0115,0.0033
2125,0.0039,0.0149,0.0158,0.0029
2126,0.0055,0.0238,0.0275,0.0051
2127,0.0042,0.0135,0.0138,0.0032
2128,0.0055,0.0206,0.0212,0.0035
2129,0.0064,0.0231,0.0249,0.0040
2130,0.0051,0.0239,0.0278,0.0055
2131,0.0054,0.0159,0.0207,0.0051
2132,0.0065,0.0541,0.0506,0.0368
2133,0.0052,0.0287,0.0253,0.0268
2134,0.0050,0.0386,0.0350,0.0335
2135,0.0035,0.0140,0.0115,0.0033
2136,0.0083,0.0368,0.0502,0.0327
2137,0.0079,0.0353,0.0480,0.0341
2138,0.0074,0.0375,0.0508,0.0373
2139,0.0071,0.0384,0.0487,0.0380
2140,0.0061,0.0357,0.0405,0.0347
2141,0.0039,0.0158,0.0134,0.0018
2142,0.0039,0.0158,0.0134,0.0018
2143,0.0038,0.0145,0.0115,0.0019
2144,0.0046,0.0203,0.0185,0.0016
2145,0.0047,0.0223,0.0208,0.0016
2146,0.0035,0.0140,0.0115,0.0033
2147,0.0047,0.0183,0.0174,0.0017
2148,0.0041,0.0187,0.0164,0.0023
2149,0.0037,0.0197,0.0148,0.0032
2150,0.0037,0.0243,0.0192,0.0040
2151,0.0052,0.0296,0.0228,0.0039
2152,0.0061,0.0336,0.0279,0.0048
2153,0.0063,0.0386,0.0340,0.0060
2154,0.0063,0.0396,0.0361,0.0063
2155,0.0058,0.0314,0.0274,0.0064
2156,0.0049,0.0217,0.0211,0.0017
2157,0.0035,0.0161,0.0137,0.0032
2158,0.0053,0.0414,0.0343,0.0335
2159,0.0047,0.0378,0.0308,0.0269
2160,0.0043,0.0343,0.0306,0.0200
2161,0.0044,0.0293,0.0274,0.0160
2162,0.0048,0.0308,0.0291,0.0166
2163,0.0051,0.0216,0.0195,0.0110
2164,0.0043,0.0230,0.0212,0.0118
2165,0.0032,0.0203,0.0192,0.0091
2166,0.0035,0.0168,0.0158,0.0054
2167,0.0042,0.0217,0.0213,0.0043
2168,0.0058,0.0447,0.0368,0.0297
2169,0.0035,0.0140,0.0115,0.0033
2170,0.0041,0.0187,0.0164,0.0023
2171,0.0050,0.0182,0.0146,0.0027
2172,0.0042,0.0250,0.0178,0.0041
2173,0.0050,0.0209,0.0165,0.0060
2174,0.0044,0.0216,0.0199,0.0094
2175,0.0036,0.0218,0.0202,0.0091
2176,0.0039,0.0250,0.0233,0.0102
2177,0.0043,0.0265,0.0236,0.0110
2178,0.0046,0.0337,0.0293,0.0155
2179,0.0045,0.0397,0.0338,0.0218
2180,0.0035,0.0140,0.0115,0.0033
2181,0.0053,0.0372,0.0310,0.0230
2182,0.0037,0.0197,0.0148,0.0032
2183,0.0039,0.0158,0.0134,0.0018
2184,0.0038,0.0145,0.0115,0.0019
2185,0.0041,0.0182,0.0163,0.0017
2186,0.0039,0.0158,0.0134,0.0018
2187,0.0038,0.0145,0.0115,0.0019
2188,0.0039,0.0158,0.0134,0.0018
2189,0.0039,0.0158,0.0134,0.0018
2190,0.0041,0.0182,0.0163,0.0017
2191,0.0035,0.0140,0.0115,0.0033
2192,0.0039,0.0158,0.0134,0.0018
2193,0.0039,0.0158,0.0134,0.0018
2194,0.0037,0.0243,0.0192,0.0040
2195,0.0039,0.0158,0.0134,0.0018
2196,0.0041,0.0182,0.0163,0.0017
2197,0.0038,0.0145,0.0115,0.0019
2198,0.0039,0.0158,0.0134,0.0018
2199,0.0039,0.0158,0.0134,0.0018
2200,0.0038,0.0145,0.0115,0.0019
2201,0.0041,0.0182,0.0163,0.0017
2202,0.0052,0.0278,0.0218,0.0038
2203,0.0039,0.0158,0.0134,0.0018
2204,0.0038,0.0145,0.0115,0.0019
2205,0.0039,0.0158,0.0134,0.0018
2206,0.0048,0.0299,0.0235,0.0042
2207,0.0041,0.0182,0.0163,0.0017
2208,0.0039,0.0158,0.0134,0.0018
2209,0.0039,0.0158,0.0134,0.0018
2210,0.0038,0.0145,0.0115,0.0019
2211,0.0039,0.0158,0.0134,0.0018
2212,0.0041,0.0182,0.0163,0.0017
2213,0.0035,0.0161,0.0137,0.0032
2214,0.0038,0.0145,0.0115,0.0019
2215,0.0039,0.0158,0.0134,0.0018
2216,0.0039,0.0158,0.0134,0.0018
2217,0.0038,0.0145,0.0115,0.0019
2218,0.0067,0.0330,0.0269,0.0045
2219,0.0039,0.0158,0.0134,0.0018
2220,0.0038,0.0145,0.0115,0.0019
2221,0.0039,0.0158,0.0134,0.0018
2222,0.0039,0.0158,0.0134,0.0018
2223,0.0041,0.0182,0.0163,0.0017
2224,0.0035,0.0140,0.0115,0.0033
2225,0.0067,0.0299,0.0275,0.0110
2226,0.0065,0.0243,0.0251,0.0087
2227,0.0061,0.0179,0.0188,0.0064
2228,0.0060,0.0174,0.0213,0.0050
2229,0.0052,0.0296,0.0228,0.0039
2230,0.0063,0.0386,0.0340,0.0060
2231,0.0050,0.0144,0.0187,0.0031
2232,0.0044,0.0151,0.0182,0.0026
2233,0.0036,0.0136,0.0150,0.0022
2234,0.0037,0.0177,0.0205,0.0020
2235,0.0035,0.0140,0.0115,0.0033
2236,0.0035,0.0154,0.0144,0.0019
2237,0.0044,0.0190,0.0174,0.0017
2238,0.0048,0.0197,0.0190,0.0016
2239,0.0041,0.0187,0.0164,0.0023
2240,0.0038,0.0202,0.0152,0.0030
2241,0.0039,0.0225,0.0160,0.0037
2242,0.0063,0.0396,0.0361,0.0063
2243,0.0045,0.0301,0.0238,0.0045
2244,0.0061,0.0336,0.0279,0.0048
2245,0.0074,0.0389,0.0340,0.0053
2246,0.0035,0.0140,0.0115,0.0033
2247,0.0057,0.0388,0.0356,0.0067
2248,0.0058,0.0314,0.0274,0.0064
2249,0.0053,0.0414,0.0343,0.0335
2250,0.0046,0.0378,0.0302,0.0266
2251,0.0046,0.0364,0.0327,0.0225
2252,0.0090,0.0307,0.0441,0.0549
2253,0.0083,0.0286,0.0400,0.0480
2254,0.0072,0.0274,0.0358,0.0410
2255,0.0064,0.0264,0.0321,0.0354
2256,0.0058,0.0255,0.0298,0.0308
2257,0.0035,0.0140,0.0115,0.0033
2258,0.0035,0.0135,0.0121,0.0018
2259,0.0035,0.0135,0.0121,0.0018
2260,0.0034,0.0122,0.0100,0.0019
2261,0.0039,0.0152,0.0130,0.0016
2262,0.0041,0.0169,0.0152,0.0016
2263,0.0039,0.0140,0.0130,0.0017
2264,0.0036,0.0161,0.0140,0.0023
2265,0.0036,0.0187,0.0147,0.0031
2266,0.0037,0.0250,0.0211,0.0038
2267,0.0051,0.0274,0.0220,0.0038
2268,0.0035,0.0161,0.0137,0.0032
2269,0.0061,0.0331,0.0289,0.0047
2270,0.0062,0.0374,0.0341,0.0059
2271,0.0061,0.0363,0.0344,0.0063
2272,0.0057,0.0276,0.0259,0.0063
2273,0.0042,0.0165,0.0157,0.0016
2274,0.0053,0.0361,0.0323,0.0268
2275,0.0047,0.0312,0.0261,0.0214
2276,0.0044,0.0279,0.0254,0.0152
2277,0.0044,0.0249,0.0235,0.0145
2278,0.0048,0.0278,0.0266,0.0170
2279,0.0059,0.0416,0.0379,0.0236
2280,0.0035,0.0140,0.0115,0.0033
2281,0.0051,0.0187,0.0167,0.0113
2282,0.0043,0.0195,0.0182,0.0122
2283,0.0032,0.0171,0.0165,0.0096
2284,0.0037,0.0139,0.0130,0.0056
2285,0.0043,0.0195,0.0198,0.0046
2286,0.0036,0.0161,0.0140,0.0023
2287,0.0050,0.0149,0.0123,0.0026
2288,0.0040,0.0218,0.0160,0.0038
2289,0.0045,0.0163,0.0134,0.0059
2290,0.0043,0.0189,0.0179,0.0096
2291,0.0035,0.0140,0.0115,0.0033
2292,0.0036,0.0205,0.0196,0.0094
2293,0.0038,0.0235,0.0220,0.0099
2294,0.0042,0.0217,0.0194,0.0091
2295,0.0046,0.0286,0.0252,0.0131
2296,0.0045,0.0346,0.0305,0.0197
2297,0.0053,0.0321,0.0285,0.0202
2298,0.0036,0.0187,0.0147,0.0031
2299,0.0035,0.0135,0.0121,0.0018
2300,0.0034,0.0122,0.0100,0.0019
2301,0.0037,0.0159,0.0150,0.0017
2302,0.0035,0.0140,0.0115,0.0033
2303,0.0035,0.0135,0.0121,0.0018
2304,0.0034,0.0122,0.0100,0.0019
2305,0.0035,0.0135,0.0121,0.0018
2306,0.0035,0.0135,0.0121,0.0018
2307,0.0037,0.0159,0.0150,0.0017
2308,0.0035,0.0135,0.0121,0.0018
2309,0.0035,0.0135,0.0121,0.0018
2310,0.0037,0.0250,0.0211,0.0038
2311,0.0035,0.0135,0.0121,0.0018
2312,0.0037,0.0159,0.0150,0.0017
2313,0.0035,0.0140,0.0115,0.0033
2314,0.0034,0.0122,0.0100,0.0019
2315,0.0035,0.0135,0.0121,0.0018
2316,0.0035,0.0135,0.0121,0.0018
2317,0.0034,0.0122,0.0100,0.0019
2318,0.0037,0.0159,0.0150,0.0017
2319,0.0035,0.0135,0.0121,0.0018
2320,0.0034,0.0122,0.0100,0.0019
2321,0.0035,0.0135,0.0121,0.0018
2322,0.0048,0.0283,0.0232,0.0040
2323,0.0037,0.0159,0.0150,0.0017
2324,0.0063,0.0318,0.0255,0.0041
2325,0.0035,0.0135,0.0121,0.0018
2326,0.0035,0.0135,0.0121,0.0018
2327,0.0034,0.0122,0.0100,0.0019
2328,0.0035,0.0135,0.0121,0.0018
2329,0.0037,0.0159,0.0150,0.0017
2330,0.0034,0.0122,0.0100,0.0019
2331,0.0035,0.0135,0.0121,0.0018
2332,0.0035,0.0135,0.0121,0.0018
2333,0.0034,0.0122,0.0100,0.0019
2334,0.0065,0.0323,0.0278,0.0044
2335,0.0035,0.0140,0.0115,0.0033
2336,0.0035,0.0135,0.0121,0.0018
2337,0.0034,0.0122,0.0100,0.0019
2338,0.0035,0.0135,0.0121,0.0018
2339,0.0035,0.0135,0.0121,0.0018
2340,0.0037,0.0159,0.0150,0.0017
2341,0.0066,0.0306,0.0282,0.0111
2342,0.0064,0.0240,0.0249,0.0087
2343,0.0061,0.0179,0.0182,0.0064
2344,0.0060,0.0170,0.0209,0.0050
2345,0.0051,0.0274,0.0220,0.0038
2346,0.0035,0.0140,0.0115,0.0033
2347,0.0062,0.0374,0.0341,0.0059
2348,0.0050,0.0138,0.0181,0.0030
2349,0.0044,0.0137,0.0174,0.0025
2350,0.0036,0.0115,0.0135,0.0021
2351,0.0036,0.0162,0.0196,0.0019
2352,0.0033,0.0136,0.0134,0.0019
2353,0.0037,0.0141,0.0123,0.0017
2354,0.0041,0.0147,0.0137,0.0016
2355,0.0036,0.0161,0.0140,0.0023
2356,0.0036,0.0193,0.0149,0.0029
2357,0.0035,0.0140,0.0115,0.0033
2358,0.0038,0.0228,0.0177,0.0036
2359,0.0061,0.0363,0.0344,0.0063
2360,0.0044,0.0278,0.0229,0.0043
2361,0.0061,0.0331,0.0289,0.0047
2362,0.0073,0.0371,0.0337,0.0052
2363,0.0056,0.0360,0.0344,0.0066
2364,0.0057,0.0276,0.0259,0.0063
2365,0.0053,0.0361,0.0323,0.0268
2366,0.0046,0.0300,0.0244,0.0198
2367,0.0046,0.0318,0.0292,0.0200
2368,0.0035,0.0140,0.0115,0.0033
2369,0.0088,0.0295,0.0415,0.0463
2370,0.0082,0.0270,0.0370,0.0404
2371,0.0072,0.0260,0.0335,0.0340
2372,0.0064,0.0245,0.0292,0.0286
2373,0.0058,0.0229,0.0250,0.0243
2374,0.0031,0.0094,0.0094,0.0017
2375,0.0031,0.0094,0.0094,0.0017
2376,0.0029,0.0081,0.0069,0.0018
2377,0.0031,0.0091,0.0082,0.0016
2378,0.0033,0.0112,0.0110,0.0015
2379,0.0035,0.0161,0.0137,0.0032
2380,0.0032,0.0101,0.0106,0.0016
2381,0.0032,0.0124,0.0120,0.0022
2382,0.0034,0.0181,0.0172,0.0030
2383,0.0037,0.0211,0.0199,0.0036
2384,0.0049,0.0237,0.0207,0.0036
2385,0.0057,0.0294,0.0278,0.0045
2386,0.0057,0.0307,0.0300,0.0058
2387,0.0058,0.0324,0.0334,0.0063
2388,0.0055,0.0224,0.0242,0.0063
2389,0.0035,0.0111,0.0116,0.0016
2390,0.0055,0.0356,0.0337,0.0183
2391,0.0101,0.0236,0.0192,0.0089
2392,0.0055,0.0330,0.0329,0.0213
2393,0.0047,0.0221,0.0202,0.0176
2394,0.0044,0.0157,0.0146,0.0117
2395,0.0044,0.0185,0.0176,0.0162
2396,0.0048,0.0253,0.0250,0.0198
2397,0.0050,0.0159,0.0141,0.0137
2398,0.0043,0.0169,0.0162,0.0140
2399,0.0032,0.0133,0.0133,0.0108
2400,0.0042,0.0097,0.0090,0.0064
2401,0.0048,0.0169,0.0186,0.0052
2402,0.0100,0.0184,0.0175,0.0069
2403,0.0032,0.0124,0.0120,0.0022
2404,0.0050,0.0087,0.0084,0.0030
2405,0.0038,0.0142,0.0120,0.0042
2406,0.0040,0.0115,0.0113,0.0068
2407,0.0043,0.0160,0.0168,0.0108
2408,0.0038,0.0198,0.0199,0.0106
2409,0.0039,0.0232,0.0228,0.0109
2410,0.0042,0.0153,0.0141,0.0078
2411,0.0045,0.0201,0.0188,0.0113
2412,0.0044,0.0293,0.0279,0.0198
2413,0.0097,0.0162,0.0174,0.0053
2414,0.0053,0.0297,0.0297,0.0213
2415,0.0034,0.0181,0.0172,0.0030
2416,0.0031,0.0094,0.0094,0.0017
2417,0.0029,0.0081,0.0069,0.0018
2418,0.0032,0.0118,0.0123,0.0016
2419,0.0031,0.0094,0.0094,0.0017
2420,0.0029,0.0081,0.0069,0.0018
2421,0.0031,0.0094,0.0094,0.0017
2422,0.0031,0.0094,0.0094,0.0017
2423,0.0032,0.0118,0.0123,0.0016
2424,0.0091,0.0140,0.0163,0.0042
2425,0.0031,0.0094,0.0094,0.0017
2426,0.0031,0.0094,0.0094,0.0017
2427,0.0037,0.0211,0.0199,0.0036
2428,0.0031,0.0094,0.0094,0.0017
2429,0.0032,0.0118,0.0123,0.0016
2430,0.0029,0.0081,0.0069,0.0018
2431,0.0031,0.0094,0.0094,0.0017
2432,0.0031,0.0094,0.0094,0.0017
2433,0.0029,0.0081,0.0069,0.0018
2434,0.0032,0.0118,0.0123,0.0016
2435,0.0053,0.0287,0.0221,0.0036
2436,0.0031,0.0094,0.0094,0.0017
2437,0.0029,0.0081,0.0069,0.0018
2438,0.0031,0.0094,0.0094,0.0017
2439,0.0046,0.0237,0.0210,0.0038
2440,0.0032,0.0118,0.0123,0.0016
2441,0.0031,0.0094,0.0094,0.0017
2442,0.0031,0.0094,0.0094,0.0017
2443,0.0029,0.0081,0.0069,0.0018
2444,0.0031,0.0094,0.0094,0.0017
2445,0.0032,0.0118,0.0123,0.0016
2446,0.0066,0.0350,0.0308,0.0052
2447,0.0029,0.0081,0.0069,0.0018
2448,0.0031,0.0094,0.0094,0.0017
2449,0.0031,0.0094,0.0094,0.0017
2450,0.0029,0.0081,0.0069,0.0018
2451,0.0061,0.0289,0.0271,0.0042
2452,0.0031,0.0094,0.0094,0.0017
2453,0.0029,0.0081,0.0069,0.0018
2454,0.0031,0.0094,0.0094,0.0017
2455,0.0031,0.0094,0.0094,0.0017
2456,0.0032,0.0118,0.0123,0.0016
2457,0.0072,0.0133,0.0159,0.0030
2458,0.0065,0.0324,0.0327,0.0109
2459,0.0064,0.0261,0.0287,0.0085
2460,0.0061,0.0190,0.0212,0.0061
2461,0.0060,0.0159,0.0216,0.0046
2462,0.0049,0.0237,0.0207,0.0036
2463,0.0057,0.0307,0.0300,0.0058
2464,0.0050,0.0128,0.0188,0.0026
2465,0.0044,0.0117,0.0175,0.0022
2466,0.0035,0.0094,0.0127,0.0018
2467,0.0034,0.0138,0.0186,0.0017
2468,0.0060,0.0133,0.0153,0.0027
2469,0.0030,0.0099,0.0112,0.0017
2470,0.0030,0.0088,0.0082,0.0016
2471,0.0034,0.0099,0.0104,0.0016
2472,0.0032,0.0124,0.0120,0.0022
2473,0.0035,0.0187,0.0172,0.0029
2474,0.0038,0.0185,0.0162,0.0034
2475,0.0058,0.0324,0.0334,0.0063
2476,0.0043,0.0240,0.0215,0.0041
2477,0.0057,0.0294,0.0278,0.0045
2478,0.0067,0.0301,0.0294,0.0051
2479,0.0049,0.0133,0.0147,0.0026
2480,0.0052,0.0315,0.0328,0.0067
2481,0.0055,0.0224,0.0242,0.0063
2482,0.0055,0.0330,0.0329,0.0213
2483,0.0046,0.0165,0.0145,0.0126
2484,0.0046,0.0257,0.0242,0.0207
2485,0.0090,0.0295,0.0393,0.0322
2486,0.0083,0.0262,0.0341,0.0290
2487,0.0073,0.0259,0.0322,0.0258
2488,0.0064,0.0255,0.0304,0.0235
2489,0.0058,0.0233,0.0240,0.0203
2490,0.0040,0.0168,0.0183,0.0027
2491,0.0029,0.0081,0.0089,0.0016
2492,0.0029,0.0081,0.0089,0.0016
2493,0.0028,0.0069,0.0065,0.0017
2494,0.0030,0.0063,0.0062,0.0015
2495,0.0032,0.0083,0.0090,0.0015
2496,0.0031,0.0081,0.0095,0.0017
2497,0.0032,0.0093,0.0107,0.0022
2498,0.0034,0.0142,0.0155,0.0030
2499,0.0037,0.0178,0.0185,0.0036
2500,0.0048,0.0188,0.0180,0.0036
2501,0.0052,0.0282,0.0267,0.0143
2502,0.0034,0.0147,0.0132,0.0032
2503,0.0054,0.0236,0.0236,0.0044
2504,0.0054,0.0274,0.0283,0.0058
2505,0.0055,0.0286,0.0312,0.0064
2506,0.0054,0.0200,0.0248,0.0065
2507,0.0035,0.0080,0.0097,0.0016
2508,0.0057,0.0401,0.0391,0.0269
2509,0.0048,0.0248,0.0229,0.0229
2510,0.0044,0.0139,0.0123,0.0169
2511,0.0045,0.0216,0.0201,0.0211
2512,0.0048,0.0286,0.0286,0.0231
2513,0.0039,0.0146,0.0125,0.0032
2514,0.0050,0.0175,0.0171,0.0159
2515,0.0043,0.0185,0.0191,0.0155
2516,0.0033,0.0147,0.0157,0.0115
2517,0.0046,0.0107,0.0113,0.0071
2518,0.0053,0.0163,0.0187,0.0055
2519,0.0032,0.0093,0.0107,0.0022
2520,0.0051,0.0065,0.0068,0.0037
2521,0.0039,0.0129,0.0129,0.0052
2522,0.0040,0.0093,0.0111,0.0082
2523,0.0042,0.0149,0.0178,0.0123
2524,0.0043,0.0161,0.0168,0.0029
2525,0.0039,0.0226,0.0240,0.0127
2526,0.0040,0.0278,0.0281,0.0135
2527,0.0042,0.0195,0.0186,0.0110
2528,0.0046,0.0212,0.0201,0.0144
2529,0.0045,0.0317,0.0304,0.0237
2530,0.0052,0.0372,0.0362,0.0275
2531,0.0034,0.0142,0.0155,0.0030
2532,0.0029,0.0081,0.0089,0.0016
2533,0.0028,0.0069,0.0065,0.0017
2534,0.0031,0.0101,0.0116,0.0015
2535,0.0039,0.0191,0.0202,0.0027
2536,0.0029,0.0081,0.0089,0.0016
2537,0.0028,0.0069,0.0065,0.0017
2538,0.0029,0.0081,0.0089,0.0016
2539,0.0029,0.0081,0.0089,0.0016
2540,0.0031,0.0101,0.0116,0.0015
2541,0.0029,0.0081,0.0089,0.0016
2542,0.0029,0.0081,0.0089,0.0016
2543,0.0037,0.0178,0.0185,0.0036
2544,0.0029,0.0081,0.0089,0.0016
2545,0.0031,0.0101,0.0116,0.0015
2546,0.0036,0.0205,0.0164,0.0029
2547,0.0028,0.0069,0.0065,0.0017
2548,0.0029,0.0081,0.0089,0.0016
2549,0.0029,0.0081,0.0089,0.0016
2550,0.0028,0.0069,0.0065,0.0017
2551,0.0031,0.0101,0.0116,0.0015
2552,0.0029,0.0081,0.0089,0.0016
2553,0.0028,0.0069,0.0065,0.0017
2554,0.0029,0.0081,0.0089,0.0016
2555,0.0045,0.0185,0.0179,0.0038
2556,0.0031,0.0101,0.0116,0.0015
2557,0.0043,0.0237,0.0194,0.0034
2558,0.0029,0.0081,0.0089,0.0016
2559,0.0029,0.0081,0.0089,0.0016
2560,0.0028,0.0069,0.0065,0.0017
2561,0.0029,0.0081,0.0089,0.0016
2562,0.0031,0.0101,0.0116,0.0015
2563,0.0028,0.0069,0.0065,0.0017
2564,0.0029,0.0081,0.0089,0.0016
2565,0.0029,0.0081,0.0089,0.0016
2566,0.0028,0.0069,0.0065,0.0017
2567,0.0058,0.0236,0.0234,0.0042
2568,0.0068,0.0321,0.0288,0.0061
2569,0.0029,0.0081,0.0089,0.0016
2570,0.0028,0.0069,0.0065,0.0017
2571,0.0029,0.0081,0.0089,0.0016
2572,0.0029,0.0081,0.0089,0.0016
2573,0.0031,0.0101,0.0116,0.0015
2574,0.0063,0.0356,0.0393,0.0106
2575,0.0063,0.0274,0.0337,0.0081
2576,0.0061,0.0214,0.0271,0.0058
2577,0.0060,0.0176,0.0258,0.0041
2578,0.0048,0.0188,0.0180,0.0036
2579,0.0052,0.0278,0.0218,0.0038
2580,0.0054,0.0274,0.0283,0.0058
2581,0.0050,0.0131,0.0215,0.0022
2582,0.0044,0.0123,0.0200,0.0019
2583,0.0035,0.0104,0.0163,0.0016
2584,0.0034,0.0139,0.0203,0.0015
2585,0.0030,0.0090,0.0118,0.0016
2586,0.0028,0.0064,0.0068,0.0016
2587,0.0033,0.0073,0.0089,0.0016
2588,0.0032,0.0093,0.0107,0.0022
2589,0.0035,0.0151,0.0156,0.0029
2590,0.0061,0.0306,0.0250,0.0043
2591,0.0038,0.0151,0.0149,0.0034
2592,0.0055,0.0286,0.0312,0.0064
2593,0.0042,0.0188,0.0183,0.0040
2594,0.0054,0.0236,0.0236,0.0044
2595,0.0063,0.0283,0.0292,0.0051
2596,0.0050,0.0280,0.0307,0.0068
2597,0.0054,0.0200,0.0248,0.0065
2598,0.0057,0.0401,0.0391,0.0269
2599,0.0047,0.0172,0.0156,0.0177
2600,0.0047,0.0278,0.0261,0.0258
2601,0.0068,0.0358,0.0307,0.0048
2602,0.0096,0.0320,0.0415,0.0284
2603,0.0086,0.0281,0.0356,0.0270
2604,0.0075,0.0276,0.0339,0.0267
2605,0.0065,0.0297,0.0361,0.0285
2606,0.0058,0.0293,0.0316,0.0273
2607,0.0029,0.0078,0.0092,0.0016
2608,0.0029,0.0078,0.0092,0.0016
2609,0.0028,0.0069,0.0070,0.0017
2610,0.0030,0.0052,0.0053,0.0015
2611,0.0032,0.0071,0.0081,0.0015
2612,0.0038,0.0165,0.0131,0.0034
2613,0.0056,0.0257,0.0245,0.0143
2614,0.0068,0.0321,0.0288,0.0061
2615,0.0032,0.0074,0.0093,0.0017
2616,0.0032,0.0072,0.0093,0.0023
2617,0.0034,0.0113,0.0131,0.0030
2618,0.0037,0.0176,0.0190,0.0036
2619,0.0047,0.0138,0.0140,0.0035
2620,0.0053,0.0219,0.0224,0.0044
2621,0.0053,0.0258,0.0270,0.0057
2622,0.0053,0.0269,0.0305,0.0065
2623,0.0054,0.0190,0.0241,0.0065
2624,0.0036,0.0071,0.0091,0.0017
2625,0.0087,0.0239,0.0200,0.0068
2626,0.0058,0.0449,0.0430,0.0308
2627,0.0048,0.0285,0.0261,0.0262
2628,0.0044,0.0173,0.0149,0.0196
2629,0.0045,0.0249,0.0236,0.0235
2630,0.0048,0.0318,0.0322,0.0249
2631,0.0050,0.0195,0.0195,0.0168
2632,0.0042,0.0201,0.0214,0.0159
2633,0.0033,0.0160,0.0179,0.0118
2634,0.0048,0.0111,0.0122,0.0072
2635,0.0054,0.0176,0.0205,0.0057
2636,0.0059,0.0334,0.0249,0.0262
2637,0.0032,0.0072,0.0093,0.0023
2638,0.0052,0.0074,0.0078,0.0041
2639,0.0040,0.0122,0.0131,0.0058
2640,0.0040,0.0088,0.0118,0.0089
2641,0.0042,0.0154,0.0190,0.0131
2642,0.0040,0.0244,0.0260,0.0137
2643,0.0041,0.0310,0.0311,0.0149
2644,0.0042,0.0235,0.0226,0.0131
2645,0.0046,0.0240,0.0226,0.0164
2646,0.0045,0.0342,0.0322,0.0258
2647,0.0058,0.0364,0.0304,0.0225
2648,0.0052,0.0425,0.0404,0.0311
2649,0.0034,0.0113,0.0131,0.0030
2650,0.0029,0.0078,0.0092,0.0016
2651,0.0028,0.0069,0.0070,0.0017
2652,0.0031,0.0099,0.0119,0.0015
2653,0.0029,0.0078,0.0092,0.0016
2654,0.0028,0.0069,0.0070,0.0017
2655,0.0029,0.0078,0.0092,0.0016
2656,0.0029,0.0078,0.0092,0.0016
2657,0.0031,0.0099,0.0119,0.0015
2658,0.0060,0.0322,0.0291,0.0172
2659,0.0029,0.0078,0.0092,0.0016
2660,0.0029,0.0078,0.0092,0.0016
2661,0.0037,0.0176,0.0190,0.0036
2662,0.0029,0.0078,0.0092,0.0016
2663,0.0031,0.0099,0.0119,0.0015
2664,0.0028,0.0069,0.0070,0.0017
2665,0.0029,0.0078,0.0092,0.0016
2666,0.0029,0.0078,0.0092,0.0016
2667,0.0028,0.0069,0.0070,0.0017
2668,0.0031,0.0099,0.0119,0.0015
2669,0.0084,0.0286,0.0368,0.0401
2670,0.0029,0.0078,0.0092,0.0016
2671,0.0028,0.0069,0.0070,0.0017
2672,0.0029,0.0078,0.0092,0.0016
2673,0.0044,0.0138,0.0140,0.0037
2674,0.0031,0.0099,0.0119,0.0015
2675,0.0029,0.0078,0.0092,0.0016
2676,0.0029,0.0078,0.0092,0.0016
2677,0.0028,0.0069,0.0070,0.0017
2678,0.0029,0.0078,0.0092,0.0016
2679,0.0031,0.0099,0.0119,0.0015
2680,0.0075,0.0256,0.0319,0.0340
2681,0.0028,0.0069,0.0070,0.0017
2682,0.0029,0.0078,0.0092,0.0016
2683,0.0029,0.0078,0.0092,0.0016
2684,0.0028,0.0069,0.0070,0.0017
2685,0.0057,0.0208,0.0211,0.0042
2686,0.0029,0.0078,0.0092,0.0016
2687,0.0028,0.0069,0.0070,0.0017
2688,0.0029,0.0078,0.0092,0.0016
2689,0.0029,0.0078,0.0092,0.0016
2690,0.0031,0.0099,0.0119,0.0015
2691,0.0065,0.0234,0.0273,0.0289
2692,0.0062,0.0367,0.0424,0.0104
2693,0.0062,0.0298,0.0379,0.0079
2694,0.0061,0.0231,0.0306,0.0056
2695,0.0060,0.0196,0.0293,0.0040
2696,0.0047,0.0138,0.0140,0.0035
2697,0.0053,0.0258,0.0270,0.0057
2698,0.0050,0.0140,0.0236,0.0021
2699,0.0044,0.0119,0.0203,0.0017
2700,0.0035,0.0094,0.0158,0.0015
2701,0.0034,0.0133,0.0198,0.0014
2702,0.0054,0.0220,0.0237,0.0247
2703,0.0030,0.0090,0.0123,0.0015
2704,0.0028,0.0059,0.0064,0.0016
2705,0.0034,0.0064,0.0085,0.0017
2706,0.0032,0.0072,0.0093,0.0023
2707,0.0036,0.0123,0.0131,0.0029
2708,0.0039,0.0155,0.0161,0.0034
2709,0.0053,0.0269,0.0305,0.0065
2710,0.0042,0.0142,0.0144,0.0039
2711,0.0053,0.0219,0.0224,0.0044
2712,0.0061,0.0248,0.0264,0.0051
2713,0.0043,0.0214,0.0245,0.0232
2714,0.0049,0.0266,0.0303,0.0069
2715,0.0054,0.0190,0.0241,0.0065
2716,0.0058,0.0449,0.0430,0.0308
2717,0.0047,0.0209,0.0189,0.0212
2718,0.0047,0.0312,0.0289,0.0283
2719,0.0100,0.0341,0.0437,0.0294
2720,0.0088,0.0299,0.0378,0.0286
2721,0.0076,0.0292,0.0357,0.0288
2722,0.0065,0.0322,0.0388,0.0316
2723,0.0058,0.0324,0.0362,0.0316
2724,0.0052,0.0236,0.0231,0.0133
2725,0.0031,0.0105,0.0087,0.0033
2726,0.0031,0.0105,0.0087,0.0033
2727,0.0031,0.0105,0.0087,0.0033
2728,0.0033,0.0097,0.0090,0.0032
2729,0.0032,0.0111,0.0091,0.0030
2730,0.0037,0.0124,0.0149,0.0029
2731,0.0034,0.0159,0.0191,0.0026
2732,0.0035,0.0196,0.0209,0.0029
2733,0.0043,0.0189,0.0177,0.0032
2734,0.0052,0.0240,0.0198,0.0034
2735,0.0039,0.0220,0.0224,0.0112
2736,0.0059,0.0259,0.0231,0.0041
2737,0.0064,0.0276,0.0260,0.0050
2738,0.0066,0.0255,0.0252,0.0060
2739,0.0087,0.0182,0.0175,0.0067
2740,0.0035,0.0119,0.0134,0.0027
2741,0.0061,0.0222,0.0199,0.0141
2742,0.0059,0.0214,0.0187,0.0129
2743,0.0060,0.0213,0.0202,0.0126
2744,0.0055,0.0190,0.0176,0.0131
2745,0.0052,0.0172,0.0151,0.0146
2746,0.0033,0.0194,0.0196,0.0072
2747,0.0055,0.0163,0.0137,0.0147
2748,0.0051,0.0143,0.0122,0.0137
2749,0.0038,0.0123,0.0114,0.0113
2750,0.0038,0.0107,0.0103,0.0074
2751,0.0040,0.0153,0.0148,0.0041
2752,0.0034,0.0159,0.0191,0.0026
2753,0.0053,0.0108,0.0120,0.0034
2754,0.0043,0.0153,0.0157,0.0037
2755,0.0042,0.0139,0.0161,0.0054
2756,0.0057,0.0213,0.0200,0.0088
2757,0.0036,0.0205,0.0188,0.0034
2758,0.0054,0.0220,0.0223,0.0082
2759,0.0054,0.0207,0.0214,0.0078
2760,0.0056,0.0215,0.0223,0.0082
2761,0.0059,0.0267,0.0267,0.0107
2762,0.0052,0.0250,0.0237,0.0125
2763,0.0062,0.0255,0.0244,0.0155
2764,0.0035,0.0196,0.0209,0.0029
2765,0.0031,0.0105,0.0087,0.0033
2766,0.0031,0.0105,0.0087,0.0033
2767,0.0030,0.0127,0.0112,0.0031
2768,0.0043,0.0213,0.0215,0.0028
2769,0.0031,0.0105,0.0087,0.0033
2770,0.0031,0.0105,0.0087,0.0033
2771,0.0031,0.0105,0.0087,0.0033
2772,0.0031,0.0105,0.0087,0.0033
2773,0.0030,0.0127,0.0112,0.0031
2774,0.0031,0.0105,0.0087,0.0033
2775,0.0031,0.0105,0.0087,0.0033
2776,0.0043,0.0189,0.0177,0.0032
2777,0.0031,0.0105,0.0087,0.0033
2778,0.0030,0.0127,0.0112,0.0031
2779,0.0052,0.0195,0.0170,0.0034
2780,0.0031,0.0105,0.0087,0.0033
2781,0.0031,0.0105,0.0087,0.0033
2782,0.0031,0.0105,0.0087,0.0033
2783,0.0031,0.0105,0.0087,0.0033
2784,0.0030,0.0127,0.0112,0.0031
2785,0.0031,0.0105,0.0087,0.0033
2786,0.0031,0.0105,0.0087,0.0033
2787,0.0031,0.0105,0.0087,0.0033
2788,0.0052,0.0232,0.0197,0.0035
2789,0.0030,0.0127,0.0112,0.0031
2790,0.0050,0.0255,0.0206,0.0044
2791,0.0031,0.0105,0.0087,0.0033
2792,0.0031,0.0105,0.0087,0.0033
2793,0.0031,0.0105,0.0087,0.0033
2794,0.0031,0.0105,0.0087,0.0033
2795,0.0030,0.0127,0.0112,0.0031
2796,0.0031,0.0105,0.0087,0.0033
2797,0.0031,0.0105,0.0087,0.0033
2798,0.0031,0.0105,0.0087,0.0033
2799,0.0031,0.0105,0.0087,0.0033
2800,0.0060,0.0271,0.0234,0.0038
2801,0.0057,0.0213,0.0198,0.0053
2802,0.0031,0.0105,0.0087,0.0033
2803,0.0031,0.0105,0.0087,0.0033
2804,0.0031,0.0105,0.0087,0.0033
2805,0.0031,0.0105,0.0087,0.0033
2806,0.0030,0.0127,0.0112,0.0031
2807,0.0101,0.0260,0.0231,0.0088
2808,0.0100,0.0206,0.0199,0.0068
2809,0.0097,0.0170,0.0186,0.0051
2810,0.0092,0.0129,0.0155,0.0039
2811,0.0052,0.0240,0.0198,0.0034
2812,0.0059,0.0259,0.0240,0.0076
2813,0.0064,0.0276,0.0260,0.0050
2814,0.0073,0.0116,0.0147,0.0028
2815,0.0060,0.0112,0.0142,0.0025
2816,0.0049,0.0109,0.0128,0.0024
2817,0.0039,0.0143,0.0166,0.0025
2818,0.0033,0.0114,0.0107,0.0031
2819,0.0033,0.0097,0.0090,0.0032
2820,0.0037,0.0124,0.0149,0.0029
2821,0.0034,0.0159,0.0191,0.0026
2822,0.0034,0.0194,0.0186,0.0028
2823,0.0045,0.0195,0.0174,0.0032
2824,0.0053,0.0265,0.0265,0.0074
2825,0.0043,0.0189,0.0177,0.0032
2826,0.0066,0.0255,0.0252,0.0060
2827,0.0052,0.0232,0.0197,0.0035
2828,0.0059,0.0259,0.0231,0.0041
2829,0.0065,0.0282,0.0256,0.0046
2830,0.0066,0.0255,0.0252,0.0060
2831,0.0087,0.0182,0.0175,0.0067
2832,0.0061,0.0222,0.0199,0.0141
2833,0.0059,0.0214,0.0187,0.0129
2834,0.0060,0.0197,0.0177,0.0133
2835,0.0054,0.0271,0.0274,0.0088
2836,0.0077,0.0297,0.0371,0.0272
2837,0.0074,0.0270,0.0335,0.0238
2838,0.0066,0.0254,0.0302,0.0206
2839,0.0055,0.0228,0.0241,0.0172
2840,0.0043,0.0195,0.0177,0.0141
2841,0.0030,0.0087,0.0071,0.0032
2842,0.0030,0.0087,0.0071,0.0032
2843,0.0030,0.0087,0.0071,0.0032
2844,0.0031,0.0069,0.0069,0.0032
2845,0.0030,0.0086,0.0071,0.0030
2846,0.0057,0.0345,0.0336,0.0130
2847,0.0036,0.0096,0.0135,0.0029
2848,0.0034,0.0126,0.0177,0.0027
2849,0.0034,0.0155,0.0193,0.0029
2850,0.0043,0.0142,0.0151,0.0031
2851,0.0051,0.0184,0.0159,0.0032
2852,0.0057,0.0190,0.0176,0.0039
2853,0.0062,0.0216,0.0214,0.0048
2854,0.0065,0.0205,0.0219,0.0060
2855,0.0087,0.0137,0.0161,0.0068
2856,0.0035,0.0085,0.0113,0.0027
2857,0.0060,0.0433,0.0404,0.0183
2858,0.0064,0.0272,0.0255,0.0182
2859,0.0060,0.0180,0.0158,0.0162
2860,0.0060,0.0159,0.0142,0.0160
2861,0.0055,0.0169,0.0142,0.0169
2862,0.0052,0.0187,0.0167,0.0180
2863,0.0055,0.0160,0.0141,0.0164
2864,0.0051,0.0133,0.0114,0.0147
2865,0.0038,0.0110,0.0098,0.0118
2866,0.0041,0.0096,0.0090,0.0078
2867,0.0045,0.0143,0.0142,0.0045
2868,0.0053,0.0439,0.0378,0.0203
2869,0.0034,0.0126,0.0177,0.0027
2870,0.0054,0.0082,0.0100,0.0039
2871,0.0043,0.0141,0.0159,0.0045
2872,0.0041,0.0120,0.0152,0.0068
2873,0.0057,0.0198,0.0196,0.0104
2874,0.0054,0.0230,0.0240,0.0104
2875,0.0054,0.0232,0.0239,0.0103
2876,0.0056,0.0216,0.0222,0.0103
2877,0.0059,0.0224,0.0229,0.0114
2878,0.0052,0.0226,0.0222,0.0155
2879,0.0063,0.0413,0.0333,0.0220
2880,0.0062,0.0292,0.0282,0.0213
2881,0.0034,0.0155,0.0193,0.0029
2882,0.0030,0.0087,0.0071,0.0032
2883,0.0030,0.0087,0.0071,0.0032
2884,0.0029,0.0111,0.0100,0.0031
2885,0.0030,0.0087,0.0071,0.0032
2886,0.0030,0.0087,0.0071,0.0032
2887,0.0030,0.0087,0.0071,0.0032
2888,0.0030,0.0087,0.0071,0.0032
2889,0.0029,0.0111,0.0100,0.0031
2890,0.0040,0.0222,0.0193,0.0031
2891,0.0030,0.0087,0.0071,0.0032
2892,0.0030,0.0087,0.0071,0.0032
2893,0.0043,0.0142,0.0151,0.0031
2894,0.0030,0.0087,0.0071,0.0032
2895,0.0029,0.0111,0.0100,0.0031
2896,0.0030,0.0087,0.0071,0.0032
2897,0.0030,0.0087,0.0071,0.0032
2898,0.0030,0.0087,0.0071,0.0032
2899,0.0030,0.0087,0.0071,0.0032
2900,0.0029,0.0111,0.0100,0.0031
2901,0.0038,0.0165,0.0131,0.0034
2902,0.0030,0.0087,0.0071,0.0032
2903,0.0030,0.0087,0.0071,0.0032
2904,0.0030,0.0087,0.0071,0.0032
2905,0.0051,0.0173,0.0156,0.0034
2906,0.0029,0.0111,0.0100,0.0031
2907,0.0030,0.0087,0.0071,0.0032
2908,0.0030,0.0087,0.0071,0.0032
2909,0.0030,0.0087,0.0071,0.0032
2910,0.0030,0.0087,0.0071,0.0032
2911,0.0029,0.0111,0.0100,0.0031
2912,0.0038,0.0165,0.0131,0.0034
2913,0.0030,0.0087,0.0071,0.0032
2914,0.0030,0.0087,0.0071,0.0032
2915,0.0030,0.0087,0.0071,0.0032
2916,0.0030,0.0087,0.0071,0.0032
2917,0.0058,0.0206,0.0182,0.0037
2918,0.0030,0.0087,0.0071,0.0032
2919,0.0030,0.0087,0.0071,0.0032
2920,0.0030,0.0087,0.0071,0.0032
2921,0.0030,0.0087,0.0071,0.0032
2922,0.0029,0.0111,0.0100,0.0031
2923,0.0038,0.0183,0.0151,0.0032
2924,0.0100,0.0294,0.0302,0.0086
2925,0.0100,0.0224,0.0257,0.0065
2926,0.0097,0.0193,0.0240,0.0049
2927,0.0092,0.0148,0.0200,0.0037
2928,0.0051,0.0184,0.0159,0.0032
2929,0.0062,0.0216,0.0214,0.0048
2930,0.0073,0.0116,0.0172,0.0026
2931,0.0061,0.0114,0.0163,0.0023
2932,0.0049,0.0110,0.0152,0.0023
2933,0.0039,0.0141,0.0177,0.0025
2934,0.0045,0.0209,0.0180,0.0031
2935,0.0038,0.0165,0.0131,0.0034
2936,0.0032,0.0103,0.0105,0.0030
2937,0.0031,0.0069,0.0069,0.0032
2938,0.0036,0.0096,0.0135,0.0029
2939,0.0034,0.0126,0.0177,0.0027
2940,0.0033,0.0148,0.0163,0.0028
2941,0.0043,0.0142,0.0151,0.0031
2942,0.0065,0.0205,0.0219,0.0060
2943,0.0051,0.0173,0.0156,0.0034
2944,0.0057,0.0190,0.0176,0.0039
2945,0.0063,0.0238,0.0227,0.0045
2946,0.0038,0.0165,0.0131,0.0034
2947,0.0065,0.0205,0.0219,0.0060
2948,0.0087,0.0137,0.0161,0.0068
2949,0.0064,0.0272,0.0255,0.0182
2950,0.0060,0.0180,0.0158,0.0162
2951,0.0061,0.0168,0.0140,0.0179
2952,0.0076,0.0329,0.0412,0.0257
2953,0.0074,0.0301,0.0374,0.0251
2954,0.0067,0.0303,0.0379,0.0259
2955,0.0057,0.0284,0.0328,0.0244
2956,0.0043,0.0254,0.0246,0.0210
2957,0.0038,0.0165,0.0131,0.0034
2958,0.0030,0.0086,0.0073,0.0032
2959,0.0030,0.0086,0.0073,0.0032
2960,0.0030,0.0086,0.0073,0.0032
2961,0.0032,0.0064,0.0067,0.0031
2962,0.0031,0.0076,0.0062,0.0030
2963,0.0037,0.0090,0.0133,0.0029
2964,0.0034,0.0106,0.0166,0.0027
2965,0.0034,0.0122,0.0167,0.0029
2966,0.0043,0.0137,0.0154,0.0031
2967,0.0051,0.0143,0.0118,0.0032
2968,0.0038,0.0165,0.0131,0.0034
2969,0.0057,0.0174,0.0163,0.0039
2970,0.0061,0.0201,0.0204,0.0048
2971,0.0065,0.0190,0.0216,0.0060
2972,0.0087,0.0130,0.0158,0.0069
2973,0.0036,0.0077,0.0110,0.0027
2974,0.0065,0.0327,0.0303,0.0227
2975,0.0060,0.0213,0.0186,0.0199
2976,0.0060,0.0183,0.0156,0.0189
2977,0.0055,0.0191,0.0164,0.0191
2978,0.0051,0.0215,0.0199,0.0195
2979,0.0038,0.0183,0.0151,0.0032
2980,0.0054,0.0177,0.0163,0.0173
2981,0.0050,0.0150,0.0139,0.0153
2982,0.0038,0.0116,0.0111,0.0121
2983,0.0043,0.0098,0.0095,0.0080
2984,0.0047,0.0155,0.0160,0.0047
2985,0.0034,0.0106,0.0166,0.0027
2986,0.0054,0.0088,0.0104,0.0042
2987,0.0044,0.0137,0.0161,0.0051
2988,0.0041,0.0116,0.0155,0.0076
2989,0.0056,0.0198,0.0202,0.0113
2990,0.0038,0.0165,0.0131,0.0034
2991,0.0054,0.0244,0.0254,0.0115
2992,0.0054,0.0255,0.0259,0.0117
2993,0.0057,0.0239,0.0242,0.0120
2994,0.0059,0.0230,0.0232,0.0130
2995,0.0053,0.0240,0.0230,0.0177
2996,0.0062,0.0338,0.0319,0.0250
2997,0.0034,0.0122,0.0167,0.0029
2998,0.0030,0.0086,0.0073,0.0032
2999,0.0030,0.0086,0.0073,0.0032
3000,0.0029,0.0107,0.0100,0.0030
3001,0.0038,0.0165,0.0131,0.0034
3002,0.0030,0.0086,0.0073,0.0032
3003,0.0030,0.0086,0.0073,0.0032
3004,0.0030,0.0086,0.0073,0.0032
3005,0.0030,0.0086,0.0073,0.0032
3006,0.0029,0.0107,0.0100,0.0030
3007,0.0030,0.0086,0.0073,0.0032
3008,0.0030,0.0086,0.0073,0.0032
3009,0.0043,0.0137,0.0154,0.0031
3010,0.0030,0.0086,0.0073,0.0032
3011,0.0029,0.0107,0.0100,0.0030
3012,0.0044,0.0247,0.0190,0.0036
3013,0.0030,0.0086,0.0073,0.0032
3014,0.0030,0.0086,0.0073,0.0032
3015,0.0030,0.0086,0.0073,0.0032
3016,0.0030,0.0086,0.0073,0.0032
3017,0.0029,0.0107,0.0100,0.0030
3018,0.0030,0.0086,0.0073,0.0032
3019,0.0030,0.0086,0.0073,0.0032
3020,0.0030,0.0086,0.0073,0.0032
3021,0.0051,0.0123,0.0108,0.0033
3022,0.0029,0.0107,0.0100,0.0030
3023,0.0038,0.0165,0.0131,0.0034
3024,0.0030,0.0086,0.0073,0.0032
3025,0.0030,0.0086,0.0073,0.0032
3026,0.0030,0.0086,0.0073,0.0032
3027,0.0030,0.0086,0.0073,0.0032
3028,0.0029,0.0107,0.0100,0.0030
3029,0.0030,0.0086,0.0073,0.0032
3030,0.0030,0.0086,0.0073,0.0032
3031,0.0030,0.0086,0.0073,0.0032
3032,0.0030,0.0086,0.0073,0.0032
3033,0.0058,0.0196,0.0177,0.0037
3034,0.0038,0.0183,0.0151,0.0032
3035,0.0030,0.0086,0.0073,0.0032
3036,0.0030,0.0086,0.0073,0.0032
3037,0.0030,0.0086,0.0073,0.0032
3038,0.0030,0.0086,0.0073,0.0032
3039,0.0029,0.0107,0.0100,0.0030
3040,0.0100,0.0310,0.0341,0.0085
3041,0.0100,0.0247,0.0302,0.0064
3042,0.0097,0.0208,0.0273,0.0047
3043,0.0092,0.0163,0.0231,0.0035
3044,0.0051,0.0143,0.0118,0.0032
3045,0.0050,0.0198,0.0199,0.0029
3046,0.0038,0.0165,0.0131,0.0034
3047,0.0061,0.0201,0.0204,0.0048
3048,0.0073,0.0124,0.0193,0.0025
3049,0.0061,0.0114,0.0170,0.0023
3050,0.0049,0.0103,0.0150,0.0023
3051,0.0039,0.0134,0.0171,0.0024
3052,0.0032,0.0104,0.0111,0.0029
3053,0.0032,0.0064,0.0067,0.0031
3054,0.0037,0.0090,0.0133,0.0029
3055,0.0034,0.0106,0.0166,0.0027
3056,0.0034,0.0121,0.0140,0.0028
3057,0.0038,0.0165,0.0131,0.0034
3058,0.0043,0.0137,0.0154,0.0031
3059,0.0065,0.0190,0.0216,0.0060
3060,0.0051,0.0123,0.0108,0.0033
3061,0.0057,0.0174,0.0163,0.0039
3062,0.0062,0.0217,0.0211,0.0045
3063,0.0065,0.0190,0.0216,0.0060
3064,0.0087,0.0130,0.0158,0.0069
3065,0.0065,0.0327,0.0303,0.0227
3066,0.0060,0.0213,0.0186,0.0199
3067,0.0060,0.0202,0.0168,0.0210
3068,0.0038,0.0165,0.0131,0.0034
3069,0.0077,0.0351,0.0441,0.0280
3070,0.0075,0.0319,0.0397,0.0279
3071,0.0068,0.0327,0.0413,0.0298
3072,0.0058,0.0322,0.0379,0.0293
3073,0.0043,0.0287,0.0296,0.0257
3074,0.0035,0.0161,0.0129,0.0022
3075,0.0035,0.0161,0.0129,0.0022
3076,0.0035,0.0150,0.0118,0.0024
3077,0.0043,0.0203,0.0177,0.0021
3078,0.0044,0.0222,0.0196,0.0020
3079,0.0038,0.0165,0.0131,0.0034
3080,0.0046,0.0187,0.0181,0.0020
3081,0.0039,0.0186,0.0166,0.0021
3082,0.0035,0.0192,0.0143,0.0026
3083,0.0037,0.0239,0.0193,0.0033
3084,0.0048,0.0298,0.0227,0.0031
3085,0.0057,0.0316,0.0256,0.0037
3086,0.0059,0.0354,0.0308,0.0046
3087,0.0058,0.0343,0.0304,0.0050
3088,0.0066,0.0269,0.0220,0.0054
3089,0.0047,0.0212,0.0198,0.0018
3090,0.0038,0.0183,0.0151,0.0032
3091,0.0058,0.0395,0.0324,0.0317
3092,0.0048,0.0363,0.0294,0.0257
3093,0.0046,0.0343,0.0313,0.0195
3094,0.0047,0.0285,0.0265,0.0154
3095,0.0053,0.0288,0.0264,0.0155
3096,0.0058,0.0217,0.0201,0.0111
3097,0.0049,0.0215,0.0196,0.0112
3098,0.0031,0.0193,0.0184,0.0088
3099,0.0028,0.0170,0.0170,0.0055
3100,0.0036,0.0210,0.0197,0.0040
3101,0.0038,0.0165,0.0131,0.0034
3102,0.0039,0.0186,0.0166,0.0021
3103,0.0045,0.0192,0.0155,0.0027
3104,0.0040,0.0262,0.0181,0.0039
3105,0.0048,0.0210,0.0163,0.0058
3106,0.0044,0.0216,0.0191,0.0095
3107,0.0035,0.0215,0.0195,0.0091
3108,0.0037,0.0236,0.0217,0.0096
3109,0.0043,0.0285,0.0268,0.0110
3110,0.0045,0.0354,0.0315,0.0152
3111,0.0043,0.0393,0.0329,0.0202
3112,0.0038,0.0165,0.0131,0.0034
3113,0.0054,0.0366,0.0291,0.0213
3114,0.0035,0.0192,0.0143,0.0026
3115,0.0035,0.0161,0.0129,0.0022
3116,0.0035,0.0150,0.0118,0.0024
3117,0.0037,0.0184,0.0154,0.0021
3118,0.0035,0.0161,0.0129,0.0022
3119,0.0035,0.0150,0.0118,0.0024
3120,0.0035,0.0161,0.0129,0.0022
3121,0.0035,0.0161,0.0129,0.0022
3122,0.0037,0.0184,0.0154,0.0021
3123,0.0038,0.0165,0.0131,0.0034
3124,0.0035,0.0161,0.0129,0.0022
3125,0.0035,0.0161,0.0129,0.0022
3126,0.0037,0.0239,0.0193,0.0033
3127,0.0035,0.0161,0.0129,0.0022
3128,0.0037,0.0184,0.0154,0.0021
3129,0.0035,0.0150,0.0118,0.0024
3130,0.0035,0.0161,0.0129,0.0022
3131,0.0035,0.0161,0.0129,0.0022
3132,0.0035,0.0150,0.0118,0.0024
3133,0.0037,0.0184,0.0154,0.0021
3134,0.0053,0.0307,0.0234,0.0040
3135,0.0035,0.0161,0.0129,0.0022
3136,0.0035,0.0150,0.0118,0.0024
3137,0.0035,0.0161,0.0129,0.0022
3138,0.0046,0.0291,0.0224,0.0033
3139,0.0037,0.0184,0.0154,0.0021
3140,0.0035,0.0161,0.0129,0.0022
3141,0.0035,0.0161,0.0129,0.0022
3142,0.0035,0.0150,0.0118,0.0024
3143,0.0035,0.0161,0.0129,0.0022
3144,0.0037,0.0184,0.0154,0.0021
3145,0.0038,0.0183,0.0151,0.0032
3146,0.0035,0.0150,0.0118,0.0024
3147,0.0035,0.0161,0.0129,0.0022
3148,0.0035,0.0161,0.0129,0.0022
3149,0.0035,0.0150,0.0118,0.0024
3150,0.0061,0.0318,0.0253,0.0034
3151,0.0035,0.0161,0.0129,0.0022
3152,0.0035,0.0150,0.0118,0.0024
3153,0.0035,0.0161,0.0129,0.0022
3154,0.0035,0.0161,0.0129,0.0022
3155,0.0037,0.0184,0.0154,0.0021
3156,0.0043,0.0213,0.0215,0.0028
3157,0.0038,0.0165,0.0131,0.0034
3158,0.0071,0.0267,0.0244,0.0092
3159,0.0070,0.0215,0.0224,0.0071
3160,0.0068,0.0163,0.0176,0.0052
3161,0.0064,0.0159,0.0197,0.0041
3162,0.0048,0.0298,0.0227,0.0031
3163,0.0059,0.0354,0.0308,0.0046
3164,0.0052,0.0141,0.0180,0.0027
3165,0.0044,0.0149,0.0177,0.0024
3166,0.0036,0.0138,0.0147,0.0022
3167,0.0033,0.0178,0.0199,0.0020
3168,0.0038,0.0165,0.0131,0.0034
3169,0.0031,0.0154,0.0140,0.0022
3170,0.0043,0.0192,0.0174,0.0022
3171,0.0047,0.0196,0.0187,0.0018
3172,0.0039,0.0186,0.0166,0.0021
3173,0.0034,0.0205,0.0147,0.0025
3174,0.0036,0.0225,0.0159,0.0030
3175,0.0058,0.0343,0.0304,0.0050
3176,0.0043,0.0292,0.0231,0.0036
3177,0.0057,0.0316,0.0256,0.0037
3178,0.0068,0.0357,0.0304,0.0040
3179,0.0038,0.0165,0.0131,0.0034
3180,0.0055,0.0332,0.0300,0.0053
3181,0.0066,0.0269,0.0220,0.0054
3182,0.0058,0.0395,0.0324,0.0317
3183,0.0048,0.0368,0.0298,0.0254
3184,0.0047,0.0350,0.0310,0.0215
3185,0.0093,0.0300,0.0412,0.0469
3186,0.0073,0.0278,0.0366,0.0416
3187,0.0064,0.0266,0.0324,0.0372
3188,0.0058,0.0261,0.0296,0.0334
3189,0.0050,0.0257,0.0291,0.0303
3190,0.0038,0.0165,0.0131,0.0034
3191,0.0031,0.0137,0.0114,0.0022
3192,0.0031,0.0137,0.0114,0.0022
3193,0.0031,0.0126,0.0103,0.0024
3194,0.0036,0.0151,0.0124,0.0021
3195,0.0037,0.0169,0.0141,0.0020
3196,0.0038,0.0144,0.0140,0.0020
3197,0.0033,0.0158,0.0142,0.0020
3198,0.0032,0.0182,0.0143,0.0025
3199,0.0036,0.0238,0.0204,0.0031
3200,0.0048,0.0271,0.0214,0.0030
3201,0.0038,0.0183,0.0151,0.0032
3202,0.0056,0.0301,0.0256,0.0035
3203,0.0058,0.0335,0.0304,0.0045
3204,0.0057,0.0313,0.0292,0.0049
3205,0.0065,0.0226,0.0201,0.0052
3206,0.0039,0.0161,0.0146,0.0018
3207,0.0059,0.0349,0.0308,0.0252
3208,0.0049,0.0300,0.0248,0.0203
3209,0.0046,0.0277,0.0258,0.0148
3210,0.0046,0.0238,0.0221,0.0139
3211,0.0053,0.0263,0.0239,0.0162
3212,0.0038,0.0165,0.0131,0.0034
3213,0.0057,0.0187,0.0166,0.0115
3214,0.0048,0.0183,0.0164,0.0118
3215,0.0030,0.0162,0.0155,0.0093
3216,0.0029,0.0141,0.0138,0.0057
3217,0.0036,0.0190,0.0183,0.0043
3218,0.0033,0.0158,0.0142,0.0020
3219,0.0045,0.0155,0.0131,0.0026
3220,0.0037,0.0232,0.0166,0.0037
3221,0.0042,0.0165,0.0136,0.0059
3222,0.0043,0.0193,0.0174,0.0097
3223,0.0038,0.0165,0.0131,0.0034
3224,0.0036,0.0201,0.0184,0.0094
3225,0.0037,0.0214,0.0195,0.0094
3226,0.0042,0.0234,0.0222,0.0090
3227,0.0045,0.0296,0.0265,0.0125
3228,0.0042,0.0331,0.0283,0.0177
3229,0.0054,0.0298,0.0247,0.0176
3230,0.0032,0.0182,0.0143,0.0025
3231,0.0031,0.0137,0.0114,0.0022
3232,0.0031,0.0126,0.0103,0.0024
3233,0.0032,0.0161,0.0141,0.0021
3234,0.0038,0.0165,0.0131,0.0034
3235,0.0031,0.0137,0.0114,0.0022
3236,0.0031,0.0126,0.0103,0.0024
3237,0.0031,0.0137,0.0114,0.0022
3238,0.0031,0.0137,0.0114,0.0022
3239,0.0032,0.0161,0.0141,0.0021
3240,0.0031,0.0137,0.0114,0.0022
3241,0.0031,0.0137,0.0114,0.0022
3242,0.0036,0.0238,0.0204,0.0031
3243,0.0031,0.0137,0.0114,0.0022
3244,0.0032,0.0161,0.0141,0.0021
3245,0.0038,0.0165,0.0131,0.0034
3246,0.0031,0.0126,0.0103,0.0024
3247,0.0031,0.0137,0.0114,0.0022
3248,0.0031,0.0137,0.0114,0.0022
3249,0.0031,0.0126,0.0103,0.0024
3250,0.0032,0.0161,0.0141,0.0021
3251,0.0031,0.0137,0.0114,0.0022
3252,0.0031,0.0126,0.0103,0.0024
3253,0.0031,0.0137,0.0114,0.0022
3254,0.0045,0.0268,0.0215,0.0031
3255,0.0032,0.0161,0.0141,0.0021
3256,0.0063,0.0336,0.0260,0.0043
3257,0.0031,0.0137,0.0114,0.0022
3258,0.0031,0.0137,0.0114,0.0022
3259,0.0031,0.0126,0.0103,0.0024
3260,0.0031,0.0137,0.0114,0.0022
3261,0.0032,0.0161,0.0141,0.0021
3262,0.0031,0.0126,0.0103,0.0024
3263,0.0031,0.0137,0.0114,0.0022
3264,0.0031,0.0137,0.0114,0.0022
3265,0.0031,0.0126,0.0103,0.0024
3266,0.0060,0.0306,0.0258,0.0033
3267,0.0040,0.0222,0.0193,0.0031
3268,0.0038,0.0165,0.0131,0.0034
3269,0.0031,0.0137,0.0114,0.0022
3270,0.0031,0.0126,0.0103,0.0024
3271,0.0031,0.0137,0.0114,0.0022
3272,0.0031,0.0137,0.0114,0.0022
3273,0.0032,0.0161,0.0141,0.0021
3274,0.0071,0.0275,0.0245,0.0093
3275,0.0070,0.0213,0.0217,0.0072
3276,0.0068,0.0161,0.0161,0.0052
3277,0.0064,0.0153,0.0185,0.0041
3278,0.0048,0.0271,0.0214,0.0030
3279,0.0038,0.0165,0.0131,0.0034
3280,0.0058,0.0335,0.0304,0.0045
3281,0.0052,0.0133,0.0169,0.0026
3282,0.0043,0.0137,0.0167,0.0023
3283,0.0035,0.0119,0.0134,0.0021
3284,0.0031,0.0163,0.0187,0.0020
3285,0.0028,0.0137,0.0126,0.0022
3286,0.0035,0.0146,0.0129,0.0022
3287,0.0038,0.0146,0.0137,0.0018
3288,0.0033,0.0158,0.0142,0.0020
3289,0.0032,0.0195,0.0146,0.0024
3290,0.0038,0.0165,0.0131,0.0034
3291,0.0036,0.0224,0.0173,0.0029
3292,0.0057,0.0313,0.0292,0.0049
3293,0.0043,0.0269,0.0223,0.0034
3294,0.0056,0.0301,0.0256,0.0035
3295,0.0067,0.0339,0.0302,0.0039
3296,0.0054,0.0303,0.0288,0.0052
3297,0.0065,0.0226,0.0201,0.0052
3298,0.0059,0.0349,0.0308,0.0252
3299,0.0049,0.0292,0.0241,0.0188
3300,0.0048,0.0303,0.0271,0.0191
3301,0.0038,0.0165,0.0131,0.0034
3302,0.0089,0.0298,0.0412,0.0391
3303,0.0072,0.0277,0.0367,0.0343
3304,0.0065,0.0261,0.0320,0.0303
3305,0.0060,0.0246,0.0272,0.0266
3306,0.0050,0.0232,0.0240,0.0235
3307,0.0025,0.0098,0.0086,0.0021
3308,0.0025,0.0098,0.0086,0.0021
3309,0.0025,0.0090,0.0076,0.0024
3310,0.0027,0.0096,0.0080,0.0020
3311,0.0028,0.0114,0.0098,0.0019
3312,0.0038,0.0183,0.0151,0.0032
3313,0.0029,0.0104,0.0117,0.0019
3314,0.0028,0.0119,0.0122,0.0019
3315,0.0029,0.0168,0.0162,0.0024
3316,0.0036,0.0192,0.0187,0.0029
3317,0.0046,0.0226,0.0192,0.0027
3318,0.0053,0.0258,0.0241,0.0033
3319,0.0055,0.0264,0.0260,0.0043
3320,0.0055,0.0257,0.0267,0.0047
3321,0.0064,0.0169,0.0178,0.0051
3322,0.0030,0.0108,0.0107,0.0018
3323,0.0101,0.0228,0.0199,0.0087
3324,0.0063,0.0340,0.0331,0.0213
3325,0.0051,0.0226,0.0197,0.0179
3326,0.0048,0.0167,0.0157,0.0127
3327,0.0047,0.0184,0.0160,0.0165
3328,0.0052,0.0241,0.0222,0.0195
3329,0.0056,0.0164,0.0135,0.0141
3330,0.0047,0.0158,0.0136,0.0139
3331,0.0029,0.0120,0.0108,0.0107
3332,0.0034,0.0095,0.0089,0.0065
3333,0.0040,0.0165,0.0168,0.0050
3334,0.0100,0.0186,0.0192,0.0068
3335,0.0028,0.0119,0.0122,0.0019
3336,0.0046,0.0099,0.0101,0.0029
3337,0.0033,0.0159,0.0129,0.0041
3338,0.0035,0.0122,0.0121,0.0069
3339,0.0042,0.0168,0.0161,0.0111
3340,0.0038,0.0193,0.0182,0.0109
3341,0.0038,0.0208,0.0193,0.0108
3342,0.0042,0.0158,0.0153,0.0078
3343,0.0045,0.0192,0.0178,0.0102
3344,0.0042,0.0247,0.0224,0.0172
3345,0.0097,0.0167,0.0195,0.0053
3346,0.0054,0.0235,0.0226,0.0178
3347,0.0029,0.0168,0.0162,0.0024
3348,0.0025,0.0098,0.0086,0.0021
3349,0.0025,0.0090,0.0076,0.0024
3350,0.0026,0.0125,0.0117,0.0021
3351,0.0025,0.0098,0.0086,0.0021
3352,0.0025,0.0090,0.0076,0.0024
3353,0.0025,0.0098,0.0086,0.0021
3354,0.0025,0.0098,0.0086,0.0021
3355,0.0026,0.0125,0.0117,0.0021
3356,0.0091,0.0149,0.0183,0.0042
3357,0.0025,0.0098,0.0086,0.0021
3358,0.0025,0.0098,0.0086,0.0021
3359,0.0036,0.0192,0.0187,0.0029
3360,0.0025,0.0098,0.0086,0.0021
3361,0.0026,0.0125,0.0117,0.0021
3362,0.0025,0.0090,0.0076,0.0024
3363,0.0025,0.0098,0.0086,0.0021
3364,0.0025,0.0098,0.0086,0.0021
3365,0.0025,0.0090,0.0076,0.0024
3366,0.0026,0.0125,0.0117,0.0021
3367,0.0053,0.0314,0.0235,0.0038
3368,0.0025,0.0098,0.0086,0.0021
3369,0.0025,0.0090,0.0076,0.0024
3370,0.0025,0.0098,0.0086,0.0021
3371,0.0044,0.0220,0.0192,0.0029
3372,0.0026,0.0125,0.0117,0.0021
3373,0.0025,0.0098,0.0086,0.0021
3374,0.0025,0.0098,0.0086,0.0021
3375,0.0025,0.0090,0.0076,0.0024
3376,0.0025,0.0098,0.0086,0.0021
3377,0.0026,0.0125,0.0117,0.0021
3378,0.0044,0.0247,0.0190,0.0036
3379,0.0067,0.0370,0.0312,0.0053
3380,0.0025,0.0090,0.0076,0.0024
3381,0.0025,0.0098,0.0086,0.0021
3382,0.0025,0.0098,0.0086,0.0021
3383,0.0025,0.0090,0.0076,0.0024
3384,0.0057,0.0265,0.0242,0.0031
3385,0.0025,0.0098,0.0086,0.0021
3386,0.0025,0.0090,0.0076,0.0024
3387,0.0025,0.0098,0.0086,0.0021
3388,0.0025,0.0098,0.0086,0.0021
3389,0.0026,0.0125,0.0117,0.0021
3390,0.0072,0.0141,0.0174,0.0030
3391,0.0070,0.0297,0.0289,0.0093
3392,0.0069,0.0238,0.0252,0.0071
3393,0.0068,0.0175,0.0185,0.0051
3394,0.0064,0.0147,0.0191,0.0038
3395,0.0046,0.0226,0.0192,0.0027
3396,0.0055,0.0264,0.0260,0.0043
3397,0.0052,0.0122,0.0168,0.0024
3398,0.0043,0.0117,0.0162,0.0021
3399,0.0034,0.0099,0.0121,0.0020
3400,0.0030,0.0142,0.0176,0.0019
3401,0.0060,0.0148,0.0169,0.0027
3402,0.0025,0.0101,0.0103,0.0021
3403,0.0027,0.0096,0.0094,0.0022
3404,0.0030,0.0102,0.0109,0.0018
3405,0.0028,0.0119,0.0122,0.0019
3406,0.0030,0.0184,0.0166,0.0023
3407,0.0036,0.0176,0.0154,0.0027
3408,0.0055,0.0257,0.0267,0.0047
3409,0.0042,0.0219,0.0197,0.0031
3410,0.0053,0.0258,0.0241,0.0033
3411,0.0062,0.0261,0.0251,0.0037
3412,0.0050,0.0150,0.0161,0.0026
3413,0.0052,0.0244,0.0259,0.0051
3414,0.0064,0.0169,0.0178,0.0051
3415,0.0063,0.0340,0.0331,0.0213
3416,0.0050,0.0176,0.0154,0.0131
3417,0.0049,0.0251,0.0223,0.0208
3418,0.0079,0.0319,0.0440,0.0293
3419,0.0071,0.0305,0.0416,0.0277
3420,0.0066,0.0296,0.0379,0.0261
3421,0.0061,0.0272,0.0314,0.0234
3422,0.0052,0.0242,0.0232,0.0195
3423,0.0041,0.0183,0.0197,0.0027
3424,0.0024,0.0085,0.0080,0.0021
3425,0.0024,0.0085,0.0080,0.0021
3426,0.0024,0.0080,0.0070,0.0023
3427,0.0025,0.0071,0.0062,0.0020
3428,0.0026,0.0091,0.0083,0.0019
3429,0.0028,0.0083,0.0104,0.0020
3430,0.0027,0.0086,0.0107,0.0019
3431,0.0029,0.0125,0.0143,0.0024
3432,0.0035,0.0156,0.0171,0.0028
3433,0.0045,0.0177,0.0165,0.0026
3434,0.0036,0.0165,0.0148,0.0032
3435,0.0051,0.0189,0.0187,0.0032
3436,0.0052,0.0209,0.0220,0.0042
3437,0.0053,0.0208,0.0236,0.0048
3438,0.0063,0.0135,0.0175,0.0051
3439,0.0030,0.0076,0.0087,0.0018
3440,0.0066,0.0435,0.0408,0.0288
3441,0.0053,0.0274,0.0238,0.0246
3442,0.0049,0.0173,0.0148,0.0188
3443,0.0049,0.0228,0.0197,0.0222
3444,0.0053,0.0286,0.0269,0.0235
3445,0.0045,0.0195,0.0174,0.0032
3446,0.0057,0.0183,0.0166,0.0167
3447,0.0047,0.0174,0.0163,0.0157
3448,0.0029,0.0137,0.0130,0.0117
3449,0.0038,0.0105,0.0099,0.0074
3450,0.0046,0.0161,0.0169,0.0054
3451,0.0027,0.0086,0.0107,0.0019
3452,0.0047,0.0080,0.0087,0.0037
3453,0.0034,0.0151,0.0144,0.0052
3454,0.0034,0.0102,0.0121,0.0084
3455,0.0041,0.0162,0.0174,0.0128
3456,0.0050,0.0198,0.0199,0.0029
3457,0.0039,0.0223,0.0224,0.0132
3458,0.0040,0.0257,0.0248,0.0137
3459,0.0042,0.0190,0.0179,0.0112
3460,0.0046,0.0186,0.0170,0.0135
3461,0.0043,0.0258,0.0238,0.0214
3462,0.0053,0.0301,0.0285,0.0245
3463,0.0029,0.0125,0.0143,0.0024
3464,0.0024,0.0085,0.0080,0.0021
3465,0.0024,0.0080,0.0070,0.0023
3466,0.0025,0.0111,0.0110,0.0020
3467,0.0043,0.0213,0.0215,0.0028
3468,0.0024,0.0085,0.0080,0.0021
3469,0.0024,0.0080,0.0070,0.0023
3470,0.0024,0.0085,0.0080,0.0021
3471,0.0024,0.0085,0.0080,0.0021
3472,0.0025,0.0111,0.0110,0.0020
3473,0.0024,0.0085,0.0080,0.0021
3474,0.0024,0.0085,0.0080,0.0021
3475,0.0035,0.0156,0.0171,0.0028
3476,0.0024,0.0085,0.0080,0.0021
3477,0.0025,0.0111,0.0110,0.0020
3478,0.0039,0.0218,0.0167,0.0030
3479,0.0024,0.0080,0.0070,0.0023
3480,0.0024,0.0085,0.0080,0.0021
3481,0.0024,0.0085,0.0080,0.0021
3482,0.0024,0.0080,0.0070,0.0023
3483,0.0025,0.0111,0.0110,0.0020
3484,0.0024,0.0085,0.0080,0.0021
3485,0.0024,0.0080,0.0070,0.0023
3486,0.0024,0.0085,0.0080,0.0021
3487,0.0043,0.0165,0.0156,0.0028
3488,0.0025,0.0111,0.0110,0.0020
3489,0.0053,0.0314,0.0235,0.0038
3490,0.0044,0.0247,0.0190,0.0036
3491,0.0024,0.0085,0.0080,0.0021
3492,0.0024,0.0085,0.0080,0.0021
3493,0.0024,0.0080,0.0070,0.0023
3494,0.0024,0.0085,0.0080,0.0021
3495,0.0025,0.0111,0.0110,0.0020
3496,0.0024,0.0080,0.0070,0.0023
3497,0.0024,0.0085,0.0080,0.0021
3498,0.0024,0.0085,0.0080,0.0021
3499,0.0024,0.0080,0.0070,0.0023
3500,0.0054,0.0198,0.0192,0.0030
3501,0.0068,0.0347,0.0297,0.0062
3502,0.0024,0.0085,0.0080,0.0021
3503,0.0024,0.0080,0.0070,0.0023
3504,0.0024,0.0085,0.0080,0.0021
3505,0.0024,0.0085,0.0080,0.0021
3506,0.0025,0.0111,0.0110,0.0020
3507,0.0069,0.0334,0.0361,0.0091
3508,0.0069,0.0255,0.0306,0.0069
3509,0.0068,0.0201,0.0247,0.0048
3510,0.0064,0.0164,0.0233,0.0035
3511,0.0045,0.0177,0.0165,0.0026
3512,0.0053,0.0307,0.0234,0.0040
3513,0.0052,0.0209,0.0220,0.0042
3514,0.0052,0.0123,0.0193,0.0022
3515,0.0043,0.0122,0.0184,0.0019
3516,0.0034,0.0107,0.0151,0.0018
3517,0.0030,0.0140,0.0187,0.0018
3518,0.0025,0.0093,0.0105,0.0019
3519,0.0024,0.0076,0.0081,0.0021
3520,0.0029,0.0071,0.0091,0.0018
3521,0.0027,0.0086,0.0107,0.0019
3522,0.0030,0.0147,0.0147,0.0023
3523,0.0061,0.0326,0.0257,0.0045
3524,0.0036,0.0138,0.0137,0.0026
3525,0.0053,0.0208,0.0236,0.0048
3526,0.0042,0.0168,0.0165,0.0030
3527,0.0051,0.0189,0.0187,0.0032
3528,0.0059,0.0231,0.0238,0.0037
3529,0.0051,0.0206,0.0238,0.0051
3530,0.0063,0.0135,0.0175,0.0051
3531,0.0066,0.0435,0.0408,0.0288
3532,0.0053,0.0211,0.0183,0.0199
3533,0.0050,0.0286,0.0252,0.0267
3534,0.0069,0.0376,0.0310,0.0050
3535,0.0074,0.0354,0.0490,0.0304
3536,0.0070,0.0348,0.0480,0.0318
3537,0.0067,0.0352,0.0471,0.0328
3538,0.0064,0.0332,0.0408,0.0311
3539,0.0052,0.0309,0.0320,0.0274
3540,0.0024,0.0084,0.0083,0.0020
3541,0.0024,0.0084,0.0083,0.0020
3542,0.0024,0.0082,0.0076,0.0022
3543,0.0025,0.0057,0.0051,0.0020
3544,0.0026,0.0077,0.0071,0.0019
3545,0.0068,0.0347,0.0297,0.0062
3546,0.0029,0.0080,0.0104,0.0019
3547,0.0027,0.0072,0.0099,0.0020
3548,0.0029,0.0100,0.0122,0.0024
3549,0.0036,0.0157,0.0179,0.0028
3550,0.0044,0.0123,0.0115,0.0026
3551,0.0050,0.0175,0.0179,0.0032
3552,0.0051,0.0195,0.0212,0.0042
3553,0.0052,0.0189,0.0228,0.0048
3554,0.0063,0.0124,0.0167,0.0051
3555,0.0031,0.0074,0.0088,0.0018
3556,0.0088,0.0278,0.0217,0.0069
3557,0.0067,0.0487,0.0451,0.0332
3558,0.0054,0.0321,0.0280,0.0286
3559,0.0048,0.0218,0.0183,0.0221
3560,0.0049,0.0265,0.0236,0.0247
3561,0.0052,0.0322,0.0309,0.0255
3562,0.0056,0.0209,0.0195,0.0179
3563,0.0047,0.0197,0.0193,0.0165
3564,0.0030,0.0152,0.0154,0.0123
3565,0.0040,0.0108,0.0107,0.0076
3566,0.0048,0.0174,0.0187,0.0057
3567,0.0058,0.0420,0.0302,0.0349
3568,0.0027,0.0072,0.0099,0.0020
3569,0.0047,0.0095,0.0101,0.0040
3570,0.0035,0.0142,0.0145,0.0058
3571,0.0034,0.0098,0.0129,0.0092
3572,0.0041,0.0167,0.0186,0.0136
3573,0.0040,0.0242,0.0245,0.0143
3574,0.0041,0.0289,0.0277,0.0151
3575,0.0043,0.0225,0.0212,0.0132
3576,0.0046,0.0210,0.0189,0.0156
3577,0.0044,0.0283,0.0255,0.0236
3578,0.0058,0.0447,0.0368,0.0297
3579,0.0053,0.0355,0.0328,0.0283
3580,0.0029,0.0100,0.0122,0.0024
3581,0.0024,0.0084,0.0083,0.0020
3582,0.0024,0.0082,0.0076,0.0022
3583,0.0025,0.0106,0.0109,0.0020
3584,0.0024,0.0084,0.0083,0.0020
3585,0.0024,0.0082,0.0076,0.0022
3586,0.0024,0.0084,0.0083,0.0020
3587,0.0024,0.0084,0.0083,0.0020
3588,0.0025,0.0106,0.0109,0.0020
3589,0.0059,0.0390,0.0348,0.0220
3590,0.0024,0.0084,0.0083,0.0020
3591,0.0024,0.0084,0.0083,0.0020
3592,0.0036,0.0157,0.0179,0.0028
3593,0.0024,0.0084,0.0083,0.0020
3594,0.0025,0.0106,0.0109,0.0020
3595,0.0024,0.0082,0.0076,0.0022
3596,0.0024,0.0084,0.0083,0.0020
3597,0.0024,0.0084,0.0083,0.0020
3598,0.0024,0.0082,0.0076,0.0022
3599,0.0025,0.0106,0.0109,0.0020
Total Error Summary
Vdc  RMSE=  0.0044
Idc  RMSE=  0.0195
Id   RMSE=  0.0187
Iq   RMSE=  0.0100
