Read Model from: ./ucf10ciirs2/
Export Model to: ./ucf10ciirs2/ucf10ciirs2_fhf.json
idx_in [0, 1, 2, 3, 4, 5, 6]
idx_out [7, 8, 9, 10]
make_mimo_block iir
H1s[0][0]  Real Poles: [-1062.69117445 -1062.69117445] Freqs [Hz]: [57.89341716040971]
H1s[0][1]  Real Poles: [-1447.34196882  -183.22689314] Freqs [Hz]: []
H1s[0][2]  Real Poles: [-1025.21298826 -1025.21298826] Freqs [Hz]: [42.73508400035845]
H1s[0][3]  Real Poles: [-1031.9204703 -1031.9204703] Freqs [Hz]: [35.56367824193566]
H1s[1][0]  Real Poles: [-1313.56957154  -551.08347936] Freqs [Hz]: []
H1s[1][1]  Real Poles: [-1055.20640686 -1055.20640686] Freqs [Hz]: [53.16280531614541]
H1s[1][2]  Real Poles: [-1002.51811696 -1002.51811696] Freqs [Hz]: [21.030400695711744]
H1s[1][3]  Real Poles: [-1186.80157243  -737.34718831] Freqs [Hz]: []
H1s[2][0]  Real Poles: [-1267.81877591  -674.67954667] Freqs [Hz]: []
H1s[2][1]  Real Poles: [-1386.90577065  -321.04482139] Freqs [Hz]: []
H1s[2][2]  Real Poles: [-1010.52110363 -1010.52110363] Freqs [Hz]: [27.519171832623258]
H1s[2][3]  Real Poles: [-1402.00770098  -391.47785109] Freqs [Hz]: []
H1s[3][0]  Real Poles: [-1060.30157954 -1060.30157954] Freqs [Hz]: [61.11469432266848]
H1s[3][1]  Real Poles: [-1390.02648969  -340.43412428] Freqs [Hz]: []
H1s[3][2]  Real Poles: [-1379.52745871  -407.81078322] Freqs [Hz]: []
H1s[3][3]  Real Poles: [-1306.94874004  -565.74362143] Freqs [Hz]: []
model_folder = ./ucf10ciirs2/
model_root = ucf10ciirs2
data_path = d:/data/ucf3/ucf9c.hdf5
idx_in [0, 1, 2, 3, 4, 5, 6]
idx_out [7, 8, 9, 10]
read 2100 dataframes
dt=0.001000 data_len=4001 n_io=11 n_case=2100
['G', 'Ud', 'Uq', 'Vd', 'Vq', 'GVrms', 'Ctrl'] ['Vdc', 'Idc', 'Id', 'Iq'] (2100, 4001, 11)
make_mimo_block iir
prepending initial conditions (2100, 500, 11) (2100, 4001, 11) float32 float32
results in (2100, 4501, 11)
Idx,Vdc,Idc,Id,Iq
#,RMSE,RMSE,RMSE,RMSE
Total,0.0096,0.0373,0.0478,0.0146
0,0.0086,0.0392,0.0594,0.0047
1,0.0086,0.0392,0.0594,0.0047
2,0.0090,0.0683,0.1035,0.0070
3,0.0111,0.0544,0.0766,0.0381
4,0.0077,0.0447,0.0487,0.0038
5,0.0140,0.0253,0.0426,0.0059
6,0.0077,0.0447,0.0487,0.0038
7,0.0070,0.0262,0.0273,0.0042
8,0.0111,0.0318,0.0333,0.0054
9,0.0077,0.0447,0.0487,0.0038
10,0.0077,0.0447,0.0487,0.0038
11,0.0140,0.0253,0.0426,0.0059
12,0.0077,0.0447,0.0487,0.0038
13,0.0111,0.0318,0.0333,0.0054
14,0.0111,0.0544,0.0766,0.0381
15,0.0140,0.0253,0.0426,0.0059
16,0.0077,0.0447,0.0487,0.0038
17,0.0077,0.0447,0.0487,0.0038
18,0.0140,0.0253,0.0426,0.0059
19,0.0108,0.0300,0.0461,0.0100
20,0.0077,0.0447,0.0487,0.0038
21,0.0140,0.0253,0.0426,0.0059
22,0.0077,0.0447,0.0487,0.0038
23,0.0077,0.0447,0.0487,0.0038
24,0.0111,0.0318,0.0333,0.0054
25,0.0111,0.0544,0.0766,0.0381
26,0.0086,0.0414,0.0651,0.0104
27,0.0091,0.0332,0.0570,0.0079
28,0.0123,0.0373,0.0676,0.0113
29,0.0124,0.0212,0.0443,0.0051
30,0.0108,0.0308,0.0428,0.0089
31,0.0118,0.0259,0.0269,0.0049
32,0.0133,0.0179,0.0386,0.0044
33,0.0127,0.0195,0.0383,0.0040
34,0.0162,0.0183,0.0413,0.0059
35,0.0112,0.0456,0.0487,0.0053
36,0.0111,0.0544,0.0766,0.0381
37,0.0088,0.0379,0.0464,0.0035
38,0.0130,0.0315,0.0444,0.0061
39,0.0078,0.0322,0.0318,0.0031
40,0.0077,0.0271,0.0268,0.0032
41,0.0104,0.0296,0.0364,0.0072
42,0.0072,0.0242,0.0254,0.0036
43,0.0076,0.0293,0.0346,0.0073
44,0.0121,0.0255,0.0279,0.0052
45,0.0071,0.0278,0.0294,0.0050
46,0.0108,0.0295,0.0497,0.0109
47,0.0111,0.0544,0.0766,0.0381
48,0.0118,0.0285,0.0275,0.0052
49,0.0077,0.0285,0.0373,0.0086
50,0.0086,0.0303,0.0351,0.0190
51,0.0114,0.0263,0.0287,0.0093
52,0.0107,0.0357,0.0296,0.0177
53,0.0107,0.0357,0.0296,0.0177
54,0.0107,0.0357,0.0296,0.0177
55,0.0107,0.0357,0.0296,0.0177
56,0.0107,0.0357,0.0296,0.0177
57,0.0107,0.0357,0.0296,0.0177
58,0.0087,0.0318,0.0486,0.0046
59,0.0060,0.0318,0.0395,0.0058
60,0.0060,0.0318,0.0395,0.0058
61,0.0117,0.0307,0.0439,0.0063
62,0.0059,0.0332,0.0396,0.0061
63,0.0107,0.0450,0.0631,0.0111
64,0.0103,0.0291,0.0393,0.0056
65,0.0065,0.0376,0.0551,0.0069
66,0.0065,0.0423,0.0641,0.0072
67,0.0106,0.0330,0.0489,0.0058
68,0.0109,0.0631,0.0936,0.0107
69,0.0087,0.0318,0.0486,0.0046
70,0.0062,0.0532,0.0810,0.0074
71,0.0107,0.0458,0.0736,0.0065
72,0.0069,0.0603,0.0920,0.0077
73,0.0072,0.0646,0.0989,0.0087
74,0.0105,0.0490,0.0703,0.0114
75,0.0075,0.0420,0.0415,0.0520
76,0.0058,0.0405,0.0470,0.0469
77,0.0101,0.0389,0.0418,0.0490
78,0.0068,0.0356,0.0489,0.0344
79,0.0117,0.0458,0.0608,0.0234
80,0.0087,0.0318,0.0486,0.0046
81,0.0102,0.0281,0.0367,0.0290
82,0.0060,0.0374,0.0380,0.0177
83,0.0059,0.0366,0.0378,0.0133
84,0.0112,0.0288,0.0415,0.0148
85,0.0107,0.0390,0.0519,0.0069
86,0.0065,0.0376,0.0551,0.0069
87,0.0119,0.0310,0.0448,0.0056
88,0.0060,0.0308,0.0394,0.0161
89,0.0060,0.0312,0.0407,0.0223
90,0.0104,0.0522,0.0623,0.0347
91,0.0086,0.0327,0.0502,0.0048
92,0.0062,0.0327,0.0426,0.0356
93,0.0065,0.0365,0.0463,0.0423
94,0.0106,0.0324,0.0417,0.0439
95,0.0064,0.0498,0.0542,0.0568
96,0.0173,0.0666,0.0683,0.0740
97,0.0116,0.0395,0.0459,0.0662
98,0.0065,0.0423,0.0641,0.0072
99,0.0060,0.0318,0.0395,0.0058
100,0.0117,0.0307,0.0439,0.0063
101,0.0107,0.0392,0.0533,0.0109
102,0.0111,0.0527,0.0723,0.0074
103,0.0060,0.0318,0.0395,0.0058
104,0.0117,0.0307,0.0439,0.0063
105,0.0060,0.0318,0.0395,0.0058
106,0.0060,0.0318,0.0395,0.0058
107,0.0107,0.0392,0.0533,0.0109
108,0.0060,0.0318,0.0395,0.0058
109,0.0060,0.0318,0.0395,0.0058
110,0.0106,0.0330,0.0489,0.0058
111,0.0060,0.0318,0.0395,0.0058
112,0.0107,0.0392,0.0533,0.0109
113,0.0092,0.0706,0.1078,0.0079
114,0.0089,0.0362,0.0567,0.0048
115,0.0117,0.0307,0.0439,0.0063
116,0.0060,0.0318,0.0395,0.0058
117,0.0060,0.0318,0.0395,0.0058
118,0.0117,0.0307,0.0439,0.0063
119,0.0107,0.0392,0.0533,0.0109
120,0.0060,0.0318,0.0395,0.0058
121,0.0117,0.0307,0.0439,0.0063
122,0.0060,0.0318,0.0395,0.0058
123,0.0061,0.0499,0.0760,0.0075
124,0.0107,0.0392,0.0533,0.0109
125,0.0091,0.0446,0.0683,0.0046
126,0.0060,0.0318,0.0395,0.0058
127,0.0060,0.0318,0.0395,0.0058
128,0.0117,0.0307,0.0439,0.0063
129,0.0060,0.0318,0.0395,0.0058
130,0.0107,0.0392,0.0533,0.0109
131,0.0117,0.0307,0.0439,0.0063
132,0.0060,0.0318,0.0395,0.0058
133,0.0060,0.0318,0.0395,0.0058
134,0.0117,0.0307,0.0439,0.0063
135,0.0111,0.0675,0.1010,0.0101
136,0.0092,0.0509,0.0766,0.0048
137,0.0060,0.0318,0.0395,0.0058
138,0.0117,0.0307,0.0439,0.0063
139,0.0060,0.0318,0.0395,0.0058
140,0.0060,0.0318,0.0395,0.0058
141,0.0107,0.0392,0.0533,0.0109
142,0.0092,0.0206,0.0378,0.0093
143,0.0078,0.0257,0.0395,0.0080
144,0.0125,0.0243,0.0378,0.0061
145,0.0104,0.0348,0.0468,0.0061
146,0.0109,0.0631,0.0936,0.0107
147,0.0090,0.0540,0.0816,0.0052
148,0.0107,0.0458,0.0736,0.0065
149,0.0111,0.0366,0.0484,0.0055
150,0.0105,0.0351,0.0473,0.0052
151,0.0139,0.0426,0.0518,0.0077
152,0.0106,0.0359,0.0434,0.0103
153,0.0067,0.0298,0.0407,0.0054
154,0.0108,0.0280,0.0410,0.0058
155,0.0062,0.0337,0.0438,0.0066
156,0.0065,0.0376,0.0551,0.0069
157,0.0104,0.0561,0.0819,0.0115
158,0.0113,0.0660,0.0959,0.0088
159,0.0063,0.0465,0.0713,0.0073
160,0.0069,0.0603,0.0920,0.0077
161,0.0108,0.0382,0.0608,0.0060
162,0.0062,0.0532,0.0810,0.0074
163,0.0112,0.0732,0.1090,0.0097
164,0.0107,0.0490,0.0770,0.0069
165,0.0072,0.0646,0.0989,0.0087
166,0.0075,0.0420,0.0415,0.0520
167,0.0102,0.0500,0.0447,0.0574
168,0.0108,0.0495,0.0572,0.0343
169,0.0090,0.0569,0.0884,0.0065
170,0.0108,0.0495,0.0572,0.0343
171,0.0108,0.0495,0.0572,0.0343
172,0.0108,0.0495,0.0572,0.0343
173,0.0108,0.0495,0.0572,0.0343
174,0.0108,0.0495,0.0572,0.0343
175,0.0060,0.0323,0.0328,0.0061
176,0.0060,0.0323,0.0328,0.0061
177,0.0120,0.0244,0.0342,0.0056
178,0.0060,0.0343,0.0331,0.0065
179,0.0107,0.0382,0.0524,0.0097
180,0.0093,0.0585,0.0916,0.0076
181,0.0104,0.0288,0.0319,0.0055
182,0.0066,0.0326,0.0450,0.0066
183,0.0066,0.0357,0.0527,0.0066
184,0.0107,0.0305,0.0409,0.0059
185,0.0110,0.0542,0.0804,0.0092
186,0.0062,0.0454,0.0678,0.0065
187,0.0107,0.0387,0.0612,0.0061
188,0.0070,0.0518,0.0779,0.0070
189,0.0073,0.0552,0.0837,0.0083
190,0.0105,0.0412,0.0585,0.0099
191,0.0097,0.0615,0.0955,0.0091
192,0.0074,0.0394,0.0371,0.0399
193,0.0059,0.0345,0.0392,0.0364
194,0.0102,0.0338,0.0366,0.0384
195,0.0070,0.0310,0.0418,0.0270
196,0.0117,0.0422,0.0517,0.0191
197,0.0103,0.0266,0.0309,0.0215
198,0.0062,0.0391,0.0326,0.0139
199,0.0060,0.0396,0.0324,0.0107
200,0.0114,0.0234,0.0328,0.0113
201,0.0108,0.0361,0.0439,0.0068
202,0.0103,0.0657,0.0996,0.0111
203,0.0066,0.0326,0.0450,0.0066
204,0.0120,0.0241,0.0341,0.0057
205,0.0061,0.0309,0.0326,0.0141
206,0.0060,0.0310,0.0331,0.0192
207,0.0104,0.0423,0.0504,0.0286
208,0.0064,0.0289,0.0340,0.0294
209,0.0066,0.0301,0.0364,0.0346
210,0.0107,0.0339,0.0359,0.0361
211,0.0062,0.0386,0.0426,0.0460
212,0.0175,0.0630,0.0659,0.0617
213,0.0110,0.0566,0.0783,0.0078
214,0.0116,0.0324,0.0378,0.0528
215,0.0066,0.0357,0.0527,0.0066
216,0.0060,0.0323,0.0328,0.0061
217,0.0120,0.0244,0.0342,0.0056
218,0.0108,0.0354,0.0449,0.0095
219,0.0060,0.0323,0.0328,0.0061
220,0.0120,0.0244,0.0342,0.0056
221,0.0060,0.0323,0.0328,0.0061
222,0.0060,0.0323,0.0328,0.0061
223,0.0108,0.0354,0.0449,0.0095
224,0.0097,0.0737,0.1123,0.0093
225,0.0101,0.0454,0.0482,0.0435
226,0.0060,0.0323,0.0328,0.0061
227,0.0060,0.0323,0.0328,0.0061
228,0.0107,0.0305,0.0409,0.0059
229,0.0060,0.0323,0.0328,0.0061
230,0.0108,0.0354,0.0449,0.0095
231,0.0120,0.0244,0.0342,0.0056
232,0.0060,0.0323,0.0328,0.0061
233,0.0060,0.0323,0.0328,0.0061
234,0.0120,0.0244,0.0342,0.0056
235,0.0108,0.0354,0.0449,0.0095
236,0.0085,0.0514,0.0604,0.0411
237,0.0060,0.0323,0.0328,0.0061
238,0.0120,0.0244,0.0342,0.0056
239,0.0060,0.0323,0.0328,0.0061
240,0.0060,0.0422,0.0635,0.0066
241,0.0108,0.0354,0.0449,0.0095
242,0.0060,0.0323,0.0328,0.0061
243,0.0060,0.0323,0.0328,0.0061
244,0.0120,0.0244,0.0342,0.0056
245,0.0060,0.0323,0.0328,0.0061
246,0.0108,0.0354,0.0449,0.0095
247,0.0086,0.0508,0.0658,0.0365
248,0.0120,0.0244,0.0342,0.0056
249,0.0060,0.0323,0.0328,0.0061
250,0.0060,0.0323,0.0328,0.0061
251,0.0120,0.0244,0.0342,0.0056
252,0.0112,0.0578,0.0866,0.0089
253,0.0060,0.0323,0.0328,0.0061
254,0.0120,0.0244,0.0342,0.0056
255,0.0060,0.0323,0.0328,0.0061
256,0.0060,0.0323,0.0328,0.0061
257,0.0108,0.0354,0.0449,0.0095
258,0.0090,0.0447,0.0646,0.0306
259,0.0088,0.0192,0.0307,0.0099
260,0.0078,0.0205,0.0296,0.0085
261,0.0122,0.0206,0.0320,0.0065
262,0.0107,0.0272,0.0352,0.0062
263,0.0110,0.0542,0.0804,0.0092
264,0.0107,0.0387,0.0612,0.0061
265,0.0115,0.0281,0.0364,0.0054
266,0.0108,0.0267,0.0354,0.0052
267,0.0141,0.0345,0.0406,0.0066
268,0.0106,0.0370,0.0375,0.0098
269,0.0119,0.0462,0.0712,0.0214
270,0.0069,0.0275,0.0325,0.0056
271,0.0110,0.0241,0.0321,0.0053
272,0.0063,0.0320,0.0355,0.0067
273,0.0066,0.0326,0.0450,0.0066
274,0.0104,0.0476,0.0692,0.0099
275,0.0062,0.0387,0.0584,0.0068
276,0.0070,0.0518,0.0779,0.0070
277,0.0109,0.0327,0.0502,0.0059
278,0.0062,0.0454,0.0678,0.0065
279,0.0113,0.0626,0.0938,0.0091
280,0.0087,0.0326,0.0522,0.0185
281,0.0106,0.0423,0.0643,0.0063
282,0.0073,0.0552,0.0837,0.0083
283,0.0074,0.0394,0.0371,0.0399
284,0.0102,0.0416,0.0377,0.0449
285,0.0109,0.0464,0.0487,0.0274
286,0.0109,0.0464,0.0487,0.0274
287,0.0109,0.0464,0.0487,0.0274
288,0.0109,0.0464,0.0487,0.0274
289,0.0109,0.0464,0.0487,0.0274
290,0.0109,0.0464,0.0487,0.0274
291,0.0086,0.0313,0.0496,0.0143
292,0.0063,0.0408,0.0382,0.0060
293,0.0063,0.0408,0.0382,0.0060
294,0.0123,0.0197,0.0281,0.0052
295,0.0062,0.0399,0.0342,0.0059
296,0.0107,0.0290,0.0353,0.0064
297,0.0106,0.0360,0.0347,0.0063
298,0.0067,0.0266,0.0283,0.0051
299,0.0065,0.0260,0.0319,0.0050
300,0.0108,0.0277,0.0265,0.0059
301,0.0112,0.0403,0.0548,0.0074
302,0.0085,0.0313,0.0473,0.0106
303,0.0063,0.0344,0.0418,0.0049
304,0.0106,0.0292,0.0362,0.0052
305,0.0073,0.0392,0.0489,0.0063
306,0.0076,0.0409,0.0527,0.0079
307,0.0105,0.0300,0.0393,0.0065
308,0.0074,0.0392,0.0353,0.0219
309,0.0058,0.0256,0.0272,0.0199
310,0.0102,0.0215,0.0257,0.0187
311,0.0069,0.0235,0.0272,0.0157
312,0.0116,0.0366,0.0356,0.0143
313,0.0086,0.0308,0.0474,0.0076
314,0.0104,0.0293,0.0287,0.0118
315,0.0064,0.0438,0.0311,0.0122
316,0.0063,0.0464,0.0350,0.0108
317,0.0117,0.0211,0.0271,0.0079
318,0.0110,0.0333,0.0334,0.0054
319,0.0067,0.0266,0.0283,0.0051
320,0.0124,0.0211,0.0295,0.0054
321,0.0063,0.0395,0.0388,0.0102
322,0.0062,0.0387,0.0384,0.0135
323,0.0104,0.0279,0.0341,0.0196
324,0.0112,0.0431,0.0615,0.0052
325,0.0065,0.0310,0.0325,0.0197
326,0.0067,0.0260,0.0296,0.0223
327,0.0107,0.0468,0.0445,0.0221
328,0.0060,0.0255,0.0314,0.0281
329,0.0181,0.0690,0.0733,0.0414
330,0.0113,0.0279,0.0338,0.0284
331,0.0065,0.0260,0.0319,0.0050
332,0.0063,0.0408,0.0382,0.0060
333,0.0123,0.0197,0.0281,0.0052
334,0.0109,0.0309,0.0331,0.0065
335,0.0103,0.0788,0.1177,0.0113
336,0.0091,0.0446,0.0683,0.0046
337,0.0063,0.0408,0.0382,0.0060
338,0.0123,0.0197,0.0281,0.0052
339,0.0063,0.0408,0.0382,0.0060
340,0.0063,0.0408,0.0382,0.0060
341,0.0109,0.0309,0.0331,0.0065
342,0.0063,0.0408,0.0382,0.0060
343,0.0063,0.0408,0.0382,0.0060
344,0.0108,0.0277,0.0265,0.0059
345,0.0063,0.0408,0.0382,0.0060
346,0.0109,0.0309,0.0331,0.0065
347,0.0087,0.0323,0.0486,0.0069
348,0.0123,0.0197,0.0281,0.0052
349,0.0063,0.0408,0.0382,0.0060
350,0.0063,0.0408,0.0382,0.0060
351,0.0123,0.0197,0.0281,0.0052
352,0.0109,0.0309,0.0331,0.0065
353,0.0063,0.0408,0.0382,0.0060
354,0.0123,0.0197,0.0281,0.0052
355,0.0063,0.0408,0.0382,0.0060
356,0.0060,0.0311,0.0390,0.0048
357,0.0109,0.0309,0.0331,0.0065
358,0.0087,0.0326,0.0486,0.0106
359,0.0063,0.0408,0.0382,0.0060
360,0.0063,0.0408,0.0382,0.0060
361,0.0123,0.0197,0.0281,0.0052
362,0.0063,0.0408,0.0382,0.0060
363,0.0109,0.0309,0.0331,0.0065
364,0.0123,0.0197,0.0281,0.0052
365,0.0063,0.0408,0.0382,0.0060
366,0.0063,0.0408,0.0382,0.0060
367,0.0123,0.0197,0.0281,0.0052
368,0.0115,0.0421,0.0594,0.0081
369,0.0086,0.0333,0.0489,0.0150
370,0.0063,0.0408,0.0382,0.0060
371,0.0123,0.0197,0.0281,0.0052
372,0.0063,0.0408,0.0382,0.0060
373,0.0063,0.0408,0.0382,0.0060
374,0.0109,0.0309,0.0331,0.0065
375,0.0083,0.0303,0.0435,0.0108
376,0.0080,0.0243,0.0362,0.0089
377,0.0116,0.0269,0.0456,0.0088
378,0.0111,0.0184,0.0283,0.0060
379,0.0112,0.0403,0.0548,0.0074
380,0.0108,0.0603,0.0692,0.0239
381,0.0106,0.0292,0.0362,0.0052
382,0.0119,0.0171,0.0262,0.0050
383,0.0112,0.0173,0.0265,0.0048
384,0.0145,0.0215,0.0287,0.0053
385,0.0107,0.0444,0.0426,0.0075
386,0.0073,0.0327,0.0348,0.0054
387,0.0113,0.0265,0.0309,0.0056
388,0.0065,0.0323,0.0276,0.0055
389,0.0067,0.0266,0.0283,0.0051
390,0.0104,0.0356,0.0465,0.0069
391,0.0088,0.0378,0.0524,0.0240
392,0.0061,0.0275,0.0358,0.0048
393,0.0073,0.0392,0.0489,0.0063
394,0.0108,0.0256,0.0302,0.0056
395,0.0063,0.0344,0.0418,0.0049
396,0.0115,0.0438,0.0637,0.0092
397,0.0106,0.0335,0.0384,0.0052
398,0.0076,0.0409,0.0527,0.0079
399,0.0074,0.0392,0.0353,0.0219
400,0.0102,0.0265,0.0264,0.0222
401,0.0108,0.0418,0.0348,0.0186
402,0.0090,0.0437,0.0565,0.0287
403,0.0108,0.0418,0.0348,0.0186
404,0.0108,0.0418,0.0348,0.0186
405,0.0108,0.0418,0.0348,0.0186
406,0.0108,0.0418,0.0348,0.0186
407,0.0108,0.0418,0.0348,0.0186
408,0.0064,0.0491,0.0500,0.0051
409,0.0064,0.0491,0.0500,0.0051
410,0.0123,0.0266,0.0377,0.0055
411,0.0063,0.0466,0.0434,0.0049
412,0.0107,0.0318,0.0325,0.0053
413,0.0090,0.0521,0.0611,0.0339
414,0.0106,0.0450,0.0463,0.0070
415,0.0066,0.0317,0.0265,0.0042
416,0.0064,0.0292,0.0249,0.0042
417,0.0108,0.0333,0.0260,0.0060
418,0.0113,0.0414,0.0455,0.0076
419,0.0064,0.0378,0.0312,0.0045
420,0.0106,0.0333,0.0240,0.0051
421,0.0074,0.0425,0.0369,0.0062
422,0.0076,0.0430,0.0397,0.0077
423,0.0104,0.0312,0.0331,0.0055
424,0.0087,0.0567,0.0615,0.0400
425,0.0077,0.0439,0.0403,0.0203
426,0.0057,0.0263,0.0255,0.0164
427,0.0101,0.0165,0.0236,0.0101
428,0.0068,0.0261,0.0225,0.0149
429,0.0115,0.0401,0.0304,0.0153
430,0.0104,0.0367,0.0364,0.0145
431,0.0065,0.0487,0.0376,0.0150
432,0.0064,0.0512,0.0425,0.0132
433,0.0116,0.0291,0.0362,0.0100
434,0.0109,0.0379,0.0350,0.0043
435,0.0164,0.0501,0.0513,0.0555
436,0.0066,0.0317,0.0265,0.0042
437,0.0124,0.0281,0.0397,0.0050
438,0.0064,0.0470,0.0504,0.0091
439,0.0064,0.0460,0.0495,0.0129
440,0.0103,0.0292,0.0352,0.0199
441,0.0066,0.0386,0.0424,0.0196
442,0.0066,0.0325,0.0373,0.0221
443,0.0107,0.0599,0.0606,0.0187
444,0.0058,0.0309,0.0387,0.0256
445,0.0188,0.0816,0.0860,0.0369
446,0.0110,0.0670,0.0916,0.0093
447,0.0089,0.0562,0.0541,0.0538
448,0.0111,0.0374,0.0443,0.0208
449,0.0064,0.0292,0.0249,0.0042
450,0.0064,0.0491,0.0500,0.0051
451,0.0123,0.0266,0.0377,0.0055
452,0.0109,0.0349,0.0347,0.0053
453,0.0064,0.0491,0.0500,0.0051
454,0.0123,0.0266,0.0377,0.0055
455,0.0064,0.0491,0.0500,0.0051
456,0.0064,0.0491,0.0500,0.0051
457,0.0109,0.0349,0.0347,0.0053
458,0.0092,0.0509,0.0766,0.0048
459,0.0064,0.0491,0.0500,0.0051
460,0.0064,0.0491,0.0500,0.0051
461,0.0108,0.0333,0.0260,0.0060
462,0.0064,0.0491,0.0500,0.0051
463,0.0109,0.0349,0.0347,0.0053
464,0.0123,0.0266,0.0377,0.0055
465,0.0064,0.0491,0.0500,0.0051
466,0.0064,0.0491,0.0500,0.0051
467,0.0123,0.0266,0.0377,0.0055
468,0.0109,0.0349,0.0347,0.0053
469,0.0087,0.0318,0.0486,0.0046
470,0.0064,0.0491,0.0500,0.0051
471,0.0123,0.0266,0.0377,0.0055
472,0.0064,0.0491,0.0500,0.0051
473,0.0060,0.0337,0.0286,0.0042
474,0.0109,0.0349,0.0347,0.0053
475,0.0064,0.0491,0.0500,0.0051
476,0.0064,0.0491,0.0500,0.0051
477,0.0123,0.0266,0.0377,0.0055
478,0.0064,0.0491,0.0500,0.0051
479,0.0109,0.0349,0.0347,0.0053
480,0.0087,0.0318,0.0486,0.0046
481,0.0123,0.0266,0.0377,0.0055
482,0.0064,0.0491,0.0500,0.0051
483,0.0064,0.0491,0.0500,0.0051
484,0.0123,0.0266,0.0377,0.0055
485,0.0116,0.0422,0.0490,0.0086
486,0.0064,0.0491,0.0500,0.0051
487,0.0123,0.0266,0.0377,0.0055
488,0.0064,0.0491,0.0500,0.0051
489,0.0064,0.0491,0.0500,0.0051
490,0.0109,0.0349,0.0347,0.0053
491,0.0111,0.0461,0.0631,0.0073
492,0.0081,0.0427,0.0641,0.0109
493,0.0081,0.0343,0.0546,0.0087
494,0.0114,0.0378,0.0658,0.0108
495,0.0112,0.0219,0.0403,0.0056
496,0.0113,0.0414,0.0455,0.0076
497,0.0106,0.0333,0.0240,0.0051
498,0.0120,0.0189,0.0352,0.0047
499,0.0114,0.0210,0.0357,0.0045
500,0.0145,0.0182,0.0342,0.0052
501,0.0108,0.0498,0.0516,0.0058
502,0.0087,0.0318,0.0486,0.0046
503,0.0074,0.0417,0.0472,0.0047
504,0.0113,0.0356,0.0423,0.0062
505,0.0066,0.0365,0.0316,0.0044
506,0.0066,0.0317,0.0265,0.0042
507,0.0105,0.0369,0.0388,0.0062
508,0.0061,0.0299,0.0260,0.0041
509,0.0074,0.0425,0.0369,0.0062
510,0.0108,0.0305,0.0235,0.0057
511,0.0064,0.0378,0.0312,0.0045
512,0.0115,0.0420,0.0524,0.0098
513,0.0087,0.0318,0.0486,0.0046
514,0.0106,0.0379,0.0257,0.0049
515,0.0076,0.0430,0.0397,0.0077
516,0.0077,0.0439,0.0403,0.0203
517,0.0101,0.0180,0.0244,0.0102
518,0.0107,0.0448,0.0317,0.0187
519,0.0107,0.0448,0.0317,0.0187
520,0.0107,0.0448,0.0317,0.0187
521,0.0107,0.0448,0.0317,0.0187
522,0.0107,0.0448,0.0317,0.0187
523,0.0107,0.0448,0.0317,0.0187
524,0.0087,0.0318,0.0486,0.0046
525,0.0064,0.0537,0.0563,0.0048
526,0.0064,0.0537,0.0563,0.0048
527,0.0123,0.0315,0.0440,0.0059
528,0.0063,0.0499,0.0483,0.0045
529,0.0107,0.0360,0.0360,0.0054
530,0.0106,0.0498,0.0526,0.0073
531,0.0066,0.0359,0.0308,0.0040
532,0.0064,0.0338,0.0283,0.0040
533,0.0108,0.0373,0.0303,0.0061
534,0.0114,0.0466,0.0479,0.0079
535,0.0087,0.0318,0.0486,0.0046
536,0.0064,0.0426,0.0339,0.0045
537,0.0106,0.0388,0.0266,0.0052
538,0.0074,0.0477,0.0396,0.0062
539,0.0076,0.0486,0.0424,0.0075
540,0.0104,0.0355,0.0359,0.0056
541,0.0078,0.0479,0.0446,0.0237
542,0.0057,0.0308,0.0292,0.0191
543,0.0101,0.0188,0.0268,0.0127
544,0.0067,0.0298,0.0252,0.0174
545,0.0115,0.0432,0.0325,0.0169
546,0.0111,0.0461,0.0631,0.0073
547,0.0104,0.0406,0.0412,0.0176
548,0.0065,0.0517,0.0422,0.0168
549,0.0064,0.0543,0.0473,0.0145
550,0.0116,0.0338,0.0419,0.0116
551,0.0109,0.0416,0.0391,0.0040
552,0.0066,0.0359,0.0308,0.0040
553,0.0124,0.0326,0.0459,0.0050
554,0.0064,0.0511,0.0563,0.0097
555,0.0064,0.0504,0.0556,0.0141
556,0.0103,0.0338,0.0399,0.0220
557,0.0101,0.0537,0.0561,0.0557
558,0.0087,0.0318,0.0486,0.0046
559,0.0066,0.0426,0.0477,0.0218
560,0.0066,0.0367,0.0424,0.0248
561,0.0107,0.0644,0.0669,0.0207
562,0.0058,0.0363,0.0445,0.0287
563,0.0191,0.0887,0.0929,0.0392
564,0.0109,0.0439,0.0510,0.0238
565,0.0064,0.0338,0.0283,0.0040
566,0.0064,0.0537,0.0563,0.0048
567,0.0123,0.0315,0.0440,0.0059
568,0.0109,0.0387,0.0388,0.0054
569,0.0087,0.0318,0.0486,0.0046
570,0.0064,0.0537,0.0563,0.0048
571,0.0123,0.0315,0.0440,0.0059
572,0.0064,0.0537,0.0563,0.0048
573,0.0064,0.0537,0.0563,0.0048
574,0.0109,0.0387,0.0388,0.0054
575,0.0064,0.0537,0.0563,0.0048
576,0.0064,0.0537,0.0563,0.0048
577,0.0108,0.0373,0.0303,0.0061
578,0.0064,0.0537,0.0563,0.0048
579,0.0109,0.0387,0.0388,0.0054
580,0.0090,0.0540,0.0816,0.0052
581,0.0123,0.0315,0.0440,0.0059
582,0.0064,0.0537,0.0563,0.0048
583,0.0064,0.0537,0.0563,0.0048
584,0.0123,0.0315,0.0440,0.0059
585,0.0109,0.0387,0.0388,0.0054
586,0.0064,0.0537,0.0563,0.0048
587,0.0123,0.0315,0.0440,0.0059
588,0.0064,0.0537,0.0563,0.0048
589,0.0060,0.0388,0.0312,0.0041
590,0.0109,0.0387,0.0388,0.0054
591,0.0087,0.0318,0.0486,0.0046
592,0.0064,0.0537,0.0563,0.0048
593,0.0064,0.0537,0.0563,0.0048
594,0.0123,0.0315,0.0440,0.0059
595,0.0064,0.0537,0.0563,0.0048
596,0.0109,0.0387,0.0388,0.0054
597,0.0123,0.0315,0.0440,0.0059
598,0.0064,0.0537,0.0563,0.0048
599,0.0064,0.0537,0.0563,0.0048
600,0.0123,0.0315,0.0440,0.0059
601,0.0115,0.0467,0.0511,0.0090
602,0.0111,0.0461,0.0631,0.0073
603,0.0064,0.0537,0.0563,0.0048
604,0.0123,0.0315,0.0440,0.0059
605,0.0064,0.0537,0.0563,0.0048
606,0.0064,0.0537,0.0563,0.0048
607,0.0109,0.0387,0.0388,0.0054
608,0.0081,0.0475,0.0728,0.0108
609,0.0082,0.0385,0.0625,0.0084
610,0.0114,0.0425,0.0745,0.0115
611,0.0113,0.0253,0.0470,0.0054
612,0.0114,0.0466,0.0479,0.0079
613,0.0087,0.0318,0.0486,0.0046
614,0.0106,0.0388,0.0266,0.0052
615,0.0120,0.0224,0.0413,0.0046
616,0.0114,0.0243,0.0412,0.0044
617,0.0145,0.0202,0.0396,0.0053
618,0.0109,0.0535,0.0568,0.0057
619,0.0074,0.0459,0.0531,0.0044
620,0.0113,0.0394,0.0475,0.0065
621,0.0066,0.0399,0.0361,0.0041
622,0.0066,0.0359,0.0308,0.0040
623,0.0105,0.0418,0.0414,0.0064
624,0.0087,0.0318,0.0486,0.0046
625,0.0061,0.0353,0.0289,0.0040
626,0.0074,0.0477,0.0396,0.0062
627,0.0108,0.0354,0.0271,0.0059
628,0.0064,0.0426,0.0339,0.0045
629,0.0115,0.0467,0.0547,0.0100
630,0.0106,0.0434,0.0284,0.0049
631,0.0076,0.0486,0.0424,0.0075
632,0.0078,0.0479,0.0446,0.0237
633,0.0101,0.0183,0.0275,0.0119
634,0.0106,0.0487,0.0345,0.0209
635,0.0087,0.0318,0.0486,0.0046
636,0.0106,0.0487,0.0345,0.0209
637,0.0106,0.0487,0.0345,0.0209
638,0.0106,0.0487,0.0345,0.0209
639,0.0106,0.0487,0.0345,0.0209
640,0.0106,0.0487,0.0345,0.0209
641,0.0058,0.0342,0.0405,0.0064
642,0.0058,0.0342,0.0405,0.0064
643,0.0107,0.0302,0.0437,0.0066
644,0.0060,0.0358,0.0409,0.0069
645,0.0106,0.0479,0.0673,0.0109
646,0.0087,0.0318,0.0486,0.0046
647,0.0100,0.0315,0.0398,0.0058
648,0.0063,0.0398,0.0594,0.0071
649,0.0064,0.0449,0.0689,0.0073
650,0.0104,0.0348,0.0533,0.0061
651,0.0112,0.0611,0.0917,0.0111
652,0.0062,0.0531,0.0834,0.0075
653,0.0107,0.0472,0.0793,0.0067
654,0.0072,0.0588,0.0904,0.0078
655,0.0076,0.0616,0.0951,0.0084
656,0.0105,0.0516,0.0742,0.0113
657,0.0111,0.0461,0.0631,0.0073
658,0.0079,0.0452,0.0405,0.0515
659,0.0058,0.0406,0.0466,0.0466
660,0.0100,0.0327,0.0391,0.0486
661,0.0062,0.0378,0.0494,0.0342
662,0.0115,0.0481,0.0647,0.0235
663,0.0100,0.0345,0.0355,0.0284
664,0.0057,0.0446,0.0389,0.0171
665,0.0057,0.0426,0.0386,0.0129
666,0.0102,0.0285,0.0401,0.0145
667,0.0107,0.0416,0.0552,0.0075
668,0.0085,0.0600,0.0693,0.0517
669,0.0087,0.0318,0.0486,0.0046
670,0.0063,0.0398,0.0594,0.0071
671,0.0109,0.0317,0.0452,0.0060
672,0.0060,0.0329,0.0406,0.0162
673,0.0060,0.0331,0.0419,0.0221
674,0.0104,0.0571,0.0660,0.0336
675,0.0062,0.0361,0.0449,0.0349
676,0.0065,0.0415,0.0498,0.0412
677,0.0105,0.0311,0.0418,0.0431
678,0.0063,0.0568,0.0583,0.0553
679,0.0179,0.0626,0.0647,0.0738
680,0.0087,0.0318,0.0486,0.0046
681,0.0119,0.0477,0.0507,0.0643
682,0.0064,0.0449,0.0689,0.0073
683,0.0058,0.0342,0.0405,0.0064
684,0.0107,0.0302,0.0437,0.0066
685,0.0107,0.0420,0.0567,0.0110
686,0.0058,0.0342,0.0405,0.0064
687,0.0107,0.0302,0.0437,0.0066
688,0.0058,0.0342,0.0405,0.0064
689,0.0058,0.0342,0.0405,0.0064
690,0.0107,0.0420,0.0567,0.0110
691,0.0087,0.0318,0.0486,0.0046
692,0.0058,0.0342,0.0405,0.0064
693,0.0058,0.0342,0.0405,0.0064
694,0.0104,0.0348,0.0533,0.0061
695,0.0058,0.0342,0.0405,0.0064
696,0.0107,0.0420,0.0567,0.0110
697,0.0107,0.0302,0.0437,0.0066
698,0.0058,0.0342,0.0405,0.0064
699,0.0058,0.0342,0.0405,0.0064
700,0.0107,0.0302,0.0437,0.0066
701,0.0107,0.0420,0.0567,0.0110
702,0.0089,0.0558,0.0854,0.0057
703,0.0058,0.0342,0.0405,0.0064
704,0.0107,0.0302,0.0437,0.0066
705,0.0058,0.0342,0.0405,0.0064
706,0.0060,0.0507,0.0798,0.0075
707,0.0107,0.0420,0.0567,0.0110
708,0.0058,0.0342,0.0405,0.0064
709,0.0058,0.0342,0.0405,0.0064
710,0.0107,0.0302,0.0437,0.0066
711,0.0058,0.0342,0.0405,0.0064
712,0.0107,0.0420,0.0567,0.0110
713,0.0111,0.0461,0.0631,0.0073
714,0.0107,0.0302,0.0437,0.0066
715,0.0058,0.0342,0.0405,0.0064
716,0.0058,0.0342,0.0405,0.0064
717,0.0107,0.0302,0.0437,0.0066
718,0.0116,0.0641,0.0969,0.0106
719,0.0058,0.0342,0.0405,0.0064
720,0.0107,0.0302,0.0437,0.0066
721,0.0058,0.0342,0.0405,0.0064
722,0.0058,0.0342,0.0405,0.0064
723,0.0107,0.0420,0.0567,0.0110
724,0.0087,0.0318,0.0486,0.0046
725,0.0100,0.0241,0.0332,0.0095
726,0.0078,0.0270,0.0364,0.0083
727,0.0135,0.0240,0.0335,0.0065
728,0.0089,0.0340,0.0455,0.0065
729,0.0112,0.0611,0.0917,0.0111
730,0.0107,0.0472,0.0793,0.0067
731,0.0094,0.0362,0.0486,0.0058
732,0.0088,0.0351,0.0475,0.0057
733,0.0122,0.0388,0.0503,0.0084
734,0.0107,0.0387,0.0449,0.0108
735,0.0087,0.0318,0.0486,0.0046
736,0.0061,0.0324,0.0415,0.0060
737,0.0102,0.0293,0.0408,0.0060
738,0.0061,0.0357,0.0464,0.0072
739,0.0063,0.0398,0.0594,0.0071
740,0.0104,0.0565,0.0833,0.0115
741,0.0062,0.0485,0.0758,0.0074
742,0.0072,0.0588,0.0904,0.0078
743,0.0107,0.0399,0.0660,0.0063
744,0.0062,0.0531,0.0834,0.0075
745,0.0119,0.0676,0.1031,0.0101
746,0.0087,0.0318,0.0486,0.0046
747,0.0106,0.0490,0.0813,0.0070
748,0.0076,0.0616,0.0951,0.0084
749,0.0079,0.0452,0.0405,0.0515
750,0.0103,0.0393,0.0413,0.0570
751,0.0108,0.0523,0.0602,0.0344
752,0.0108,0.0523,0.0602,0.0344
753,0.0108,0.0523,0.0602,0.0344
754,0.0108,0.0523,0.0602,0.0344
755,0.0108,0.0523,0.0602,0.0344
756,0.0108,0.0523,0.0602,0.0344
757,0.0087,0.0318,0.0486,0.0046
758,0.0057,0.0336,0.0335,0.0064
759,0.0057,0.0336,0.0335,0.0064
760,0.0108,0.0257,0.0352,0.0059
761,0.0058,0.0352,0.0343,0.0068
762,0.0106,0.0406,0.0572,0.0091
763,0.0100,0.0309,0.0325,0.0057
764,0.0063,0.0338,0.0499,0.0064
765,0.0064,0.0378,0.0584,0.0064
766,0.0105,0.0308,0.0457,0.0060
767,0.0113,0.0528,0.0794,0.0093
768,0.0111,0.0461,0.0631,0.0073
769,0.0063,0.0447,0.0705,0.0065
770,0.0106,0.0390,0.0671,0.0061
771,0.0073,0.0503,0.0772,0.0068
772,0.0078,0.0527,0.0808,0.0077
773,0.0105,0.0433,0.0629,0.0094
774,0.0078,0.0450,0.0366,0.0395
775,0.0058,0.0361,0.0391,0.0363
776,0.0100,0.0288,0.0346,0.0383
777,0.0063,0.0333,0.0427,0.0270
778,0.0115,0.0431,0.0562,0.0194
779,0.0087,0.0585,0.0744,0.0457
780,0.0087,0.0318,0.0486,0.0046
781,0.0100,0.0352,0.0311,0.0212
782,0.0057,0.0452,0.0338,0.0137
783,0.0056,0.0448,0.0334,0.0106
784,0.0103,0.0263,0.0329,0.0112
785,0.0107,0.0371,0.0473,0.0069
786,0.0063,0.0338,0.0499,0.0064
787,0.0110,0.0265,0.0357,0.0059
788,0.0059,0.0312,0.0334,0.0138
789,0.0059,0.0305,0.0336,0.0187
790,0.0104,0.0471,0.0543,0.0272
791,0.0087,0.0318,0.0486,0.0046
792,0.0063,0.0299,0.0357,0.0282
793,0.0066,0.0336,0.0394,0.0331
794,0.0106,0.0285,0.0340,0.0350
795,0.0062,0.0455,0.0464,0.0443
796,0.0181,0.0582,0.0622,0.0613
797,0.0119,0.0394,0.0414,0.0506
798,0.0064,0.0378,0.0584,0.0064
799,0.0057,0.0336,0.0335,0.0064
800,0.0108,0.0257,0.0352,0.0059
801,0.0107,0.0370,0.0484,0.0092
802,0.0087,0.0318,0.0486,0.0046
803,0.0057,0.0336,0.0335,0.0064
804,0.0108,0.0257,0.0352,0.0059
805,0.0057,0.0336,0.0335,0.0064
806,0.0057,0.0336,0.0335,0.0064
807,0.0107,0.0370,0.0484,0.0092
808,0.0057,0.0336,0.0335,0.0064
809,0.0057,0.0336,0.0335,0.0064
810,0.0105,0.0308,0.0457,0.0060
811,0.0057,0.0336,0.0335,0.0064
812,0.0107,0.0370,0.0484,0.0092
813,0.0087,0.0318,0.0486,0.0046
814,0.0108,0.0257,0.0352,0.0059
815,0.0057,0.0336,0.0335,0.0064
816,0.0057,0.0336,0.0335,0.0064
817,0.0108,0.0257,0.0352,0.0059
818,0.0107,0.0370,0.0484,0.0092
819,0.0057,0.0336,0.0335,0.0064
820,0.0108,0.0257,0.0352,0.0059
821,0.0057,0.0336,0.0335,0.0064
822,0.0060,0.0422,0.0674,0.0065
823,0.0107,0.0370,0.0484,0.0092
824,0.0118,0.0703,0.1007,0.0093
825,0.0057,0.0336,0.0335,0.0064
826,0.0057,0.0336,0.0335,0.0064
827,0.0108,0.0257,0.0352,0.0059
828,0.0057,0.0336,0.0335,0.0064
829,0.0107,0.0370,0.0484,0.0092
830,0.0108,0.0257,0.0352,0.0059
831,0.0057,0.0336,0.0335,0.0064
832,0.0057,0.0336,0.0335,0.0064
833,0.0108,0.0257,0.0352,0.0059
834,0.0118,0.0553,0.0835,0.0091
835,0.0087,0.0318,0.0486,0.0046
836,0.0057,0.0336,0.0335,0.0064
837,0.0108,0.0257,0.0352,0.0059
838,0.0057,0.0336,0.0335,0.0064
839,0.0057,0.0336,0.0335,0.0064
840,0.0107,0.0370,0.0484,0.0092
841,0.0096,0.0272,0.0321,0.0099
842,0.0077,0.0258,0.0310,0.0085
843,0.0132,0.0263,0.0346,0.0067
844,0.0091,0.0288,0.0365,0.0063
845,0.0113,0.0528,0.0794,0.0093
846,0.0087,0.0318,0.0486,0.0046
847,0.0106,0.0390,0.0671,0.0061
848,0.0096,0.0295,0.0381,0.0056
849,0.0090,0.0288,0.0374,0.0054
850,0.0124,0.0320,0.0405,0.0073
851,0.0106,0.0385,0.0389,0.0098
852,0.0061,0.0302,0.0338,0.0059
853,0.0102,0.0269,0.0329,0.0056
854,0.0061,0.0323,0.0384,0.0068
855,0.0063,0.0338,0.0499,0.0064
856,0.0105,0.0477,0.0709,0.0098
857,0.0087,0.0318,0.0486,0.0046
858,0.0062,0.0397,0.0631,0.0066
859,0.0073,0.0503,0.0772,0.0068
860,0.0107,0.0335,0.0561,0.0060
861,0.0063,0.0447,0.0705,0.0065
862,0.0120,0.0581,0.0892,0.0090
863,0.0106,0.0412,0.0688,0.0063
864,0.0078,0.0527,0.0808,0.0077
865,0.0078,0.0450,0.0366,0.0395
866,0.0103,0.0331,0.0353,0.0448
867,0.0108,0.0478,0.0517,0.0276
868,0.0087,0.0318,0.0486,0.0046
869,0.0108,0.0478,0.0517,0.0276
870,0.0108,0.0478,0.0517,0.0276
871,0.0108,0.0478,0.0517,0.0276
872,0.0108,0.0478,0.0517,0.0276
873,0.0108,0.0478,0.0517,0.0276
874,0.0057,0.0367,0.0332,0.0055
875,0.0057,0.0367,0.0332,0.0055
876,0.0110,0.0213,0.0279,0.0051
877,0.0058,0.0354,0.0299,0.0055
878,0.0106,0.0267,0.0378,0.0057
879,0.0111,0.0461,0.0631,0.0073
880,0.0100,0.0334,0.0305,0.0059
881,0.0064,0.0227,0.0312,0.0046
882,0.0064,0.0233,0.0361,0.0046
883,0.0105,0.0229,0.0290,0.0056
884,0.0116,0.0390,0.0545,0.0071
885,0.0064,0.0308,0.0437,0.0047
886,0.0106,0.0254,0.0412,0.0051
887,0.0076,0.0380,0.0486,0.0058
888,0.0081,0.0408,0.0514,0.0071
889,0.0105,0.0280,0.0417,0.0059
890,0.0089,0.0511,0.0724,0.0383
891,0.0100,0.0295,0.0466,0.0090
892,0.0079,0.0449,0.0340,0.0213
893,0.0058,0.0284,0.0268,0.0196
894,0.0100,0.0211,0.0253,0.0188
895,0.0063,0.0259,0.0282,0.0156
896,0.0115,0.0343,0.0385,0.0142
897,0.0100,0.0383,0.0293,0.0114
898,0.0058,0.0463,0.0294,0.0118
899,0.0057,0.0477,0.0323,0.0105
900,0.0105,0.0262,0.0278,0.0077
901,0.0108,0.0292,0.0337,0.0050
902,0.0093,0.0342,0.0525,0.0082
903,0.0064,0.0227,0.0312,0.0046
904,0.0112,0.0217,0.0287,0.0053
905,0.0059,0.0324,0.0328,0.0095
906,0.0059,0.0305,0.0319,0.0128
907,0.0104,0.0281,0.0348,0.0182
908,0.0064,0.0227,0.0270,0.0185
909,0.0067,0.0210,0.0262,0.0209
910,0.0106,0.0320,0.0339,0.0211
911,0.0061,0.0248,0.0284,0.0264
912,0.0187,0.0608,0.0678,0.0409
913,0.0105,0.0391,0.0574,0.0080
914,0.0116,0.0227,0.0273,0.0265
915,0.0064,0.0233,0.0361,0.0046
916,0.0057,0.0367,0.0332,0.0055
917,0.0110,0.0213,0.0279,0.0051
918,0.0107,0.0271,0.0333,0.0057
919,0.0057,0.0367,0.0332,0.0055
920,0.0110,0.0213,0.0279,0.0051
921,0.0057,0.0367,0.0332,0.0055
922,0.0057,0.0367,0.0332,0.0055
923,0.0107,0.0271,0.0333,0.0057
924,0.0118,0.0436,0.0614,0.0078
925,0.0057,0.0367,0.0332,0.0055
926,0.0057,0.0367,0.0332,0.0055
927,0.0105,0.0229,0.0290,0.0056
928,0.0057,0.0367,0.0332,0.0055
929,0.0107,0.0271,0.0333,0.0057
930,0.0110,0.0213,0.0279,0.0051
931,0.0057,0.0367,0.0332,0.0055
932,0.0057,0.0367,0.0332,0.0055
933,0.0110,0.0213,0.0279,0.0051
934,0.0107,0.0271,0.0333,0.0057
935,0.0113,0.0660,0.0959,0.0088
936,0.0057,0.0367,0.0332,0.0055
937,0.0110,0.0213,0.0279,0.0051
938,0.0057,0.0367,0.0332,0.0055
939,0.0061,0.0274,0.0419,0.0046
940,0.0107,0.0271,0.0333,0.0057
941,0.0057,0.0367,0.0332,0.0055
942,0.0057,0.0367,0.0332,0.0055
943,0.0110,0.0213,0.0279,0.0051
944,0.0057,0.0367,0.0332,0.0055
945,0.0107,0.0271,0.0333,0.0057
946,0.0093,0.0585,0.0916,0.0076
947,0.0110,0.0213,0.0279,0.0051
948,0.0057,0.0367,0.0332,0.0055
949,0.0057,0.0367,0.0332,0.0055
950,0.0110,0.0213,0.0279,0.0051
951,0.0120,0.0417,0.0582,0.0076
952,0.0057,0.0367,0.0332,0.0055
953,0.0110,0.0213,0.0279,0.0051
954,0.0057,0.0367,0.0332,0.0055
955,0.0057,0.0367,0.0332,0.0055
956,0.0107,0.0271,0.0333,0.0057
957,0.0126,0.0457,0.0626,0.0071
958,0.0090,0.0382,0.0494,0.0101
959,0.0076,0.0305,0.0405,0.0083
960,0.0124,0.0362,0.0533,0.0082
961,0.0095,0.0224,0.0309,0.0059
962,0.0116,0.0390,0.0545,0.0071
963,0.0106,0.0254,0.0412,0.0051
964,0.0100,0.0201,0.0279,0.0051
965,0.0093,0.0204,0.0279,0.0049
966,0.0127,0.0221,0.0301,0.0059
967,0.0105,0.0395,0.0380,0.0068
968,0.0122,0.0441,0.0610,0.0064
969,0.0063,0.0308,0.0316,0.0050
970,0.0104,0.0272,0.0294,0.0054
971,0.0062,0.0268,0.0260,0.0050
972,0.0064,0.0227,0.0312,0.0046
973,0.0106,0.0330,0.0475,0.0065
974,0.0062,0.0246,0.0395,0.0046
975,0.0076,0.0380,0.0486,0.0058
976,0.0107,0.0218,0.0348,0.0054
977,0.0064,0.0308,0.0437,0.0047
978,0.0123,0.0438,0.0620,0.0085
979,0.0113,0.0409,0.0579,0.0056
980,0.0106,0.0286,0.0418,0.0051
981,0.0081,0.0408,0.0514,0.0071
982,0.0079,0.0449,0.0340,0.0213
983,0.0103,0.0223,0.0257,0.0224
984,0.0107,0.0400,0.0363,0.0184
985,0.0107,0.0400,0.0363,0.0184
986,0.0107,0.0400,0.0363,0.0184
987,0.0107,0.0400,0.0363,0.0184
988,0.0107,0.0400,0.0363,0.0184
989,0.0107,0.0400,0.0363,0.0184
990,0.0109,0.0376,0.0480,0.0075
991,0.0058,0.0408,0.0406,0.0044
992,0.0058,0.0408,0.0406,0.0044
993,0.0110,0.0260,0.0345,0.0052
994,0.0058,0.0383,0.0349,0.0044
995,0.0106,0.0235,0.0289,0.0048
996,0.0101,0.0395,0.0386,0.0062
997,0.0064,0.0224,0.0220,0.0040
998,0.0064,0.0209,0.0224,0.0040
999,0.0106,0.0247,0.0219,0.0057
1000,0.0116,0.0397,0.0446,0.0070
1001,0.0120,0.0538,0.0816,0.0264
1002,0.0093,0.0340,0.0512,0.0045
1003,0.0064,0.0317,0.0293,0.0043
1004,0.0106,0.0255,0.0232,0.0051
1005,0.0077,0.0409,0.0357,0.0057
1006,0.0081,0.0438,0.0390,0.0070
1007,0.0104,0.0239,0.0308,0.0050
1008,0.0082,0.0488,0.0382,0.0187
1009,0.0058,0.0303,0.0243,0.0151
1010,0.0100,0.0212,0.0240,0.0094
1011,0.0062,0.0283,0.0214,0.0140
1012,0.0114,0.0361,0.0289,0.0147
1013,0.0086,0.0327,0.0502,0.0048
1014,0.0100,0.0437,0.0356,0.0135
1015,0.0058,0.0486,0.0334,0.0143
1016,0.0057,0.0493,0.0369,0.0125
1017,0.0105,0.0326,0.0348,0.0092
1018,0.0108,0.0292,0.0296,0.0040
1019,0.0064,0.0224,0.0220,0.0040
1020,0.0112,0.0248,0.0349,0.0050
1021,0.0059,0.0353,0.0397,0.0092
1022,0.0060,0.0327,0.0382,0.0130
1023,0.0104,0.0200,0.0293,0.0191
1024,0.0089,0.0362,0.0567,0.0048
1025,0.0064,0.0239,0.0312,0.0194
1026,0.0067,0.0177,0.0264,0.0218
1027,0.0106,0.0400,0.0449,0.0195
1028,0.0059,0.0169,0.0280,0.0250
1029,0.0193,0.0710,0.0789,0.0369
1030,0.0114,0.0195,0.0298,0.0208
1031,0.0064,0.0209,0.0224,0.0040
1032,0.0058,0.0408,0.0406,0.0044
1033,0.0110,0.0260,0.0345,0.0052
1034,0.0107,0.0257,0.0291,0.0049
1035,0.0091,0.0446,0.0683,0.0046
1036,0.0058,0.0408,0.0406,0.0044
1037,0.0110,0.0260,0.0345,0.0052
1038,0.0058,0.0408,0.0406,0.0044
1039,0.0058,0.0408,0.0406,0.0044
1040,0.0107,0.0257,0.0291,0.0049
1041,0.0058,0.0408,0.0406,0.0044
1042,0.0058,0.0408,0.0406,0.0044
1043,0.0106,0.0247,0.0219,0.0057
1044,0.0058,0.0408,0.0406,0.0044
1045,0.0107,0.0257,0.0291,0.0049
1046,0.0108,0.0611,0.0873,0.0083
1047,0.0110,0.0260,0.0345,0.0052
1048,0.0058,0.0408,0.0406,0.0044
1049,0.0058,0.0408,0.0406,0.0044
1050,0.0110,0.0260,0.0345,0.0052
1051,0.0107,0.0257,0.0291,0.0049
1052,0.0058,0.0408,0.0406,0.0044
1053,0.0110,0.0260,0.0345,0.0052
1054,0.0058,0.0408,0.0406,0.0044
1055,0.0061,0.0264,0.0267,0.0040
1056,0.0107,0.0257,0.0291,0.0049
1057,0.0090,0.0540,0.0816,0.0052
1058,0.0058,0.0408,0.0406,0.0044
1059,0.0058,0.0408,0.0406,0.0044
1060,0.0110,0.0260,0.0345,0.0052
1061,0.0058,0.0408,0.0406,0.0044
1062,0.0107,0.0257,0.0291,0.0049
1063,0.0110,0.0260,0.0345,0.0052
1064,0.0058,0.0408,0.0406,0.0044
1065,0.0058,0.0408,0.0406,0.0044
1066,0.0110,0.0260,0.0345,0.0052
1067,0.0121,0.0429,0.0485,0.0079
1068,0.0097,0.0615,0.0955,0.0091
1069,0.0058,0.0408,0.0406,0.0044
1070,0.0110,0.0260,0.0345,0.0052
1071,0.0058,0.0408,0.0406,0.0044
1072,0.0058,0.0408,0.0406,0.0044
1073,0.0107,0.0257,0.0291,0.0049
1074,0.0087,0.0475,0.0679,0.0098
1075,0.0076,0.0374,0.0562,0.0078
1076,0.0121,0.0452,0.0717,0.0095
1077,0.0095,0.0229,0.0391,0.0055
1078,0.0116,0.0397,0.0446,0.0070
1079,0.0089,0.0558,0.0854,0.0057
1080,0.0106,0.0255,0.0232,0.0051
1081,0.0100,0.0187,0.0328,0.0049
1082,0.0095,0.0205,0.0331,0.0047
1083,0.0127,0.0194,0.0336,0.0052
1084,0.0106,0.0408,0.0429,0.0054
1085,0.0063,0.0363,0.0403,0.0043
1086,0.0104,0.0334,0.0376,0.0057
1087,0.0063,0.0273,0.0246,0.0040
1088,0.0064,0.0224,0.0220,0.0040
1089,0.0106,0.0313,0.0370,0.0057
1090,0.0090,0.0569,0.0884,0.0065
1091,0.0061,0.0223,0.0241,0.0040
1092,0.0077,0.0409,0.0357,0.0057
1093,0.0107,0.0225,0.0216,0.0056
1094,0.0064,0.0317,0.0293,0.0043
1095,0.0123,0.0450,0.0524,0.0090
1096,0.0106,0.0303,0.0243,0.0049
1097,0.0081,0.0438,0.0390,0.0070
1098,0.0082,0.0488,0.0382,0.0187
1099,0.0103,0.0205,0.0251,0.0097
1100,0.0106,0.0419,0.0295,0.0177
1101,0.0124,0.0765,0.1060,0.0103
1102,0.0106,0.0419,0.0295,0.0177
1103,0.0106,0.0419,0.0295,0.0177
1104,0.0106,0.0419,0.0295,0.0177
1105,0.0106,0.0419,0.0295,0.0177
1106,0.0106,0.0419,0.0295,0.0177
1107,0.0058,0.0450,0.0465,0.0042
1108,0.0058,0.0450,0.0465,0.0042
1109,0.0110,0.0294,0.0394,0.0053
1110,0.0058,0.0398,0.0382,0.0041
1111,0.0106,0.0259,0.0301,0.0050
1112,0.0086,0.0392,0.0594,0.0047
1113,0.0086,0.0380,0.0602,0.0240
1114,0.0097,0.0615,0.0955,0.0091
1115,0.0100,0.0437,0.0444,0.0065
1116,0.0064,0.0263,0.0242,0.0039
1117,0.0064,0.0237,0.0227,0.0039
1118,0.0106,0.0291,0.0245,0.0060
1119,0.0116,0.0447,0.0466,0.0073
1120,0.0064,0.0366,0.0306,0.0042
1121,0.0106,0.0300,0.0226,0.0053
1122,0.0076,0.0461,0.0380,0.0057
1123,0.0080,0.0498,0.0419,0.0068
1124,0.0105,0.0264,0.0313,0.0051
1125,0.0103,0.0657,0.0996,0.0111
1126,0.0083,0.0524,0.0423,0.0219
1127,0.0058,0.0336,0.0272,0.0174
1128,0.0100,0.0255,0.0277,0.0116
1129,0.0062,0.0320,0.0236,0.0163
1130,0.0114,0.0382,0.0292,0.0161
1131,0.0100,0.0474,0.0406,0.0165
1132,0.0058,0.0499,0.0367,0.0158
1133,0.0057,0.0514,0.0409,0.0137
1134,0.0104,0.0364,0.0398,0.0107
1135,0.0108,0.0329,0.0326,0.0039
1136,0.0101,0.0454,0.0482,0.0435
1137,0.0064,0.0263,0.0242,0.0039
1138,0.0112,0.0282,0.0399,0.0050
1139,0.0060,0.0384,0.0446,0.0101
1140,0.0060,0.0358,0.0430,0.0145
1141,0.0104,0.0212,0.0316,0.0213
1142,0.0065,0.0265,0.0352,0.0219
1143,0.0067,0.0210,0.0309,0.0247
1144,0.0106,0.0439,0.0506,0.0221
1145,0.0059,0.0190,0.0318,0.0284
1146,0.0196,0.0775,0.0854,0.0395
1147,0.0085,0.0514,0.0604,0.0411
1148,0.0113,0.0239,0.0353,0.0243
1149,0.0064,0.0237,0.0227,0.0039
1150,0.0058,0.0450,0.0465,0.0042
1151,0.0110,0.0294,0.0394,0.0053
1152,0.0107,0.0289,0.0318,0.0051
1153,0.0058,0.0450,0.0465,0.0042
1154,0.0110,0.0294,0.0394,0.0053
1155,0.0058,0.0450,0.0465,0.0042
1156,0.0058,0.0450,0.0465,0.0042
1157,0.0107,0.0289,0.0318,0.0051
1158,0.0111,0.0460,0.0662,0.0305
1159,0.0058,0.0450,0.0465,0.0042
1160,0.0058,0.0450,0.0465,0.0042
1161,0.0106,0.0291,0.0245,0.0060
1162,0.0058,0.0450,0.0465,0.0042
1163,0.0107,0.0289,0.0318,0.0051
1164,0.0110,0.0294,0.0394,0.0053
1165,0.0058,0.0450,0.0465,0.0042
1166,0.0058,0.0450,0.0465,0.0042
1167,0.0110,0.0294,0.0394,0.0053
1168,0.0107,0.0289,0.0318,0.0051
1169,0.0111,0.0460,0.0662,0.0305
1170,0.0058,0.0450,0.0465,0.0042
1171,0.0110,0.0294,0.0394,0.0053
1172,0.0058,0.0450,0.0465,0.0042
1173,0.0061,0.0312,0.0272,0.0040
1174,0.0107,0.0289,0.0318,0.0051
1175,0.0058,0.0450,0.0465,0.0042
1176,0.0058,0.0450,0.0465,0.0042
1177,0.0110,0.0294,0.0394,0.0053
1178,0.0058,0.0450,0.0465,0.0042
1179,0.0107,0.0289,0.0318,0.0051
1180,0.0111,0.0460,0.0662,0.0305
1181,0.0110,0.0294,0.0394,0.0053
1182,0.0058,0.0450,0.0465,0.0042
1183,0.0058,0.0450,0.0465,0.0042
1184,0.0110,0.0294,0.0394,0.0053
1185,0.0120,0.0476,0.0508,0.0082
1186,0.0058,0.0450,0.0465,0.0042
1187,0.0110,0.0294,0.0394,0.0053
1188,0.0058,0.0450,0.0465,0.0042
1189,0.0058,0.0450,0.0465,0.0042
1190,0.0107,0.0289,0.0318,0.0051
1191,0.0111,0.0460,0.0662,0.0305
1192,0.0086,0.0510,0.0754,0.0095
1193,0.0077,0.0399,0.0625,0.0074
1194,0.0120,0.0485,0.0792,0.0098
1195,0.0095,0.0248,0.0445,0.0054
1196,0.0116,0.0447,0.0466,0.0073
1197,0.0106,0.0300,0.0226,0.0053
1198,0.0101,0.0208,0.0376,0.0049
1199,0.0095,0.0224,0.0373,0.0046
1200,0.0127,0.0206,0.0377,0.0051
1201,0.0106,0.0432,0.0469,0.0056
1202,0.0111,0.0460,0.0662,0.0305
1203,0.0063,0.0395,0.0453,0.0041
1204,0.0104,0.0359,0.0417,0.0058
1205,0.0063,0.0310,0.0285,0.0039
1206,0.0064,0.0263,0.0242,0.0039
1207,0.0106,0.0356,0.0383,0.0059
1208,0.0061,0.0263,0.0243,0.0039
1209,0.0076,0.0461,0.0380,0.0057
1210,0.0107,0.0261,0.0221,0.0058
1211,0.0064,0.0366,0.0306,0.0042
1212,0.0123,0.0502,0.0550,0.0092
1213,0.0111,0.0460,0.0662,0.0305
1214,0.0106,0.0359,0.0245,0.0050
1215,0.0080,0.0498,0.0419,0.0068
1216,0.0083,0.0524,0.0423,0.0219
1217,0.0104,0.0226,0.0279,0.0106
1218,0.0106,0.0450,0.0308,0.0196
1219,0.0106,0.0450,0.0308,0.0196
1220,0.0106,0.0450,0.0308,0.0196
1221,0.0106,0.0450,0.0308,0.0196
1222,0.0106,0.0450,0.0308,0.0196
1223,0.0106,0.0450,0.0308,0.0196
1224,0.0085,0.0362,0.0580,0.0188
1225,0.0088,0.0245,0.0359,0.0039
1226,0.0088,0.0245,0.0359,0.0039
1227,0.0088,0.0245,0.0359,0.0039
1228,0.0087,0.0237,0.0354,0.0038
1229,0.0111,0.0324,0.0469,0.0053
1230,0.0090,0.0226,0.0386,0.0035
1231,0.0091,0.0264,0.0454,0.0035
1232,0.0091,0.0298,0.0499,0.0039
1233,0.0090,0.0322,0.0532,0.0044
1234,0.0114,0.0386,0.0612,0.0087
1235,0.0085,0.0357,0.0570,0.0140
1236,0.0090,0.0315,0.0551,0.0061
1237,0.0093,0.0324,0.0569,0.0074
1238,0.0098,0.0329,0.0583,0.0088
1239,0.0104,0.0353,0.0604,0.0105
1240,0.0110,0.0347,0.0508,0.0059
1241,0.0103,0.0305,0.0348,0.0212
1242,0.0084,0.0341,0.0428,0.0212
1243,0.0085,0.0331,0.0464,0.0189
1244,0.0089,0.0283,0.0454,0.0157
1245,0.0118,0.0298,0.0476,0.0126
1246,0.0085,0.0358,0.0565,0.0096
1247,0.0088,0.0224,0.0370,0.0099
1248,0.0087,0.0247,0.0350,0.0084
1249,0.0086,0.0263,0.0346,0.0073
1250,0.0087,0.0258,0.0350,0.0059
1251,0.0112,0.0288,0.0415,0.0040
1252,0.0091,0.0264,0.0454,0.0035
1253,0.0087,0.0243,0.0360,0.0047
1254,0.0088,0.0242,0.0363,0.0066
1255,0.0087,0.0238,0.0360,0.0090
1256,0.0107,0.0356,0.0429,0.0145
1257,0.0111,0.0501,0.0716,0.0057
1258,0.0089,0.0229,0.0364,0.0133
1259,0.0090,0.0252,0.0378,0.0153
1260,0.0089,0.0289,0.0391,0.0174
1261,0.0085,0.0308,0.0383,0.0203
1262,0.0172,0.0360,0.0435,0.0337
1263,0.0091,0.0278,0.0347,0.0281
1264,0.0091,0.0298,0.0499,0.0039
1265,0.0088,0.0245,0.0359,0.0039
1266,0.0088,0.0245,0.0359,0.0039
1267,0.0112,0.0297,0.0415,0.0050
1268,0.0091,0.0529,0.0793,0.0052
1269,0.0088,0.0245,0.0359,0.0039
1270,0.0088,0.0245,0.0359,0.0039
1271,0.0088,0.0245,0.0359,0.0039
1272,0.0088,0.0245,0.0359,0.0039
1273,0.0112,0.0297,0.0415,0.0050
1274,0.0088,0.0245,0.0359,0.0039
1275,0.0088,0.0245,0.0359,0.0039
1276,0.0090,0.0322,0.0532,0.0044
1277,0.0088,0.0245,0.0359,0.0039
1278,0.0112,0.0297,0.0415,0.0050
1279,0.0086,0.0398,0.0596,0.0079
1280,0.0088,0.0245,0.0359,0.0039
1281,0.0088,0.0245,0.0359,0.0039
1282,0.0088,0.0245,0.0359,0.0039
1283,0.0088,0.0245,0.0359,0.0039
1284,0.0112,0.0297,0.0415,0.0050
1285,0.0088,0.0245,0.0359,0.0039
1286,0.0088,0.0245,0.0359,0.0039
1287,0.0088,0.0245,0.0359,0.0039
1288,0.0089,0.0319,0.0541,0.0051
1289,0.0112,0.0297,0.0415,0.0050
1290,0.0086,0.0399,0.0591,0.0130
1291,0.0088,0.0245,0.0359,0.0039
1292,0.0088,0.0245,0.0359,0.0039
1293,0.0088,0.0245,0.0359,0.0039
1294,0.0088,0.0245,0.0359,0.0039
1295,0.0112,0.0297,0.0415,0.0050
1296,0.0088,0.0245,0.0359,0.0039
1297,0.0088,0.0245,0.0359,0.0039
1298,0.0088,0.0245,0.0359,0.0039
1299,0.0088,0.0245,0.0359,0.0039
1300,0.0119,0.0411,0.0642,0.0097
1301,0.0086,0.0414,0.0603,0.0186
1302,0.0088,0.0245,0.0359,0.0039
1303,0.0088,0.0245,0.0359,0.0039
1304,0.0088,0.0245,0.0359,0.0039
1305,0.0088,0.0245,0.0359,0.0039
1306,0.0112,0.0297,0.0415,0.0050
1307,0.0097,0.0294,0.0464,0.0093
1308,0.0095,0.0270,0.0455,0.0081
1309,0.0108,0.0273,0.0457,0.0077
1310,0.0121,0.0288,0.0461,0.0076
1311,0.0114,0.0386,0.0612,0.0087
1312,0.0108,0.0725,0.0829,0.0304
1313,0.0093,0.0324,0.0569,0.0074
1314,0.0129,0.0290,0.0450,0.0068
1315,0.0124,0.0270,0.0431,0.0061
1316,0.0115,0.0248,0.0409,0.0052
1317,0.0109,0.0308,0.0350,0.0051
1318,0.0095,0.0226,0.0370,0.0039
1319,0.0087,0.0237,0.0354,0.0038
1320,0.0090,0.0226,0.0386,0.0035
1321,0.0091,0.0264,0.0454,0.0035
1322,0.0109,0.0362,0.0559,0.0071
1323,0.0085,0.0389,0.0600,0.0049
1324,0.0088,0.0469,0.0636,0.0310
1325,0.0090,0.0322,0.0532,0.0044
1326,0.0098,0.0329,0.0583,0.0088
1327,0.0089,0.0319,0.0541,0.0051
1328,0.0090,0.0315,0.0551,0.0061
1329,0.0124,0.0444,0.0670,0.0108
1330,0.0098,0.0329,0.0583,0.0088
1331,0.0104,0.0353,0.0604,0.0105
1332,0.0103,0.0305,0.0348,0.0212
1333,0.0084,0.0341,0.0428,0.0212
1334,0.0110,0.0296,0.0448,0.0174
1335,0.0089,0.0536,0.0680,0.0373
1336,0.0110,0.0296,0.0448,0.0174
1337,0.0110,0.0296,0.0448,0.0174
1338,0.0110,0.0296,0.0448,0.0174
1339,0.0110,0.0296,0.0448,0.0174
1340,0.0110,0.0296,0.0448,0.0174
1341,0.0088,0.0273,0.0368,0.0033
1342,0.0088,0.0273,0.0368,0.0033
1343,0.0088,0.0273,0.0368,0.0033
1344,0.0087,0.0247,0.0332,0.0031
1345,0.0111,0.0201,0.0300,0.0054
1346,0.0090,0.0628,0.0730,0.0441
1347,0.0090,0.0180,0.0300,0.0031
1348,0.0091,0.0158,0.0301,0.0033
1349,0.0091,0.0153,0.0310,0.0036
1350,0.0090,0.0154,0.0318,0.0042
1351,0.0114,0.0218,0.0410,0.0093
1352,0.0090,0.0152,0.0327,0.0060
1353,0.0093,0.0154,0.0341,0.0072
1354,0.0098,0.0156,0.0357,0.0084
1355,0.0103,0.0159,0.0377,0.0097
1356,0.0110,0.0201,0.0320,0.0059
1357,0.0088,0.0699,0.0750,0.0515
1358,0.0105,0.0249,0.0305,0.0103
1359,0.0084,0.0216,0.0308,0.0094
1360,0.0085,0.0190,0.0319,0.0089
1361,0.0088,0.0161,0.0311,0.0087
1362,0.0118,0.0223,0.0306,0.0100
1363,0.0088,0.0210,0.0297,0.0096
1364,0.0087,0.0258,0.0310,0.0096
1365,0.0087,0.0281,0.0328,0.0086
1366,0.0087,0.0286,0.0345,0.0068
1367,0.0112,0.0226,0.0291,0.0036
1368,0.0161,0.0632,0.0619,0.0685
1369,0.0091,0.0158,0.0301,0.0033
1370,0.0087,0.0273,0.0378,0.0044
1371,0.0088,0.0257,0.0373,0.0071
1372,0.0088,0.0248,0.0368,0.0101
1373,0.0107,0.0201,0.0287,0.0156
1374,0.0089,0.0196,0.0334,0.0150
1375,0.0089,0.0162,0.0315,0.0166
1376,0.0087,0.0155,0.0308,0.0176
1377,0.0084,0.0154,0.0303,0.0186
1378,0.0180,0.0432,0.0523,0.0299
1379,0.0089,0.0708,0.0669,0.0683
1380,0.0094,0.0192,0.0357,0.0219
1381,0.0091,0.0153,0.0310,0.0036
1382,0.0088,0.0273,0.0368,0.0033
1383,0.0088,0.0273,0.0368,0.0033
1384,0.0112,0.0215,0.0290,0.0051
1385,0.0088,0.0273,0.0368,0.0033
1386,0.0088,0.0273,0.0368,0.0033
1387,0.0088,0.0273,0.0368,0.0033
1388,0.0088,0.0273,0.0368,0.0033
1389,0.0112,0.0215,0.0290,0.0051
1390,0.0092,0.0604,0.0889,0.0055
1391,0.0088,0.0273,0.0368,0.0033
1392,0.0088,0.0273,0.0368,0.0033
1393,0.0090,0.0154,0.0318,0.0042
1394,0.0088,0.0273,0.0368,0.0033
1395,0.0112,0.0215,0.0290,0.0051
1396,0.0088,0.0273,0.0368,0.0033
1397,0.0088,0.0273,0.0368,0.0033
1398,0.0088,0.0273,0.0368,0.0033
1399,0.0088,0.0273,0.0368,0.0033
1400,0.0112,0.0215,0.0290,0.0051
1401,0.0086,0.0392,0.0594,0.0047
1402,0.0088,0.0273,0.0368,0.0033
1403,0.0088,0.0273,0.0368,0.0033
1404,0.0088,0.0273,0.0368,0.0033
1405,0.0089,0.0152,0.0321,0.0050
1406,0.0112,0.0215,0.0290,0.0051
1407,0.0088,0.0273,0.0368,0.0033
1408,0.0088,0.0273,0.0368,0.0033
1409,0.0088,0.0273,0.0368,0.0033
1410,0.0088,0.0273,0.0368,0.0033
1411,0.0112,0.0215,0.0290,0.0051
1412,0.0086,0.0392,0.0594,0.0047
1413,0.0088,0.0273,0.0368,0.0033
1414,0.0088,0.0273,0.0368,0.0033
1415,0.0088,0.0273,0.0368,0.0033
1416,0.0088,0.0273,0.0368,0.0033
1417,0.0118,0.0227,0.0440,0.0103
1418,0.0088,0.0273,0.0368,0.0033
1419,0.0088,0.0273,0.0368,0.0033
1420,0.0088,0.0273,0.0368,0.0033
1421,0.0088,0.0273,0.0368,0.0033
1422,0.0112,0.0215,0.0290,0.0051
1423,0.0111,0.0533,0.0732,0.0088
1424,0.0096,0.0360,0.0589,0.0092
1425,0.0095,0.0285,0.0528,0.0079
1426,0.0108,0.0236,0.0478,0.0074
1427,0.0120,0.0212,0.0443,0.0074
1428,0.0114,0.0218,0.0410,0.0093
1429,0.0093,0.0154,0.0341,0.0072
1430,0.0128,0.0187,0.0398,0.0066
1431,0.0124,0.0179,0.0384,0.0059
1432,0.0116,0.0174,0.0370,0.0050
1433,0.0110,0.0312,0.0348,0.0047
1434,0.0111,0.0622,0.0845,0.0089
1435,0.0086,0.0392,0.0594,0.0047
1436,0.0094,0.0239,0.0374,0.0036
1437,0.0087,0.0247,0.0332,0.0031
1438,0.0090,0.0180,0.0300,0.0031
1439,0.0091,0.0158,0.0301,0.0033
1440,0.0109,0.0207,0.0359,0.0075
1441,0.0090,0.0154,0.0318,0.0042
1442,0.0098,0.0156,0.0357,0.0084
1443,0.0089,0.0152,0.0321,0.0050
1444,0.0090,0.0152,0.0327,0.0060
1445,0.0124,0.0239,0.0471,0.0112
1446,0.0086,0.0392,0.0594,0.0047
1447,0.0098,0.0156,0.0357,0.0084
1448,0.0103,0.0159,0.0377,0.0097
1449,0.0105,0.0249,0.0305,0.0103
1450,0.0084,0.0216,0.0308,0.0094
1451,0.0109,0.0226,0.0295,0.0121
1452,0.0109,0.0226,0.0295,0.0121
1453,0.0109,0.0226,0.0295,0.0121
1454,0.0109,0.0226,0.0295,0.0121
1455,0.0109,0.0226,0.0295,0.0121
1456,0.0109,0.0226,0.0295,0.0121
1457,0.0086,0.0392,0.0594,0.0047
1458,0.0088,0.0318,0.0409,0.0032
1459,0.0088,0.0318,0.0409,0.0032
1460,0.0088,0.0318,0.0409,0.0032
1461,0.0087,0.0277,0.0355,0.0030
1462,0.0111,0.0202,0.0280,0.0057
1463,0.0091,0.0205,0.0302,0.0030
1464,0.0091,0.0170,0.0283,0.0032
1465,0.0092,0.0154,0.0278,0.0036
1466,0.0090,0.0150,0.0279,0.0042
1467,0.0114,0.0223,0.0397,0.0096
1468,0.0086,0.0392,0.0594,0.0047
1469,0.0090,0.0170,0.0300,0.0059
1470,0.0093,0.0180,0.0319,0.0070
1471,0.0098,0.0184,0.0342,0.0082
1472,0.0103,0.0181,0.0369,0.0094
1473,0.0110,0.0190,0.0289,0.0062
1474,0.0106,0.0264,0.0321,0.0124
1475,0.0084,0.0195,0.0289,0.0101
1476,0.0085,0.0161,0.0287,0.0098
1477,0.0088,0.0151,0.0284,0.0104
1478,0.0118,0.0239,0.0273,0.0112
1479,0.0111,0.0533,0.0732,0.0088
1480,0.0088,0.0235,0.0301,0.0116
1481,0.0087,0.0293,0.0330,0.0114
1482,0.0087,0.0314,0.0353,0.0099
1483,0.0087,0.0323,0.0376,0.0077
1484,0.0112,0.0239,0.0285,0.0035
1485,0.0091,0.0170,0.0283,0.0032
1486,0.0087,0.0315,0.0418,0.0049
1487,0.0088,0.0297,0.0412,0.0083
1488,0.0088,0.0285,0.0403,0.0119
1489,0.0107,0.0189,0.0281,0.0180
1490,0.0086,0.0392,0.0594,0.0047
1491,0.0089,0.0223,0.0357,0.0180
1492,0.0089,0.0176,0.0328,0.0201
1493,0.0087,0.0166,0.0322,0.0214
1494,0.0084,0.0166,0.0325,0.0226
1495,0.0183,0.0508,0.0594,0.0332
1496,0.0096,0.0247,0.0412,0.0258
1497,0.0092,0.0154,0.0278,0.0036
1498,0.0088,0.0318,0.0409,0.0032
1499,0.0088,0.0318,0.0409,0.0032
1500,0.0112,0.0223,0.0283,0.0054
1501,0.0086,0.0392,0.0594,0.0047
1502,0.0088,0.0318,0.0409,0.0032
1503,0.0088,0.0318,0.0409,0.0032
1504,0.0088,0.0318,0.0409,0.0032
1505,0.0088,0.0318,0.0409,0.0032
1506,0.0112,0.0223,0.0283,0.0054
1507,0.0088,0.0318,0.0409,0.0032
1508,0.0088,0.0318,0.0409,0.0032
1509,0.0090,0.0150,0.0279,0.0042
1510,0.0088,0.0318,0.0409,0.0032
1511,0.0112,0.0223,0.0283,0.0054
1512,0.0091,0.0650,0.0957,0.0058
1513,0.0088,0.0318,0.0409,0.0032
1514,0.0088,0.0318,0.0409,0.0032
1515,0.0088,0.0318,0.0409,0.0032
1516,0.0088,0.0318,0.0409,0.0032
1517,0.0112,0.0223,0.0283,0.0054
1518,0.0088,0.0318,0.0409,0.0032
1519,0.0088,0.0318,0.0409,0.0032
1520,0.0088,0.0318,0.0409,0.0032
1521,0.0089,0.0157,0.0286,0.0050
1522,0.0112,0.0223,0.0283,0.0054
1523,0.0086,0.0392,0.0594,0.0047
1524,0.0088,0.0318,0.0409,0.0032
1525,0.0088,0.0318,0.0409,0.0032
1526,0.0088,0.0318,0.0409,0.0032
1527,0.0088,0.0318,0.0409,0.0032
1528,0.0112,0.0223,0.0283,0.0054
1529,0.0088,0.0318,0.0409,0.0032
1530,0.0088,0.0318,0.0409,0.0032
1531,0.0088,0.0318,0.0409,0.0032
1532,0.0088,0.0318,0.0409,0.0032
1533,0.0118,0.0224,0.0432,0.0105
1534,0.0111,0.0533,0.0732,0.0088
1535,0.0088,0.0318,0.0409,0.0032
1536,0.0088,0.0318,0.0409,0.0032
1537,0.0088,0.0318,0.0409,0.0032
1538,0.0088,0.0318,0.0409,0.0032
1539,0.0112,0.0223,0.0283,0.0054
1540,0.0096,0.0392,0.0654,0.0090
1541,0.0096,0.0306,0.0576,0.0077
1542,0.0108,0.0243,0.0513,0.0073
1543,0.0120,0.0206,0.0466,0.0073
1544,0.0114,0.0223,0.0397,0.0096
1545,0.0088,0.0432,0.0668,0.0052
1546,0.0086,0.0392,0.0594,0.0047
1547,0.0093,0.0180,0.0319,0.0070
1548,0.0128,0.0173,0.0411,0.0066
1549,0.0124,0.0169,0.0395,0.0058
1550,0.0115,0.0187,0.0393,0.0049
1551,0.0110,0.0338,0.0379,0.0051
1552,0.0094,0.0269,0.0404,0.0034
1553,0.0087,0.0277,0.0355,0.0030
1554,0.0091,0.0205,0.0302,0.0030
1555,0.0091,0.0170,0.0283,0.0032
1556,0.0109,0.0206,0.0334,0.0078
1557,0.0086,0.0392,0.0594,0.0047
1558,0.0090,0.0150,0.0279,0.0042
1559,0.0098,0.0184,0.0342,0.0082
1560,0.0089,0.0157,0.0286,0.0050
1561,0.0090,0.0170,0.0300,0.0059
1562,0.0123,0.0231,0.0469,0.0113
1563,0.0098,0.0184,0.0342,0.0082
1564,0.0103,0.0181,0.0369,0.0094
1565,0.0106,0.0264,0.0321,0.0124
1566,0.0084,0.0195,0.0289,0.0101
1567,0.0109,0.0249,0.0270,0.0134
1568,0.0086,0.0392,0.0594,0.0047
1569,0.0109,0.0249,0.0270,0.0134
1570,0.0109,0.0249,0.0270,0.0134
1571,0.0109,0.0249,0.0270,0.0134
1572,0.0109,0.0249,0.0270,0.0134
1573,0.0109,0.0249,0.0270,0.0134
1574,0.0073,0.0314,0.0456,0.0046
1575,0.0073,0.0314,0.0456,0.0046
1576,0.0136,0.0394,0.0557,0.0071
1577,0.0071,0.0311,0.0455,0.0050
1578,0.0111,0.0508,0.0715,0.0102
1579,0.0086,0.0392,0.0594,0.0047
1580,0.0118,0.0302,0.0485,0.0059
1581,0.0078,0.0415,0.0638,0.0058
1582,0.0078,0.0478,0.0735,0.0060
1583,0.0120,0.0345,0.0594,0.0056
1584,0.0105,0.0711,0.1047,0.0097
1585,0.0071,0.0585,0.0917,0.0066
1586,0.0120,0.0507,0.0848,0.0069
1587,0.0074,0.0671,0.1039,0.0083
1588,0.0075,0.0737,0.1111,0.0101
1589,0.0108,0.0556,0.0792,0.0105
1590,0.0111,0.0533,0.0732,0.0088
1591,0.0082,0.0437,0.0446,0.0533
1592,0.0069,0.0492,0.0553,0.0488
1593,0.0114,0.0557,0.0542,0.0514
1594,0.0079,0.0416,0.0580,0.0359
1595,0.0119,0.0451,0.0678,0.0244
1596,0.0117,0.0335,0.0474,0.0303
1597,0.0073,0.0308,0.0440,0.0179
1598,0.0072,0.0304,0.0433,0.0134
1599,0.0130,0.0378,0.0532,0.0158
1600,0.0110,0.0401,0.0583,0.0060
1601,0.0086,0.0392,0.0594,0.0047
1602,0.0078,0.0415,0.0638,0.0058
1603,0.0137,0.0387,0.0562,0.0055
1604,0.0072,0.0313,0.0453,0.0149
1605,0.0072,0.0321,0.0463,0.0210
1606,0.0107,0.0603,0.0708,0.0334
1607,0.0073,0.0355,0.0489,0.0343
1608,0.0076,0.0410,0.0531,0.0410
1609,0.0118,0.0297,0.0467,0.0431
1610,0.0075,0.0559,0.0609,0.0554
1611,0.0160,0.0629,0.0632,0.0721
1612,0.0086,0.0392,0.0594,0.0047
1613,0.0126,0.0420,0.0515,0.0655
1614,0.0078,0.0478,0.0735,0.0060
1615,0.0073,0.0314,0.0456,0.0046
1616,0.0136,0.0394,0.0557,0.0071
1617,0.0110,0.0424,0.0601,0.0100
1618,0.0073,0.0314,0.0456,0.0046
1619,0.0136,0.0394,0.0557,0.0071
1620,0.0073,0.0314,0.0456,0.0046
1621,0.0073,0.0314,0.0456,0.0046
1622,0.0110,0.0424,0.0601,0.0100
1623,0.0086,0.0392,0.0594,0.0047
1624,0.0073,0.0314,0.0456,0.0046
1625,0.0073,0.0314,0.0456,0.0046
1626,0.0120,0.0345,0.0594,0.0056
1627,0.0073,0.0314,0.0456,0.0046
1628,0.0110,0.0424,0.0601,0.0100
1629,0.0136,0.0394,0.0557,0.0071
1630,0.0073,0.0314,0.0456,0.0046
1631,0.0073,0.0314,0.0456,0.0046
1632,0.0136,0.0394,0.0557,0.0071
1633,0.0110,0.0424,0.0601,0.0100
1634,0.0089,0.0667,0.0996,0.0063
1635,0.0073,0.0314,0.0456,0.0046
1636,0.0136,0.0394,0.0557,0.0071
1637,0.0073,0.0314,0.0456,0.0046
1638,0.0072,0.0552,0.0860,0.0064
1639,0.0110,0.0424,0.0601,0.0100
1640,0.0073,0.0314,0.0456,0.0046
1641,0.0073,0.0314,0.0456,0.0046
1642,0.0136,0.0394,0.0557,0.0071
1643,0.0073,0.0314,0.0456,0.0046
1644,0.0110,0.0424,0.0601,0.0100
1645,0.0111,0.0533,0.0732,0.0088
1646,0.0136,0.0394,0.0557,0.0071
1647,0.0073,0.0314,0.0456,0.0046
1648,0.0073,0.0314,0.0456,0.0046
1649,0.0136,0.0394,0.0557,0.0071
1650,0.0106,0.0780,0.1127,0.0095
1651,0.0073,0.0314,0.0456,0.0046
1652,0.0136,0.0394,0.0557,0.0071
1653,0.0073,0.0314,0.0456,0.0046
1654,0.0073,0.0314,0.0456,0.0046
1655,0.0110,0.0424,0.0601,0.0100
1656,0.0091,0.0529,0.0793,0.0052
1657,0.0086,0.0392,0.0594,0.0047
1658,0.0092,0.0269,0.0453,0.0085
1659,0.0086,0.0331,0.0494,0.0072
1660,0.0130,0.0342,0.0477,0.0063
1661,0.0116,0.0426,0.0575,0.0057
1662,0.0105,0.0711,0.1047,0.0097
1663,0.0120,0.0507,0.0848,0.0069
1664,0.0126,0.0450,0.0591,0.0051
1665,0.0121,0.0432,0.0572,0.0048
1666,0.0157,0.0531,0.0658,0.0088
1667,0.0108,0.0358,0.0479,0.0093
1668,0.0086,0.0392,0.0594,0.0047
1669,0.0083,0.0327,0.0475,0.0044
1670,0.0126,0.0342,0.0519,0.0064
1671,0.0074,0.0337,0.0513,0.0055
1672,0.0078,0.0415,0.0638,0.0058
1673,0.0104,0.0627,0.0915,0.0105
1674,0.0075,0.0526,0.0810,0.0062
1675,0.0074,0.0671,0.1039,0.0083
1676,0.0122,0.0429,0.0716,0.0060
1677,0.0071,0.0585,0.0917,0.0066
1678,0.0107,0.0871,0.1211,0.0098
1679,0.0086,0.0392,0.0594,0.0047
1680,0.0119,0.0523,0.0884,0.0078
1681,0.0075,0.0737,0.1111,0.0101
1682,0.0082,0.0437,0.0446,0.0533
1683,0.0115,0.0692,0.0570,0.0601
1684,0.0110,0.0465,0.0630,0.0356
1685,0.0110,0.0465,0.0630,0.0356
1686,0.0110,0.0465,0.0630,0.0356
1687,0.0110,0.0465,0.0630,0.0356
1688,0.0110,0.0465,0.0630,0.0356
1689,0.0110,0.0465,0.0630,0.0356
1690,0.0086,0.0392,0.0594,0.0047
1691,0.0075,0.0270,0.0352,0.0050
1692,0.0075,0.0270,0.0352,0.0050
1693,0.0139,0.0307,0.0450,0.0061
1694,0.0073,0.0280,0.0360,0.0053
1695,0.0111,0.0417,0.0595,0.0088
1696,0.0120,0.0244,0.0384,0.0054
1697,0.0079,0.0338,0.0525,0.0054
1698,0.0078,0.0389,0.0611,0.0054
1699,0.0121,0.0295,0.0506,0.0055
1700,0.0106,0.0597,0.0897,0.0087
1701,0.0111,0.0533,0.0732,0.0088
1702,0.0071,0.0481,0.0774,0.0060
1703,0.0119,0.0413,0.0717,0.0063
1704,0.0074,0.0557,0.0881,0.0079
1705,0.0076,0.0611,0.0938,0.0099
1706,0.0108,0.0456,0.0662,0.0090
1707,0.0082,0.0359,0.0374,0.0410
1708,0.0069,0.0405,0.0464,0.0381
1709,0.0115,0.0499,0.0484,0.0408
1710,0.0081,0.0350,0.0499,0.0282
1711,0.0119,0.0391,0.0577,0.0196
1712,0.0086,0.0392,0.0594,0.0047
1713,0.0119,0.0267,0.0394,0.0226
1714,0.0075,0.0291,0.0361,0.0136
1715,0.0074,0.0293,0.0345,0.0101
1716,0.0132,0.0296,0.0434,0.0120
1717,0.0112,0.0346,0.0486,0.0058
1718,0.0079,0.0338,0.0525,0.0054
1719,0.0138,0.0292,0.0445,0.0055
1720,0.0074,0.0270,0.0351,0.0129
1721,0.0073,0.0273,0.0352,0.0179
1722,0.0106,0.0483,0.0572,0.0272
1723,0.0086,0.0392,0.0594,0.0047
1724,0.0075,0.0284,0.0378,0.0280
1725,0.0077,0.0321,0.0414,0.0330
1726,0.0119,0.0282,0.0381,0.0352
1727,0.0073,0.0428,0.0473,0.0445
1728,0.0162,0.0535,0.0560,0.0596
1729,0.0125,0.0327,0.0419,0.0521
1730,0.0078,0.0389,0.0611,0.0054
1731,0.0075,0.0270,0.0352,0.0050
1732,0.0139,0.0307,0.0450,0.0061
1733,0.0112,0.0361,0.0500,0.0087
1734,0.0086,0.0392,0.0594,0.0047
1735,0.0075,0.0270,0.0352,0.0050
1736,0.0139,0.0307,0.0450,0.0061
1737,0.0075,0.0270,0.0352,0.0050
1738,0.0075,0.0270,0.0352,0.0050
1739,0.0112,0.0361,0.0500,0.0087
1740,0.0075,0.0270,0.0352,0.0050
1741,0.0075,0.0270,0.0352,0.0050
1742,0.0121,0.0295,0.0506,0.0055
1743,0.0075,0.0270,0.0352,0.0050
1744,0.0112,0.0361,0.0500,0.0087
1745,0.0086,0.0392,0.0594,0.0047
1746,0.0139,0.0307,0.0450,0.0061
1747,0.0075,0.0270,0.0352,0.0050
1748,0.0075,0.0270,0.0352,0.0050
1749,0.0139,0.0307,0.0450,0.0061
1750,0.0112,0.0361,0.0500,0.0087
1751,0.0075,0.0270,0.0352,0.0050
1752,0.0139,0.0307,0.0450,0.0061
1753,0.0075,0.0270,0.0352,0.0050
1754,0.0071,0.0453,0.0726,0.0056
1755,0.0112,0.0361,0.0500,0.0087
1756,0.0117,0.0833,0.1180,0.0095
1757,0.0075,0.0270,0.0352,0.0050
1758,0.0075,0.0270,0.0352,0.0050
1759,0.0139,0.0307,0.0450,0.0061
1760,0.0075,0.0270,0.0352,0.0050
1761,0.0112,0.0361,0.0500,0.0087
1762,0.0139,0.0307,0.0450,0.0061
1763,0.0075,0.0270,0.0352,0.0050
1764,0.0075,0.0270,0.0352,0.0050
1765,0.0139,0.0307,0.0450,0.0061
1766,0.0107,0.0652,0.0961,0.0089
1767,0.0092,0.0604,0.0889,0.0055
1768,0.0086,0.0392,0.0594,0.0047
1769,0.0075,0.0270,0.0352,0.0050
1770,0.0139,0.0307,0.0450,0.0061
1771,0.0075,0.0270,0.0352,0.0050
1772,0.0075,0.0270,0.0352,0.0050
1773,0.0112,0.0361,0.0500,0.0087
1774,0.0090,0.0211,0.0342,0.0092
1775,0.0086,0.0252,0.0372,0.0078
1776,0.0128,0.0276,0.0383,0.0065
1777,0.0119,0.0339,0.0452,0.0057
1778,0.0106,0.0597,0.0897,0.0087
1779,0.0086,0.0392,0.0594,0.0047
1780,0.0119,0.0413,0.0717,0.0063
1781,0.0129,0.0353,0.0462,0.0050
1782,0.0123,0.0333,0.0444,0.0047
1783,0.0159,0.0435,0.0539,0.0075
1784,0.0109,0.0325,0.0383,0.0087
1785,0.0085,0.0259,0.0364,0.0045
1786,0.0128,0.0259,0.0411,0.0056
1787,0.0076,0.0286,0.0412,0.0056
1788,0.0079,0.0338,0.0525,0.0054
1789,0.0104,0.0517,0.0775,0.0090
1790,0.0086,0.0392,0.0594,0.0047
1791,0.0074,0.0425,0.0674,0.0056
1792,0.0074,0.0557,0.0881,0.0079
1793,0.0122,0.0352,0.0605,0.0056
1794,0.0071,0.0481,0.0774,0.0060
1795,0.0108,0.0732,0.1032,0.0098
1796,0.0118,0.0429,0.0749,0.0071
1797,0.0076,0.0611,0.0938,0.0099
1798,0.0082,0.0359,0.0374,0.0410
1799,0.0115,0.0603,0.0494,0.0476
1800,0.0110,0.0405,0.0535,0.0283
1801,0.0086,0.0392,0.0594,0.0047
1802,0.0110,0.0405,0.0535,0.0283
1803,0.0110,0.0405,0.0535,0.0283
1804,0.0110,0.0405,0.0535,0.0283
1805,0.0110,0.0405,0.0535,0.0283
1806,0.0110,0.0405,0.0535,0.0283
1807,0.0077,0.0305,0.0321,0.0048
1808,0.0077,0.0305,0.0321,0.0048
1809,0.0141,0.0181,0.0331,0.0053
1810,0.0075,0.0299,0.0295,0.0048
1811,0.0110,0.0261,0.0377,0.0060
1812,0.0111,0.0533,0.0732,0.0088
1813,0.0121,0.0251,0.0329,0.0057
1814,0.0079,0.0211,0.0318,0.0040
1815,0.0077,0.0219,0.0368,0.0040
1816,0.0121,0.0207,0.0332,0.0052
1817,0.0107,0.0356,0.0581,0.0081
1818,0.0071,0.0269,0.0465,0.0051
1819,0.0118,0.0230,0.0438,0.0053
1820,0.0075,0.0314,0.0533,0.0076
1821,0.0077,0.0345,0.0568,0.0095
1822,0.0107,0.0276,0.0421,0.0062
1823,0.0101,0.0342,0.0552,0.0086
1824,0.0083,0.0251,0.0287,0.0205
1825,0.0068,0.0239,0.0301,0.0196
1826,0.0114,0.0350,0.0350,0.0202
1827,0.0079,0.0207,0.0323,0.0150
1828,0.0117,0.0284,0.0380,0.0129
1829,0.0119,0.0186,0.0300,0.0109
1830,0.0077,0.0306,0.0275,0.0101
1831,0.0076,0.0331,0.0295,0.0089
1832,0.0134,0.0178,0.0318,0.0076
1833,0.0113,0.0269,0.0331,0.0045
1834,0.0093,0.0411,0.0625,0.0081
1835,0.0079,0.0211,0.0318,0.0040
1836,0.0140,0.0183,0.0337,0.0052
1837,0.0076,0.0306,0.0328,0.0090
1838,0.0075,0.0306,0.0326,0.0122
1839,0.0105,0.0277,0.0348,0.0181
1840,0.0076,0.0250,0.0291,0.0180
1841,0.0077,0.0218,0.0280,0.0204
1842,0.0119,0.0393,0.0409,0.0211
1843,0.0070,0.0228,0.0294,0.0260
1844,0.0169,0.0508,0.0566,0.0391
1845,0.0103,0.0467,0.0679,0.0080
1846,0.0122,0.0228,0.0333,0.0274
1847,0.0077,0.0219,0.0368,0.0040
1848,0.0077,0.0305,0.0321,0.0048
1849,0.0141,0.0181,0.0331,0.0053
1850,0.0112,0.0260,0.0329,0.0059
1851,0.0077,0.0305,0.0321,0.0048
1852,0.0141,0.0181,0.0331,0.0053
1853,0.0077,0.0305,0.0321,0.0048
1854,0.0077,0.0305,0.0321,0.0048
1855,0.0112,0.0260,0.0329,0.0059
1856,0.0116,0.0516,0.0723,0.0080
1857,0.0077,0.0305,0.0321,0.0048
1858,0.0077,0.0305,0.0321,0.0048
1859,0.0121,0.0207,0.0332,0.0052
1860,0.0077,0.0305,0.0321,0.0048
1861,0.0112,0.0260,0.0329,0.0059
1862,0.0141,0.0181,0.0331,0.0053
1863,0.0077,0.0305,0.0321,0.0048
1864,0.0077,0.0305,0.0321,0.0048
1865,0.0141,0.0181,0.0331,0.0053
1866,0.0112,0.0260,0.0329,0.0059
1867,0.0113,0.0784,0.1120,0.0094
1868,0.0077,0.0305,0.0321,0.0048
1869,0.0141,0.0181,0.0331,0.0053
1870,0.0077,0.0305,0.0321,0.0048
1871,0.0070,0.0255,0.0438,0.0044
1872,0.0112,0.0260,0.0329,0.0059
1873,0.0077,0.0305,0.0321,0.0048
1874,0.0077,0.0305,0.0321,0.0048
1875,0.0141,0.0181,0.0331,0.0053
1876,0.0077,0.0305,0.0321,0.0048
1877,0.0112,0.0260,0.0329,0.0059
1878,0.0091,0.0650,0.0957,0.0058
1879,0.0092,0.0706,0.1078,0.0079
1880,0.0141,0.0181,0.0331,0.0053
1881,0.0077,0.0305,0.0321,0.0048
1882,0.0077,0.0305,0.0321,0.0048
1883,0.0141,0.0181,0.0331,0.0053
1884,0.0108,0.0392,0.0626,0.0091
1885,0.0077,0.0305,0.0321,0.0048
1886,0.0141,0.0181,0.0331,0.0053
1887,0.0077,0.0305,0.0321,0.0048
1888,0.0077,0.0305,0.0321,0.0048
1889,0.0112,0.0260,0.0329,0.0059
1890,0.0125,0.0548,0.0744,0.0073
1891,0.0087,0.0251,0.0376,0.0102
1892,0.0089,0.0214,0.0342,0.0082
1893,0.0124,0.0254,0.0421,0.0086
1894,0.0123,0.0198,0.0318,0.0056
1895,0.0107,0.0356,0.0581,0.0081
1896,0.0118,0.0230,0.0438,0.0053
1897,0.0133,0.0193,0.0304,0.0047
1898,0.0126,0.0177,0.0292,0.0044
1899,0.0162,0.0273,0.0386,0.0061
1900,0.0110,0.0355,0.0356,0.0066
1901,0.0121,0.0536,0.0730,0.0066
1902,0.0088,0.0241,0.0302,0.0043
1903,0.0130,0.0198,0.0326,0.0053
1904,0.0078,0.0240,0.0273,0.0044
1905,0.0079,0.0211,0.0318,0.0040
1906,0.0104,0.0310,0.0496,0.0069
1907,0.0073,0.0240,0.0410,0.0041
1908,0.0075,0.0314,0.0533,0.0076
1909,0.0121,0.0208,0.0382,0.0050
1910,0.0071,0.0269,0.0465,0.0051
1911,0.0108,0.0433,0.0666,0.0103
1912,0.0112,0.0501,0.0695,0.0058
1913,0.0118,0.0243,0.0455,0.0059
1914,0.0077,0.0345,0.0568,0.0095
1915,0.0083,0.0251,0.0287,0.0205
1916,0.0114,0.0431,0.0353,0.0241
1917,0.0108,0.0308,0.0357,0.0174
1918,0.0108,0.0308,0.0357,0.0174
1919,0.0108,0.0308,0.0357,0.0174
1920,0.0108,0.0308,0.0357,0.0174
1921,0.0108,0.0308,0.0357,0.0174
1922,0.0108,0.0308,0.0357,0.0174
1923,0.0108,0.0438,0.0589,0.0083
1924,0.0077,0.0395,0.0424,0.0040
1925,0.0077,0.0395,0.0424,0.0040
1926,0.0140,0.0206,0.0374,0.0055
1927,0.0075,0.0371,0.0367,0.0038
1928,0.0109,0.0242,0.0289,0.0053
1929,0.0121,0.0350,0.0418,0.0064
1930,0.0078,0.0226,0.0240,0.0033
1931,0.0075,0.0197,0.0237,0.0034
1932,0.0121,0.0233,0.0277,0.0052
1933,0.0107,0.0270,0.0423,0.0087
1934,0.0092,0.0423,0.0623,0.0048
1935,0.0071,0.0229,0.0290,0.0050
1936,0.0118,0.0208,0.0271,0.0049
1937,0.0076,0.0241,0.0341,0.0074
1938,0.0077,0.0240,0.0368,0.0089
1939,0.0107,0.0230,0.0304,0.0057
1940,0.0085,0.0265,0.0312,0.0158
1941,0.0067,0.0163,0.0231,0.0130
1942,0.0114,0.0237,0.0282,0.0086
1943,0.0077,0.0155,0.0223,0.0121
1944,0.0116,0.0295,0.0281,0.0128
1945,0.0085,0.0389,0.0600,0.0049
1946,0.0118,0.0236,0.0333,0.0121
1947,0.0077,0.0358,0.0314,0.0127
1948,0.0077,0.0387,0.0354,0.0111
1949,0.0133,0.0205,0.0349,0.0090
1950,0.0112,0.0294,0.0301,0.0036
1951,0.0078,0.0226,0.0240,0.0033
1952,0.0141,0.0223,0.0392,0.0050
1953,0.0077,0.0389,0.0431,0.0083
1954,0.0076,0.0386,0.0426,0.0118
1955,0.0105,0.0232,0.0296,0.0184
1956,0.0088,0.0432,0.0668,0.0052
1957,0.0076,0.0321,0.0364,0.0180
1958,0.0076,0.0262,0.0319,0.0203
1959,0.0118,0.0536,0.0561,0.0178
1960,0.0068,0.0240,0.0325,0.0235
1961,0.0176,0.0624,0.0684,0.0348
1962,0.0120,0.0315,0.0413,0.0195
1963,0.0075,0.0197,0.0237,0.0034
1964,0.0077,0.0395,0.0424,0.0040
1965,0.0140,0.0206,0.0374,0.0055
1966,0.0112,0.0272,0.0296,0.0052
1967,0.0091,0.0529,0.0793,0.0052
1968,0.0077,0.0395,0.0424,0.0040
1969,0.0140,0.0206,0.0374,0.0055
1970,0.0077,0.0395,0.0424,0.0040
1971,0.0077,0.0395,0.0424,0.0040
1972,0.0112,0.0272,0.0296,0.0052
1973,0.0077,0.0395,0.0424,0.0040
1974,0.0077,0.0395,0.0424,0.0040
1975,0.0121,0.0233,0.0277,0.0052
1976,0.0077,0.0395,0.0424,0.0040
1977,0.0112,0.0272,0.0296,0.0052
1978,0.0108,0.0729,0.1022,0.0095
1979,0.0140,0.0206,0.0374,0.0055
1980,0.0077,0.0395,0.0424,0.0040
1981,0.0077,0.0395,0.0424,0.0040
1982,0.0140,0.0206,0.0374,0.0055
1983,0.0112,0.0272,0.0296,0.0052
1984,0.0077,0.0395,0.0424,0.0040
1985,0.0140,0.0206,0.0374,0.0055
1986,0.0077,0.0395,0.0424,0.0040
1987,0.0070,0.0212,0.0270,0.0042
1988,0.0112,0.0272,0.0296,0.0052
1989,0.0113,0.0784,0.1120,0.0094
1990,0.0091,0.0650,0.0957,0.0058
1991,0.0077,0.0395,0.0424,0.0040
1992,0.0077,0.0395,0.0424,0.0040
1993,0.0140,0.0206,0.0374,0.0055
1994,0.0077,0.0395,0.0424,0.0040
1995,0.0112,0.0272,0.0296,0.0052
1996,0.0140,0.0206,0.0374,0.0055
1997,0.0077,0.0395,0.0424,0.0040
1998,0.0077,0.0395,0.0424,0.0040
1999,0.0140,0.0206,0.0374,0.0055
2000,0.0108,0.0273,0.0458,0.0097
2001,0.0097,0.0737,0.1123,0.0093
2002,0.0077,0.0395,0.0424,0.0040
2003,0.0140,0.0206,0.0374,0.0055
2004,0.0077,0.0395,0.0424,0.0040
2005,0.0077,0.0395,0.0424,0.0040
2006,0.0112,0.0272,0.0296,0.0052
2007,0.0086,0.0364,0.0564,0.0104
2008,0.0090,0.0292,0.0495,0.0082
2009,0.0123,0.0331,0.0594,0.0106
2010,0.0123,0.0185,0.0385,0.0053
2011,0.0107,0.0270,0.0423,0.0087
2012,0.0089,0.0667,0.0996,0.0063
2013,0.0118,0.0208,0.0271,0.0049
2014,0.0132,0.0152,0.0336,0.0044
2015,0.0127,0.0166,0.0336,0.0041
2016,0.0162,0.0187,0.0381,0.0058
2017,0.0112,0.0414,0.0434,0.0052
2018,0.0088,0.0334,0.0407,0.0037
2019,0.0129,0.0274,0.0397,0.0059
2020,0.0078,0.0272,0.0271,0.0033
2021,0.0078,0.0226,0.0240,0.0033
2022,0.0104,0.0254,0.0359,0.0069
2023,0.0090,0.0683,0.1035,0.0070
2024,0.0072,0.0193,0.0250,0.0037
2025,0.0076,0.0241,0.0341,0.0074
2026,0.0121,0.0210,0.0268,0.0050
2027,0.0071,0.0229,0.0290,0.0050
2028,0.0108,0.0280,0.0492,0.0107
2029,0.0118,0.0225,0.0276,0.0053
2030,0.0077,0.0240,0.0368,0.0089
2031,0.0085,0.0265,0.0312,0.0158
2032,0.0114,0.0300,0.0283,0.0093
2033,0.0107,0.0321,0.0282,0.0158
2034,0.0124,0.0905,0.1246,0.0102
2035,0.0107,0.0321,0.0282,0.0158
2036,0.0107,0.0321,0.0282,0.0158
2037,0.0107,0.0321,0.0282,0.0158
2038,0.0107,0.0321,0.0282,0.0158
2039,0.0107,0.0321,0.0282,0.0158
2040,0.0077,0.0447,0.0487,0.0038
2041,0.0077,0.0447,0.0487,0.0038
2042,0.0140,0.0253,0.0426,0.0059
2043,0.0076,0.0409,0.0416,0.0035
2044,0.0109,0.0279,0.0309,0.0056
2045,0.0097,0.0737,0.1123,0.0093
2046,0.0121,0.0396,0.0471,0.0067
2047,0.0077,0.0271,0.0268,0.0032
2048,0.0076,0.0239,0.0249,0.0033
2049,0.0121,0.0288,0.0305,0.0055
2050,0.0108,0.0308,0.0428,0.0089
2051,0.0071,0.0278,0.0294,0.0050
2052,0.0118,0.0259,0.0269,0.0049
2053,0.0076,0.0293,0.0346,0.0073
2054,0.0077,0.0285,0.0373,0.0086
2055,0.0106,0.0265,0.0313,0.0059
2056,0.0103,0.0788,0.1177,0.0113
2057,0.0086,0.0303,0.0351,0.0190
2058,0.0067,0.0186,0.0247,0.0154
2059,0.0113,0.0211,0.0288,0.0102
2060,0.0077,0.0184,0.0229,0.0144
2061,0.0116,0.0326,0.0288,0.0143
2062,0.0118,0.0274,0.0369,0.0152
2063,0.0077,0.0395,0.0359,0.0145
2064,0.0077,0.0427,0.0404,0.0126
2065,0.0132,0.0254,0.0398,0.0107
2066,0.0112,0.0342,0.0339,0.0034
2067,0.0101,0.0537,0.0561,0.0557
2068,0.0077,0.0271,0.0268,0.0032
2069,0.0140,0.0270,0.0446,0.0050
2070,0.0077,0.0437,0.0492,0.0090
2071,0.0076,0.0432,0.0485,0.0132
2072,0.0105,0.0269,0.0328,0.0205
2073,0.0076,0.0369,0.0419,0.0204
2074,0.0076,0.0314,0.0372,0.0231
2075,0.0118,0.0582,0.0621,0.0199
2076,0.0067,0.0293,0.0377,0.0267
2077,0.0179,0.0700,0.0755,0.0373
2078,0.0085,0.0600,0.0693,0.0517
2079,0.0119,0.0384,0.0477,0.0226
2080,0.0076,0.0239,0.0249,0.0033
2081,0.0077,0.0447,0.0487,0.0038
2082,0.0140,0.0253,0.0426,0.0059
2083,0.0111,0.0318,0.0333,0.0054
2084,0.0077,0.0447,0.0487,0.0038
2085,0.0140,0.0253,0.0426,0.0059
2086,0.0077,0.0447,0.0487,0.0038
2087,0.0077,0.0447,0.0487,0.0038
2088,0.0111,0.0318,0.0333,0.0054
2089,0.0111,0.0544,0.0766,0.0381
2090,0.0077,0.0447,0.0487,0.0038
2091,0.0077,0.0447,0.0487,0.0038
2092,0.0121,0.0288,0.0305,0.0055
2093,0.0077,0.0447,0.0487,0.0038
2094,0.0111,0.0318,0.0333,0.0054
2095,0.0140,0.0253,0.0426,0.0059
2096,0.0077,0.0447,0.0487,0.0038
2097,0.0077,0.0447,0.0487,0.0038
2098,0.0140,0.0253,0.0426,0.0059
2099,0.0111,0.0318,0.0333,0.0054
Highest RMSE Cases
Vdc  Max RMSE=  0.0196 at Case 1146
Idc  Max RMSE=  0.0905 at Case 2034
Id   Max RMSE=  0.1246 at Case 2034
Iq   Max RMSE=  0.0740 at Case 96
Total Error Summary
Vdc  RMSE=  0.0096
Idc  RMSE=  0.0373
Id   RMSE=  0.0478
Iq   RMSE=  0.0146
