Read Model from: ./ucf3z/
Export Model to: ./ucf3z/ucf3z_fhf.json
idx_in [0, 1, 2, 3, 4, 5, 6]
idx_out [7, 8, 9, 10]
make_mimo_block iir
H1s[0][0]  Real Poles: [-147.16375324  -16.85715166] Freqs [Hz]: []
H1s[0][1]  Real Poles: [-151.3703574   -4.4176321] Freqs [Hz]: []
H1s[0][2]  Real Poles: [-135.19540169  -23.78403209] Freqs [Hz]: []
H1s[0][3]  Real Poles: [-112.84667904  -78.90483906] Freqs [Hz]: []
H1s[1][0]  Real Poles: [-96.93049695 -96.93049695] Freqs [Hz]: [1.4026926082937652]
H1s[1][1]  Real Poles: [-131.41819911  -54.0272258 ] Freqs [Hz]: []
H1s[1][2]  Real Poles: [-152.20458328   -1.5931505 ] Freqs [Hz]: []
H1s[1][3]  Real Poles: [-112.63312905  -82.34107175] Freqs [Hz]: []
H1s[2][0]  Real Poles: [-135.58372967  -39.51268532] Freqs [Hz]: []
H1s[2][1]  Real Poles: [-145.56210108  -21.53791718] Freqs [Hz]: []
H1s[2][2]  Real Poles: [-128.57347742  -42.74313137] Freqs [Hz]: []
H1s[2][3]  Real Poles: [-108.16900819  -85.11554435] Freqs [Hz]: []
H1s[3][0]  Real Poles: [-134.94939758  -40.94065772] Freqs [Hz]: []
H1s[3][1]  Real Poles: [-129.27299197  -58.33772291] Freqs [Hz]: []
H1s[3][2]  Real Poles: [-132.88175171  -41.26406605] Freqs [Hz]: []
H1s[3][3]  Real Poles: [-144.58591652  -21.9788431 ] Freqs [Hz]: []
model_folder = ./ucf3z/
model_root = ucf3z
data_path = d:/data/ucf3/ucf3z.hdf5
idx_in [0, 1, 2, 3, 4, 5, 6]
idx_out [7, 8, 9, 10]
read 1698 dataframes
dt=0.010000 data_len=401 n_io=11 n_case=1698
['G', 'Ud', 'Uq', 'Vd', 'Vq', 'GVrms', 'Ctrl'] ['Vdc', 'Idc', 'Id', 'Iq'] (1698, 401, 11)
make_mimo_block iir
Idx,Vdc,Idc,Id,Iq,Vdc,Idc,Id,Iq
,RMSE,RMSE,RMSE,RMSE,MAE,MAE,MAE,MAE
Total,0.0455,0.0992,0.0968,0.0112,0.0131,0.0329,0.0328,0.0053
0,0.0443,0.0989,0.0983,0.0078,0.0104,0.0322,0.0347,0.0037
1,0.0443,0.0989,0.0983,0.0078,0.0104,0.0322,0.0347,0.0037
2,0.0445,0.1047,0.1010,0.0086,0.0120,0.0391,0.0376,0.0048
3,0.0443,0.0972,0.0958,0.0077,0.0108,0.0303,0.0312,0.0035
4,0.0442,0.0996,0.0981,0.0078,0.0102,0.0337,0.0331,0.0035
5,0.0442,0.0996,0.0981,0.0078,0.0102,0.0337,0.0331,0.0035
6,0.0442,0.0996,0.0981,0.0078,0.0102,0.0337,0.0331,0.0035
7,0.0443,0.0997,0.0978,0.0078,0.0110,0.0348,0.0338,0.0037
8,0.0443,0.0997,0.0978,0.0078,0.0110,0.0348,0.0338,0.0037
9,0.0444,0.1029,0.1006,0.0078,0.0113,0.0407,0.0397,0.0037
10,0.0444,0.1084,0.1055,0.0078,0.0111,0.0496,0.0468,0.0037
11,0.0445,0.1122,0.1082,0.0078,0.0119,0.0550,0.0509,0.0036
12,0.0446,0.1127,0.1078,0.0080,0.0121,0.0551,0.0497,0.0038
13,0.0445,0.1098,0.1044,0.0083,0.0120,0.0485,0.0424,0.0044
14,0.0443,0.0972,0.0958,0.0077,0.0108,0.0303,0.0312,0.0035
15,0.0446,0.1072,0.1017,0.0088,0.0124,0.0426,0.0372,0.0051
16,0.0446,0.1073,0.1013,0.0094,0.0127,0.0403,0.0362,0.0058
17,0.0447,0.1096,0.1021,0.0100,0.0132,0.0440,0.0360,0.0064
18,0.0449,0.1161,0.1060,0.0104,0.0137,0.0535,0.0410,0.0070
19,0.0444,0.1029,0.1006,0.0078,0.0113,0.0407,0.0397,0.0037
20,0.0445,0.1054,0.0980,0.0386,0.0117,0.0456,0.0373,0.0253
21,0.0446,0.1072,0.1007,0.0341,0.0130,0.0476,0.0412,0.0219
22,0.0447,0.1067,0.1025,0.0295,0.0134,0.0476,0.0445,0.0185
23,0.0446,0.1046,0.1017,0.0248,0.0130,0.0448,0.0433,0.0149
24,0.0445,0.1009,0.0989,0.0203,0.0119,0.0380,0.0380,0.0117
25,0.0443,0.0972,0.0958,0.0077,0.0108,0.0303,0.0312,0.0035
26,0.0445,0.0993,0.0973,0.0173,0.0115,0.0339,0.0337,0.0097
27,0.0445,0.0989,0.0970,0.0158,0.0117,0.0332,0.0324,0.0089
28,0.0444,0.0992,0.0973,0.0141,0.0116,0.0337,0.0327,0.0083
29,0.0444,0.0998,0.0979,0.0118,0.0115,0.0351,0.0339,0.0069
30,0.0443,0.0998,0.0982,0.0093,0.0108,0.0344,0.0335,0.0052
31,0.0444,0.1084,0.1055,0.0078,0.0111,0.0496,0.0468,0.0037
32,0.0443,0.0991,0.0977,0.0085,0.0103,0.0318,0.0323,0.0050
33,0.0444,0.0991,0.0977,0.0102,0.0117,0.0321,0.0329,0.0067
34,0.0446,0.0992,0.0978,0.0116,0.0129,0.0335,0.0335,0.0074
35,0.0447,0.0998,0.0983,0.0129,0.0135,0.0353,0.0345,0.0085
36,0.0443,0.0973,0.0956,0.0077,0.0105,0.0309,0.0313,0.0035
37,0.0447,0.1008,0.0997,0.0147,0.0134,0.0347,0.0347,0.0098
38,0.0446,0.1036,0.1027,0.0183,0.0124,0.0372,0.0393,0.0118
39,0.0445,0.1099,0.1078,0.0241,0.0122,0.0469,0.0477,0.0152
40,0.0446,0.1142,0.1096,0.0311,0.0129,0.0519,0.0497,0.0197
41,0.0452,0.1146,0.1064,0.0383,0.0148,0.0539,0.0433,0.0242
42,0.0466,0.1115,0.1024,0.0453,0.0185,0.0542,0.0435,0.0286
43,0.0445,0.1122,0.1082,0.0078,0.0119,0.0550,0.0509,0.0036
44,0.0442,0.0996,0.0981,0.0078,0.0102,0.0337,0.0331,0.0035
45,0.0442,0.0996,0.0981,0.0078,0.0102,0.0337,0.0331,0.0035
46,0.0442,0.0996,0.0981,0.0078,0.0102,0.0337,0.0331,0.0035
47,0.0443,0.0973,0.0956,0.0077,0.0105,0.0309,0.0313,0.0035
48,0.0442,0.0996,0.0981,0.0078,0.0102,0.0337,0.0331,0.0035
49,0.0442,0.0996,0.0981,0.0078,0.0102,0.0337,0.0331,0.0035
50,0.0442,0.0996,0.0981,0.0078,0.0102,0.0337,0.0331,0.0035
51,0.0442,0.0996,0.0981,0.0078,0.0102,0.0337,0.0331,0.0035
52,0.0442,0.0996,0.0981,0.0078,0.0102,0.0337,0.0331,0.0035
53,0.0442,0.0996,0.0981,0.0078,0.0102,0.0337,0.0331,0.0035
54,0.0442,0.0996,0.0981,0.0078,0.0102,0.0337,0.0331,0.0035
55,0.0446,0.1127,0.1078,0.0080,0.0121,0.0551,0.0497,0.0038
56,0.0442,0.0996,0.0981,0.0078,0.0102,0.0337,0.0331,0.0035
57,0.0442,0.0996,0.0981,0.0078,0.0102,0.0337,0.0331,0.0035
58,0.0443,0.0997,0.0982,0.0077,0.0112,0.0370,0.0371,0.0035
59,0.0442,0.0996,0.0981,0.0078,0.0102,0.0337,0.0331,0.0035
60,0.0442,0.0996,0.0981,0.0078,0.0102,0.0337,0.0331,0.0035
61,0.0442,0.0996,0.0981,0.0078,0.0102,0.0337,0.0331,0.0035
62,0.0442,0.0996,0.0981,0.0078,0.0102,0.0337,0.0331,0.0035
63,0.0442,0.0996,0.0981,0.0078,0.0102,0.0337,0.0331,0.0035
64,0.0442,0.0996,0.0981,0.0078,0.0102,0.0337,0.0331,0.0035
65,0.0442,0.0996,0.0981,0.0078,0.0102,0.0337,0.0331,0.0035
66,0.0442,0.0996,0.0981,0.0078,0.0102,0.0337,0.0331,0.0035
67,0.0445,0.1098,0.1044,0.0083,0.0120,0.0485,0.0424,0.0044
68,0.0442,0.0996,0.0981,0.0078,0.0102,0.0337,0.0331,0.0035
69,0.0445,0.1041,0.1027,0.0078,0.0122,0.0458,0.0457,0.0036
70,0.0442,0.0996,0.0981,0.0078,0.0102,0.0337,0.0331,0.0035
71,0.0442,0.0996,0.0981,0.0078,0.0102,0.0337,0.0331,0.0035
72,0.0442,0.0996,0.0981,0.0078,0.0102,0.0337,0.0331,0.0035
73,0.0442,0.0996,0.0981,0.0078,0.0102,0.0337,0.0331,0.0035
74,0.0442,0.0996,0.0981,0.0078,0.0102,0.0337,0.0331,0.0035
75,0.0442,0.0996,0.0981,0.0078,0.0102,0.0337,0.0331,0.0035
76,0.0442,0.0996,0.0981,0.0078,0.0102,0.0337,0.0331,0.0035
77,0.0442,0.0996,0.0981,0.0078,0.0102,0.0337,0.0331,0.0035
78,0.0442,0.0996,0.0981,0.0078,0.0102,0.0337,0.0331,0.0035
79,0.0446,0.1072,0.1017,0.0088,0.0124,0.0426,0.0372,0.0051
80,0.0446,0.1068,0.1048,0.0078,0.0128,0.0496,0.0484,0.0035
81,0.0442,0.0996,0.0981,0.0078,0.0102,0.0337,0.0331,0.0035
82,0.0442,0.0996,0.0981,0.0078,0.0102,0.0337,0.0331,0.0035
83,0.0442,0.0996,0.0981,0.0078,0.0102,0.0337,0.0331,0.0035
84,0.0442,0.0996,0.0981,0.0078,0.0102,0.0337,0.0331,0.0035
85,0.0442,0.0996,0.0981,0.0078,0.0102,0.0337,0.0331,0.0035
86,0.0464,0.1023,0.1030,0.0082,0.0189,0.0457,0.0453,0.0042
87,0.0449,0.0972,0.1021,0.0089,0.0139,0.0328,0.0460,0.0051
88,0.0445,0.1019,0.1089,0.0096,0.0115,0.0431,0.0507,0.0059
89,0.0446,0.1095,0.1172,0.0100,0.0123,0.0566,0.0636,0.0064
90,0.0445,0.1098,0.1044,0.0083,0.0120,0.0485,0.0424,0.0044
91,0.0446,0.1061,0.1036,0.0078,0.0129,0.0478,0.0460,0.0034
92,0.0446,0.1073,0.1013,0.0094,0.0127,0.0403,0.0362,0.0058
93,0.0450,0.1185,0.1246,0.0098,0.0146,0.0680,0.0733,0.0062
94,0.0449,0.1175,0.1221,0.0093,0.0146,0.0666,0.0711,0.0058
95,0.0447,0.1125,0.1153,0.0086,0.0137,0.0598,0.0629,0.0051
96,0.0445,0.1077,0.1088,0.0081,0.0125,0.0519,0.0540,0.0044
97,0.0443,0.1026,0.1023,0.0078,0.0110,0.0416,0.0426,0.0038
98,0.0443,0.0997,0.0978,0.0078,0.0110,0.0348,0.0338,0.0037
99,0.0444,0.1029,0.1006,0.0078,0.0113,0.0407,0.0397,0.0037
100,0.0444,0.1084,0.1055,0.0078,0.0111,0.0496,0.0468,0.0037
101,0.0445,0.1122,0.1082,0.0078,0.0119,0.0550,0.0509,0.0036
102,0.0445,0.1029,0.1000,0.0079,0.0124,0.0400,0.0381,0.0038
103,0.0446,0.1127,0.1078,0.0080,0.0121,0.0551,0.0497,0.0038
104,0.0447,0.1096,0.1021,0.0100,0.0132,0.0440,0.0360,0.0064
105,0.0445,0.1098,0.1044,0.0083,0.0120,0.0485,0.0424,0.0044
106,0.0446,0.1072,0.1017,0.0088,0.0124,0.0426,0.0372,0.0051
107,0.0446,0.1073,0.1013,0.0094,0.0127,0.0403,0.0362,0.0058
108,0.0447,0.1096,0.1021,0.0100,0.0132,0.0440,0.0360,0.0064
109,0.0449,0.1161,0.1060,0.0104,0.0137,0.0535,0.0410,0.0070
110,0.0445,0.1054,0.0980,0.0386,0.0117,0.0456,0.0373,0.0253
111,0.0446,0.1072,0.1007,0.0341,0.0130,0.0476,0.0412,0.0219
112,0.0447,0.1067,0.1025,0.0295,0.0134,0.0476,0.0445,0.0185
113,0.0446,0.1049,0.1008,0.0092,0.0124,0.0397,0.0377,0.0055
114,0.0445,0.1010,0.0978,0.0082,0.0121,0.0352,0.0343,0.0044
115,0.0442,0.0979,0.0960,0.0077,0.0100,0.0320,0.0310,0.0033
116,0.0442,0.0979,0.0960,0.0077,0.0100,0.0320,0.0310,0.0033
117,0.0442,0.0979,0.0960,0.0077,0.0100,0.0320,0.0310,0.0033
118,0.0443,0.0982,0.0961,0.0077,0.0103,0.0333,0.0322,0.0035
119,0.0443,0.0982,0.0961,0.0077,0.0103,0.0333,0.0322,0.0035
120,0.0443,0.1013,0.0988,0.0077,0.0107,0.0394,0.0378,0.0035
121,0.0444,0.1064,0.1034,0.0077,0.0119,0.0490,0.0459,0.0034
122,0.0446,0.1098,0.1056,0.0077,0.0126,0.0538,0.0492,0.0034
123,0.0446,0.1093,0.1046,0.0078,0.0128,0.0526,0.0471,0.0035
124,0.0446,0.1058,0.1010,0.0080,0.0123,0.0453,0.0393,0.0040
125,0.0445,0.1008,0.0974,0.0087,0.0121,0.0351,0.0342,0.0050
126,0.0446,0.1034,0.0985,0.0083,0.0121,0.0395,0.0344,0.0046
127,0.0446,0.1031,0.0980,0.0088,0.0123,0.0365,0.0333,0.0052
128,0.0447,0.1047,0.0985,0.0093,0.0128,0.0399,0.0328,0.0058
129,0.0449,0.1099,0.1013,0.0099,0.0136,0.0487,0.0368,0.0064
130,0.0443,0.1013,0.0988,0.0077,0.0107,0.0394,0.0378,0.0035
131,0.0445,0.1006,0.0957,0.0284,0.0117,0.0387,0.0324,0.0194
132,0.0446,0.1029,0.0977,0.0257,0.0132,0.0426,0.0370,0.0172
133,0.0447,0.1032,0.0997,0.0228,0.0137,0.0437,0.0410,0.0148
134,0.0447,0.1022,0.0994,0.0197,0.0135,0.0426,0.0410,0.0122
135,0.0446,0.0991,0.0970,0.0163,0.0125,0.0359,0.0354,0.0094
136,0.0447,0.1017,0.0978,0.0091,0.0126,0.0365,0.0344,0.0057
137,0.0445,0.0979,0.0957,0.0144,0.0116,0.0325,0.0320,0.0080
138,0.0445,0.0976,0.0954,0.0135,0.0114,0.0319,0.0309,0.0077
139,0.0444,0.0976,0.0954,0.0123,0.0112,0.0320,0.0306,0.0072
140,0.0444,0.0984,0.0961,0.0107,0.0112,0.0338,0.0321,0.0063
141,0.0443,0.0982,0.0961,0.0087,0.0108,0.0328,0.0313,0.0047
142,0.0444,0.1064,0.1034,0.0077,0.0119,0.0490,0.0459,0.0034
143,0.0442,0.0975,0.0957,0.0084,0.0100,0.0302,0.0304,0.0049
144,0.0443,0.0975,0.0959,0.0097,0.0115,0.0305,0.0314,0.0063
145,0.0446,0.0977,0.0961,0.0106,0.0129,0.0322,0.0323,0.0066
146,0.0447,0.0982,0.0966,0.0114,0.0136,0.0335,0.0328,0.0074
147,0.0449,0.1049,0.0997,0.0096,0.0133,0.0410,0.0360,0.0063
148,0.0448,0.0989,0.0976,0.0123,0.0137,0.0328,0.0327,0.0082
149,0.0446,0.1013,0.1003,0.0147,0.0129,0.0355,0.0372,0.0096
150,0.0445,0.1068,0.1051,0.0193,0.0118,0.0448,0.0462,0.0126
151,0.0444,0.1098,0.1060,0.0245,0.0121,0.0485,0.0470,0.0162
152,0.0449,0.1094,0.1028,0.0302,0.0139,0.0496,0.0405,0.0199
153,0.0461,0.1068,0.0998,0.0356,0.0176,0.0496,0.0410,0.0234
154,0.0446,0.1098,0.1056,0.0077,0.0126,0.0538,0.0492,0.0034
155,0.0442,0.0979,0.0960,0.0077,0.0100,0.0320,0.0310,0.0033
156,0.0442,0.0979,0.0960,0.0077,0.0100,0.0320,0.0310,0.0033
157,0.0442,0.0979,0.0960,0.0077,0.0100,0.0320,0.0310,0.0033
158,0.0443,0.0997,0.0982,0.0077,0.0112,0.0370,0.0371,0.0035
159,0.0442,0.0979,0.0960,0.0077,0.0100,0.0320,0.0310,0.0033
160,0.0442,0.0979,0.0960,0.0077,0.0100,0.0320,0.0310,0.0033
161,0.0442,0.0979,0.0960,0.0077,0.0100,0.0320,0.0310,0.0033
162,0.0442,0.0979,0.0960,0.0077,0.0100,0.0320,0.0310,0.0033
163,0.0442,0.0979,0.0960,0.0077,0.0100,0.0320,0.0310,0.0033
164,0.0442,0.0979,0.0960,0.0077,0.0100,0.0320,0.0310,0.0033
165,0.0442,0.0979,0.0960,0.0077,0.0100,0.0320,0.0310,0.0033
166,0.0446,0.1093,0.1046,0.0078,0.0128,0.0526,0.0471,0.0035
167,0.0442,0.0979,0.0960,0.0077,0.0100,0.0320,0.0310,0.0033
168,0.0442,0.0979,0.0960,0.0077,0.0100,0.0320,0.0310,0.0033
169,0.0445,0.1017,0.0966,0.0291,0.0118,0.0414,0.0358,0.0199
170,0.0442,0.0979,0.0960,0.0077,0.0100,0.0320,0.0310,0.0033
171,0.0442,0.0979,0.0960,0.0077,0.0100,0.0320,0.0310,0.0033
172,0.0442,0.0979,0.0960,0.0077,0.0100,0.0320,0.0310,0.0033
173,0.0442,0.0979,0.0960,0.0077,0.0100,0.0320,0.0310,0.0033
174,0.0442,0.0979,0.0960,0.0077,0.0100,0.0320,0.0310,0.0033
175,0.0442,0.0979,0.0960,0.0077,0.0100,0.0320,0.0310,0.0033
176,0.0442,0.0979,0.0960,0.0077,0.0100,0.0320,0.0310,0.0033
177,0.0442,0.0979,0.0960,0.0077,0.0100,0.0320,0.0310,0.0033
178,0.0446,0.1058,0.1010,0.0080,0.0123,0.0453,0.0393,0.0040
179,0.0442,0.0979,0.0960,0.0077,0.0100,0.0320,0.0310,0.0033
180,0.0446,0.1035,0.0995,0.0258,0.0130,0.0439,0.0406,0.0173
181,0.0442,0.0979,0.0960,0.0077,0.0100,0.0320,0.0310,0.0033
182,0.0442,0.0979,0.0960,0.0077,0.0100,0.0320,0.0310,0.0033
183,0.0442,0.0979,0.0960,0.0077,0.0100,0.0320,0.0310,0.0033
184,0.0442,0.0979,0.0960,0.0077,0.0100,0.0320,0.0310,0.0033
185,0.0442,0.0979,0.0960,0.0077,0.0100,0.0320,0.0310,0.0033
186,0.0442,0.0979,0.0960,0.0077,0.0100,0.0320,0.0310,0.0033
187,0.0442,0.0979,0.0960,0.0077,0.0100,0.0320,0.0310,0.0033
188,0.0442,0.0979,0.0960,0.0077,0.0100,0.0320,0.0310,0.0033
189,0.0442,0.0979,0.0960,0.0077,0.0100,0.0320,0.0310,0.0033
190,0.0446,0.1034,0.0985,0.0083,0.0121,0.0395,0.0344,0.0046
191,0.0447,0.1028,0.1009,0.0220,0.0135,0.0431,0.0433,0.0145
192,0.0442,0.0979,0.0960,0.0077,0.0100,0.0320,0.0310,0.0033
193,0.0442,0.0979,0.0960,0.0077,0.0100,0.0320,0.0310,0.0033
194,0.0442,0.0979,0.0960,0.0077,0.0100,0.0320,0.0310,0.0033
195,0.0442,0.0979,0.0960,0.0077,0.0100,0.0320,0.0310,0.0033
196,0.0442,0.0979,0.0960,0.0077,0.0100,0.0320,0.0310,0.0033
197,0.0463,0.1029,0.1022,0.0082,0.0185,0.0472,0.0447,0.0039
198,0.0448,0.0964,0.0983,0.0087,0.0135,0.0307,0.0403,0.0046
199,0.0445,0.1002,0.1036,0.0093,0.0116,0.0405,0.0453,0.0053
200,0.0447,0.1076,0.1116,0.0097,0.0127,0.0546,0.0588,0.0058
201,0.0446,0.1058,0.1010,0.0080,0.0123,0.0453,0.0393,0.0040
202,0.0447,0.1010,0.0999,0.0184,0.0133,0.0403,0.0418,0.0117
203,0.0446,0.1031,0.0980,0.0088,0.0123,0.0365,0.0333,0.0052
204,0.0450,0.1156,0.1187,0.0094,0.0150,0.0654,0.0686,0.0057
205,0.0450,0.1147,0.1168,0.0090,0.0150,0.0641,0.0666,0.0053
206,0.0448,0.1102,0.1109,0.0084,0.0141,0.0579,0.0591,0.0046
207,0.0445,0.1053,0.1048,0.0079,0.0129,0.0497,0.0501,0.0040
208,0.0443,0.1006,0.0992,0.0077,0.0115,0.0395,0.0391,0.0035
209,0.0443,0.0982,0.0961,0.0077,0.0103,0.0333,0.0322,0.0035
210,0.0443,0.1013,0.0988,0.0077,0.0107,0.0394,0.0378,0.0035
211,0.0444,0.1064,0.1034,0.0077,0.0119,0.0490,0.0459,0.0034
212,0.0446,0.1098,0.1056,0.0077,0.0126,0.0538,0.0492,0.0034
213,0.0445,0.0979,0.0968,0.0148,0.0123,0.0332,0.0355,0.0087
214,0.0446,0.1093,0.1046,0.0078,0.0128,0.0526,0.0471,0.0035
215,0.0447,0.1047,0.0985,0.0093,0.0128,0.0399,0.0328,0.0058
216,0.0446,0.1058,0.1010,0.0080,0.0123,0.0453,0.0393,0.0040
217,0.0446,0.1034,0.0985,0.0083,0.0121,0.0395,0.0344,0.0046
218,0.0446,0.1031,0.0980,0.0088,0.0123,0.0365,0.0333,0.0052
219,0.0447,0.1047,0.0985,0.0093,0.0128,0.0399,0.0328,0.0058
220,0.0449,0.1099,0.1013,0.0099,0.0136,0.0487,0.0368,0.0064
221,0.0445,0.1006,0.0957,0.0284,0.0117,0.0387,0.0324,0.0194
222,0.0446,0.1029,0.0977,0.0257,0.0132,0.0426,0.0370,0.0172
223,0.0447,0.1032,0.0997,0.0228,0.0137,0.0437,0.0410,0.0148
224,0.0447,0.1064,0.1014,0.0097,0.0129,0.0417,0.0382,0.0062
225,0.0445,0.0967,0.0951,0.0130,0.0115,0.0297,0.0310,0.0074
226,0.0443,0.0955,0.0933,0.0077,0.0110,0.0286,0.0280,0.0033
227,0.0443,0.0955,0.0933,0.0077,0.0110,0.0286,0.0280,0.0033
228,0.0443,0.0955,0.0933,0.0077,0.0110,0.0286,0.0280,0.0033
229,0.0443,0.0958,0.0936,0.0077,0.0111,0.0299,0.0295,0.0034
230,0.0443,0.0958,0.0936,0.0077,0.0111,0.0299,0.0295,0.0034
231,0.0444,0.0987,0.0959,0.0076,0.0121,0.0376,0.0344,0.0032
232,0.0446,0.1027,0.0994,0.0076,0.0132,0.0465,0.0422,0.0032
233,0.0448,0.1049,0.1010,0.0076,0.0140,0.0502,0.0455,0.0032
234,0.0448,0.1038,0.0997,0.0077,0.0141,0.0481,0.0426,0.0032
235,0.0447,0.1001,0.0962,0.0077,0.0137,0.0402,0.0340,0.0033
236,0.0444,0.0965,0.0949,0.0123,0.0114,0.0295,0.0301,0.0072
237,0.0447,0.0975,0.0942,0.0078,0.0134,0.0325,0.0293,0.0037
238,0.0447,0.0967,0.0937,0.0080,0.0133,0.0292,0.0286,0.0041
239,0.0448,0.0974,0.0935,0.0085,0.0140,0.0312,0.0268,0.0046
240,0.0451,0.1007,0.0947,0.0093,0.0151,0.0398,0.0289,0.0053
241,0.0444,0.0987,0.0959,0.0076,0.0121,0.0376,0.0344,0.0032
242,0.0444,0.0966,0.0947,0.0164,0.0116,0.0316,0.0330,0.0104
243,0.0447,0.0970,0.0938,0.0138,0.0135,0.0322,0.0284,0.0085
244,0.0449,0.0980,0.0952,0.0124,0.0144,0.0361,0.0338,0.0075
245,0.0449,0.0975,0.0953,0.0111,0.0142,0.0354,0.0341,0.0063
246,0.0447,0.0964,0.0942,0.0101,0.0137,0.0321,0.0309,0.0053
247,0.0444,0.0964,0.0947,0.0113,0.0113,0.0292,0.0296,0.0067
248,0.0446,0.0957,0.0935,0.0097,0.0130,0.0295,0.0286,0.0049
249,0.0446,0.0955,0.0932,0.0096,0.0127,0.0287,0.0277,0.0052
250,0.0445,0.0955,0.0932,0.0095,0.0126,0.0289,0.0277,0.0054
251,0.0445,0.0961,0.0936,0.0088,0.0126,0.0306,0.0290,0.0050
252,0.0444,0.0958,0.0934,0.0079,0.0121,0.0296,0.0283,0.0038
253,0.0446,0.1027,0.0994,0.0076,0.0132,0.0465,0.0422,0.0032
254,0.0442,0.0952,0.0933,0.0083,0.0099,0.0273,0.0285,0.0048
255,0.0443,0.0954,0.0937,0.0090,0.0111,0.0281,0.0301,0.0055
256,0.0446,0.0955,0.0940,0.0090,0.0129,0.0298,0.0309,0.0052
257,0.0448,0.0958,0.0941,0.0089,0.0141,0.0309,0.0307,0.0051
258,0.0444,0.0970,0.0954,0.0102,0.0115,0.0304,0.0307,0.0060
259,0.0449,0.0961,0.0946,0.0090,0.0144,0.0292,0.0291,0.0052
260,0.0448,0.0978,0.0966,0.0094,0.0140,0.0329,0.0340,0.0056
261,0.0446,0.1011,0.0999,0.0108,0.0129,0.0395,0.0418,0.0070
262,0.0444,0.1025,0.1001,0.0130,0.0111,0.0418,0.0420,0.0091
263,0.0444,0.1015,0.0974,0.0158,0.0119,0.0418,0.0354,0.0114
264,0.0452,0.0999,0.0963,0.0183,0.0155,0.0401,0.0365,0.0132
265,0.0448,0.1049,0.1010,0.0076,0.0140,0.0502,0.0455,0.0032
266,0.0443,0.0955,0.0933,0.0077,0.0110,0.0286,0.0280,0.0033
267,0.0443,0.0955,0.0933,0.0077,0.0110,0.0286,0.0280,0.0033
268,0.0443,0.0955,0.0933,0.0077,0.0110,0.0286,0.0280,0.0033
269,0.0443,0.0972,0.0957,0.0087,0.0114,0.0302,0.0310,0.0050
270,0.0443,0.0955,0.0933,0.0077,0.0110,0.0286,0.0280,0.0033
271,0.0443,0.0955,0.0933,0.0077,0.0110,0.0286,0.0280,0.0033
272,0.0443,0.0955,0.0933,0.0077,0.0110,0.0286,0.0280,0.0033
273,0.0443,0.0955,0.0933,0.0077,0.0110,0.0286,0.0280,0.0033
274,0.0443,0.0955,0.0933,0.0077,0.0110,0.0286,0.0280,0.0033
275,0.0443,0.0955,0.0933,0.0077,0.0110,0.0286,0.0280,0.0033
276,0.0443,0.0955,0.0933,0.0077,0.0110,0.0286,0.0280,0.0033
277,0.0448,0.1038,0.0997,0.0077,0.0141,0.0481,0.0426,0.0032
278,0.0443,0.0955,0.0933,0.0077,0.0110,0.0286,0.0280,0.0033
279,0.0443,0.0955,0.0933,0.0077,0.0110,0.0286,0.0280,0.0033
280,0.0445,0.1041,0.1027,0.0078,0.0122,0.0458,0.0457,0.0036
281,0.0443,0.0955,0.0933,0.0077,0.0110,0.0286,0.0280,0.0033
282,0.0443,0.0955,0.0933,0.0077,0.0110,0.0286,0.0280,0.0033
283,0.0443,0.0955,0.0933,0.0077,0.0110,0.0286,0.0280,0.0033
284,0.0443,0.0955,0.0933,0.0077,0.0110,0.0286,0.0280,0.0033
285,0.0443,0.0955,0.0933,0.0077,0.0110,0.0286,0.0280,0.0033
286,0.0443,0.0955,0.0933,0.0077,0.0110,0.0286,0.0280,0.0033
287,0.0443,0.0955,0.0933,0.0077,0.0110,0.0286,0.0280,0.0033
288,0.0443,0.0955,0.0933,0.0077,0.0110,0.0286,0.0280,0.0033
289,0.0447,0.1001,0.0962,0.0077,0.0137,0.0402,0.0340,0.0033
290,0.0443,0.0955,0.0933,0.0077,0.0110,0.0286,0.0280,0.0033
291,0.0442,0.0969,0.0955,0.0080,0.0102,0.0292,0.0303,0.0043
292,0.0443,0.0955,0.0933,0.0077,0.0110,0.0286,0.0280,0.0033
293,0.0443,0.0955,0.0933,0.0077,0.0110,0.0286,0.0280,0.0033
294,0.0443,0.0955,0.0933,0.0077,0.0110,0.0286,0.0280,0.0033
295,0.0443,0.0955,0.0933,0.0077,0.0110,0.0286,0.0280,0.0033
296,0.0443,0.0955,0.0933,0.0077,0.0110,0.0286,0.0280,0.0033
297,0.0443,0.0955,0.0933,0.0077,0.0110,0.0286,0.0280,0.0033
298,0.0443,0.0955,0.0933,0.0077,0.0110,0.0286,0.0280,0.0033
299,0.0443,0.0955,0.0933,0.0077,0.0110,0.0286,0.0280,0.0033
300,0.0443,0.0955,0.0933,0.0077,0.0110,0.0286,0.0280,0.0033
301,0.0447,0.0975,0.0942,0.0078,0.0134,0.0325,0.0293,0.0037
302,0.0443,0.0969,0.0955,0.0090,0.0103,0.0300,0.0306,0.0054
303,0.0443,0.0955,0.0933,0.0077,0.0110,0.0286,0.0280,0.0033
304,0.0443,0.0955,0.0933,0.0077,0.0110,0.0286,0.0280,0.0033
305,0.0443,0.0955,0.0933,0.0077,0.0110,0.0286,0.0280,0.0033
306,0.0443,0.0955,0.0933,0.0077,0.0110,0.0286,0.0280,0.0033
307,0.0443,0.0955,0.0933,0.0077,0.0110,0.0286,0.0280,0.0033
308,0.0461,0.1046,0.1042,0.0084,0.0178,0.0509,0.0510,0.0047
309,0.0447,0.0958,0.0946,0.0086,0.0129,0.0303,0.0311,0.0045
310,0.0445,0.0976,0.0964,0.0090,0.0120,0.0358,0.0350,0.0045
311,0.0448,0.1038,0.1023,0.0093,0.0134,0.0499,0.0488,0.0048
312,0.0447,0.1001,0.0962,0.0077,0.0137,0.0402,0.0340,0.0033
313,0.0444,0.0972,0.0956,0.0099,0.0115,0.0318,0.0314,0.0061
314,0.0447,0.0967,0.0937,0.0080,0.0133,0.0292,0.0286,0.0041
315,0.0452,0.1113,0.1095,0.0090,0.0157,0.0611,0.0597,0.0048
316,0.0452,0.1106,0.1083,0.0086,0.0157,0.0601,0.0582,0.0044
317,0.0450,0.1063,0.1037,0.0081,0.0149,0.0539,0.0516,0.0039
318,0.0447,0.1021,0.0992,0.0078,0.0139,0.0465,0.0436,0.0034
319,0.0445,0.0978,0.0951,0.0076,0.0125,0.0367,0.0335,0.0032
320,0.0443,0.0958,0.0936,0.0077,0.0111,0.0299,0.0295,0.0034
321,0.0444,0.0987,0.0959,0.0076,0.0121,0.0376,0.0344,0.0032
322,0.0446,0.1027,0.0994,0.0076,0.0132,0.0465,0.0422,0.0032
323,0.0448,0.1049,0.1010,0.0076,0.0140,0.0502,0.0455,0.0032
324,0.0445,0.0979,0.0963,0.0110,0.0122,0.0335,0.0325,0.0075
325,0.0448,0.1038,0.0997,0.0077,0.0141,0.0481,0.0426,0.0032
326,0.0448,0.0974,0.0935,0.0085,0.0140,0.0312,0.0268,0.0046
327,0.0447,0.1001,0.0962,0.0077,0.0137,0.0402,0.0340,0.0033
328,0.0447,0.0975,0.0942,0.0078,0.0134,0.0325,0.0293,0.0037
329,0.0447,0.0967,0.0937,0.0080,0.0133,0.0292,0.0286,0.0041
330,0.0448,0.0974,0.0935,0.0085,0.0140,0.0312,0.0268,0.0046
331,0.0451,0.1007,0.0947,0.0093,0.0151,0.0398,0.0289,0.0053
332,0.0444,0.0966,0.0947,0.0164,0.0116,0.0316,0.0330,0.0104
333,0.0447,0.0970,0.0938,0.0138,0.0135,0.0322,0.0284,0.0085
334,0.0449,0.0980,0.0952,0.0124,0.0144,0.0361,0.0338,0.0075
335,0.0448,0.1110,0.1044,0.0101,0.0134,0.0467,0.0412,0.0067
336,0.0445,0.0987,0.0973,0.0122,0.0123,0.0336,0.0327,0.0086
337,0.0444,0.0945,0.0925,0.0077,0.0117,0.0267,0.0273,0.0036
338,0.0444,0.0945,0.0925,0.0077,0.0117,0.0267,0.0273,0.0036
339,0.0444,0.0945,0.0925,0.0077,0.0117,0.0267,0.0273,0.0036
340,0.0444,0.0948,0.0929,0.0077,0.0119,0.0280,0.0285,0.0036
341,0.0444,0.0948,0.0929,0.0077,0.0119,0.0280,0.0285,0.0036
342,0.0446,0.0975,0.0946,0.0076,0.0131,0.0369,0.0319,0.0034
343,0.0448,0.1000,0.0968,0.0076,0.0140,0.0429,0.0380,0.0031
344,0.0450,0.1014,0.0980,0.0076,0.0148,0.0458,0.0408,0.0030
345,0.0451,0.1004,0.0969,0.0076,0.0151,0.0438,0.0380,0.0033
346,0.0450,0.0969,0.0941,0.0077,0.0146,0.0349,0.0299,0.0035
347,0.0445,0.1015,0.1004,0.0149,0.0117,0.0385,0.0381,0.0102
348,0.0449,0.0951,0.0930,0.0078,0.0143,0.0281,0.0280,0.0036
349,0.0449,0.0946,0.0928,0.0079,0.0144,0.0254,0.0277,0.0039
350,0.0450,0.0947,0.0925,0.0084,0.0150,0.0258,0.0259,0.0046
351,0.0454,0.0963,0.0923,0.0095,0.0162,0.0331,0.0239,0.0061
352,0.0446,0.0975,0.0946,0.0076,0.0131,0.0369,0.0319,0.0034
353,0.0444,0.0983,0.0971,0.0229,0.0116,0.0372,0.0386,0.0163
354,0.0447,0.0957,0.0934,0.0168,0.0137,0.0299,0.0289,0.0119
355,0.0450,0.0959,0.0936,0.0128,0.0148,0.0302,0.0283,0.0089
356,0.0450,0.0956,0.0936,0.0108,0.0147,0.0296,0.0286,0.0072
357,0.0449,0.0951,0.0931,0.0090,0.0144,0.0285,0.0274,0.0054
358,0.0444,0.1071,0.1048,0.0196,0.0116,0.0463,0.0459,0.0131
359,0.0448,0.0948,0.0928,0.0084,0.0140,0.0274,0.0276,0.0046
360,0.0448,0.0946,0.0925,0.0082,0.0138,0.0268,0.0267,0.0040
361,0.0448,0.0947,0.0925,0.0082,0.0137,0.0271,0.0272,0.0041
362,0.0447,0.0951,0.0928,0.0080,0.0136,0.0286,0.0286,0.0040
363,0.0446,0.0948,0.0925,0.0076,0.0131,0.0271,0.0270,0.0032
364,0.0448,0.1000,0.0968,0.0076,0.0140,0.0429,0.0380,0.0031
365,0.0443,0.0943,0.0928,0.0083,0.0103,0.0258,0.0280,0.0047
366,0.0443,0.0945,0.0933,0.0086,0.0109,0.0262,0.0294,0.0050
367,0.0446,0.0947,0.0935,0.0083,0.0130,0.0278,0.0297,0.0043
368,0.0449,0.0950,0.0934,0.0083,0.0145,0.0288,0.0293,0.0043
369,0.0445,0.1100,0.1055,0.0249,0.0122,0.0502,0.0459,0.0167
370,0.0451,0.0950,0.0934,0.0088,0.0152,0.0266,0.0272,0.0054
371,0.0451,0.0961,0.0948,0.0092,0.0151,0.0300,0.0311,0.0057
372,0.0449,0.0977,0.0967,0.0098,0.0143,0.0341,0.0368,0.0063
373,0.0445,0.0982,0.0967,0.0108,0.0127,0.0351,0.0368,0.0072
374,0.0444,0.0975,0.0946,0.0123,0.0111,0.0346,0.0298,0.0081
375,0.0448,0.0980,0.0959,0.0143,0.0138,0.0351,0.0359,0.0094
376,0.0450,0.1014,0.0980,0.0076,0.0148,0.0458,0.0408,0.0030
377,0.0444,0.0945,0.0925,0.0077,0.0117,0.0267,0.0273,0.0036
378,0.0444,0.0945,0.0925,0.0077,0.0117,0.0267,0.0273,0.0036
379,0.0444,0.0945,0.0925,0.0077,0.0117,0.0267,0.0273,0.0036
380,0.0449,0.1096,0.1022,0.0306,0.0142,0.0518,0.0419,0.0204
381,0.0444,0.0945,0.0925,0.0077,0.0117,0.0267,0.0273,0.0036
382,0.0444,0.0945,0.0925,0.0077,0.0117,0.0267,0.0273,0.0036
383,0.0444,0.0945,0.0925,0.0077,0.0117,0.0267,0.0273,0.0036
384,0.0444,0.0945,0.0925,0.0077,0.0117,0.0267,0.0273,0.0036
385,0.0444,0.0945,0.0925,0.0077,0.0117,0.0267,0.0273,0.0036
386,0.0444,0.0945,0.0925,0.0077,0.0117,0.0267,0.0273,0.0036
387,0.0444,0.0945,0.0925,0.0077,0.0117,0.0267,0.0273,0.0036
388,0.0451,0.1004,0.0969,0.0076,0.0151,0.0438,0.0380,0.0033
389,0.0444,0.0945,0.0925,0.0077,0.0117,0.0267,0.0273,0.0036
390,0.0444,0.0945,0.0925,0.0077,0.0117,0.0267,0.0273,0.0036
391,0.0461,0.1073,0.1001,0.0360,0.0177,0.0516,0.0424,0.0240
392,0.0444,0.0945,0.0925,0.0077,0.0117,0.0267,0.0273,0.0036
393,0.0444,0.0945,0.0925,0.0077,0.0117,0.0267,0.0273,0.0036
394,0.0444,0.0945,0.0925,0.0077,0.0117,0.0267,0.0273,0.0036
395,0.0444,0.0945,0.0925,0.0077,0.0117,0.0267,0.0273,0.0036
396,0.0444,0.0945,0.0925,0.0077,0.0117,0.0267,0.0273,0.0036
397,0.0444,0.0945,0.0925,0.0077,0.0117,0.0267,0.0273,0.0036
398,0.0444,0.0945,0.0925,0.0077,0.0117,0.0267,0.0273,0.0036
399,0.0444,0.0945,0.0925,0.0077,0.0117,0.0267,0.0273,0.0036
400,0.0450,0.0969,0.0941,0.0077,0.0146,0.0349,0.0299,0.0035
401,0.0444,0.0945,0.0925,0.0077,0.0117,0.0267,0.0273,0.0036
402,0.0446,0.1068,0.1048,0.0078,0.0128,0.0496,0.0484,0.0035
403,0.0444,0.0945,0.0925,0.0077,0.0117,0.0267,0.0273,0.0036
404,0.0444,0.0945,0.0925,0.0077,0.0117,0.0267,0.0273,0.0036
405,0.0444,0.0945,0.0925,0.0077,0.0117,0.0267,0.0273,0.0036
406,0.0444,0.0945,0.0925,0.0077,0.0117,0.0267,0.0273,0.0036
407,0.0444,0.0945,0.0925,0.0077,0.0117,0.0267,0.0273,0.0036
408,0.0444,0.0945,0.0925,0.0077,0.0117,0.0267,0.0273,0.0036
409,0.0444,0.0945,0.0925,0.0077,0.0117,0.0267,0.0273,0.0036
410,0.0444,0.0945,0.0925,0.0077,0.0117,0.0267,0.0273,0.0036
411,0.0444,0.0945,0.0925,0.0077,0.0117,0.0267,0.0273,0.0036
412,0.0449,0.0951,0.0930,0.0078,0.0143,0.0281,0.0280,0.0036
413,0.0443,0.0972,0.0958,0.0077,0.0108,0.0303,0.0312,0.0035
414,0.0444,0.0945,0.0925,0.0077,0.0117,0.0267,0.0273,0.0036
415,0.0444,0.0945,0.0925,0.0077,0.0117,0.0267,0.0273,0.0036
416,0.0444,0.0945,0.0925,0.0077,0.0117,0.0267,0.0273,0.0036
417,0.0444,0.0945,0.0925,0.0077,0.0117,0.0267,0.0273,0.0036
418,0.0444,0.0945,0.0925,0.0077,0.0117,0.0267,0.0273,0.0036
419,0.0460,0.1070,0.1089,0.0088,0.0174,0.0550,0.0593,0.0053
420,0.0447,0.0961,0.0953,0.0089,0.0129,0.0319,0.0347,0.0052
421,0.0446,0.0964,0.0937,0.0091,0.0122,0.0319,0.0268,0.0050
422,0.0448,0.1012,0.0974,0.0093,0.0135,0.0455,0.0406,0.0048
423,0.0450,0.0969,0.0941,0.0077,0.0146,0.0349,0.0299,0.0035
424,0.0443,0.0972,0.0958,0.0077,0.0108,0.0303,0.0312,0.0035
425,0.0449,0.0946,0.0928,0.0079,0.0144,0.0254,0.0277,0.0039
426,0.0453,0.1080,0.1035,0.0089,0.0159,0.0570,0.0521,0.0044
427,0.0453,0.1080,0.1036,0.0085,0.0161,0.0569,0.0520,0.0041
428,0.0451,0.1041,0.0997,0.0081,0.0153,0.0510,0.0457,0.0038
429,0.0448,0.0998,0.0961,0.0078,0.0142,0.0428,0.0376,0.0036
430,0.0446,0.0961,0.0932,0.0077,0.0129,0.0332,0.0286,0.0036
431,0.0444,0.0948,0.0929,0.0077,0.0119,0.0280,0.0285,0.0036
432,0.0446,0.0975,0.0946,0.0076,0.0131,0.0369,0.0319,0.0034
433,0.0448,0.1000,0.0968,0.0076,0.0140,0.0429,0.0380,0.0031
434,0.0450,0.1014,0.0980,0.0076,0.0148,0.0458,0.0408,0.0030
435,0.0443,0.0972,0.0958,0.0077,0.0108,0.0303,0.0312,0.0035
436,0.0451,0.1004,0.0969,0.0076,0.0151,0.0438,0.0380,0.0033
437,0.0450,0.0947,0.0925,0.0084,0.0150,0.0258,0.0259,0.0046
438,0.0450,0.0969,0.0941,0.0077,0.0146,0.0349,0.0299,0.0035
439,0.0449,0.0951,0.0930,0.0078,0.0143,0.0281,0.0280,0.0036
440,0.0449,0.0946,0.0928,0.0079,0.0144,0.0254,0.0277,0.0039
441,0.0450,0.0947,0.0925,0.0084,0.0150,0.0258,0.0259,0.0046
442,0.0454,0.0963,0.0923,0.0095,0.0162,0.0331,0.0239,0.0061
443,0.0444,0.0983,0.0971,0.0229,0.0116,0.0372,0.0386,0.0163
444,0.0447,0.0957,0.0934,0.0168,0.0137,0.0299,0.0289,0.0119
445,0.0450,0.0959,0.0936,0.0128,0.0148,0.0302,0.0283,0.0089
446,0.0443,0.1013,0.1001,0.0078,0.0106,0.0382,0.0388,0.0037
447,0.0443,0.0972,0.0958,0.0077,0.0108,0.0303,0.0312,0.0035
448,0.0445,0.0944,0.0928,0.0078,0.0119,0.0269,0.0283,0.0038
449,0.0445,0.0944,0.0928,0.0078,0.0119,0.0269,0.0283,0.0038
450,0.0445,0.0944,0.0928,0.0078,0.0119,0.0269,0.0283,0.0038
451,0.0445,0.0946,0.0925,0.0077,0.0123,0.0268,0.0270,0.0037
452,0.0445,0.0946,0.0925,0.0077,0.0123,0.0268,0.0270,0.0037
453,0.0447,0.0970,0.0943,0.0077,0.0134,0.0359,0.0307,0.0035
454,0.0449,0.0991,0.0961,0.0076,0.0143,0.0409,0.0359,0.0033
455,0.0451,0.1008,0.0974,0.0076,0.0152,0.0449,0.0397,0.0030
456,0.0452,0.0996,0.0963,0.0076,0.0154,0.0422,0.0363,0.0033
457,0.0450,0.0961,0.0938,0.0077,0.0149,0.0321,0.0298,0.0036
458,0.0443,0.0972,0.0958,0.0077,0.0108,0.0303,0.0312,0.0035
459,0.0450,0.0948,0.0930,0.0078,0.0148,0.0278,0.0284,0.0039
460,0.0450,0.0945,0.0934,0.0080,0.0147,0.0262,0.0295,0.0041
461,0.0452,0.0943,0.0927,0.0085,0.0154,0.0254,0.0268,0.0049
462,0.0456,0.0954,0.0919,0.0097,0.0167,0.0306,0.0231,0.0065
463,0.0447,0.0970,0.0943,0.0077,0.0134,0.0359,0.0307,0.0035
464,0.0444,0.1003,0.0991,0.0282,0.0115,0.0412,0.0422,0.0198
465,0.0447,0.0959,0.0938,0.0205,0.0138,0.0311,0.0304,0.0146
466,0.0450,0.0955,0.0934,0.0154,0.0148,0.0285,0.0278,0.0110
467,0.0451,0.0954,0.0934,0.0125,0.0149,0.0288,0.0285,0.0086
468,0.0450,0.0949,0.0929,0.0101,0.0146,0.0276,0.0277,0.0064
469,0.0443,0.0972,0.0958,0.0077,0.0108,0.0303,0.0312,0.0035
470,0.0449,0.0947,0.0927,0.0086,0.0143,0.0269,0.0272,0.0048
471,0.0449,0.0945,0.0924,0.0081,0.0142,0.0263,0.0265,0.0039
472,0.0449,0.0945,0.0926,0.0080,0.0141,0.0269,0.0274,0.0037
473,0.0449,0.0949,0.0927,0.0078,0.0142,0.0278,0.0280,0.0036
474,0.0447,0.0945,0.0926,0.0076,0.0134,0.0269,0.0276,0.0030
475,0.0449,0.0991,0.0961,0.0076,0.0143,0.0409,0.0359,0.0033
476,0.0443,0.0943,0.0933,0.0082,0.0103,0.0262,0.0295,0.0047
477,0.0443,0.0945,0.0936,0.0084,0.0109,0.0261,0.0301,0.0048
478,0.0446,0.0947,0.0936,0.0082,0.0131,0.0273,0.0301,0.0039
479,0.0450,0.0949,0.0934,0.0084,0.0148,0.0283,0.0293,0.0046
480,0.0443,0.0972,0.0958,0.0077,0.0108,0.0303,0.0312,0.0035
481,0.0452,0.0948,0.0932,0.0093,0.0156,0.0250,0.0257,0.0061
482,0.0453,0.0956,0.0943,0.0104,0.0156,0.0282,0.0294,0.0070
483,0.0451,0.0968,0.0958,0.0117,0.0149,0.0317,0.0348,0.0081
484,0.0447,0.0975,0.0962,0.0126,0.0134,0.0334,0.0358,0.0091
485,0.0444,0.0966,0.0942,0.0146,0.0119,0.0317,0.0284,0.0107
486,0.0447,0.0983,0.0962,0.0173,0.0130,0.0368,0.0378,0.0126
487,0.0451,0.1008,0.0974,0.0076,0.0152,0.0449,0.0397,0.0030
488,0.0445,0.0944,0.0928,0.0078,0.0119,0.0269,0.0283,0.0038
489,0.0445,0.0944,0.0928,0.0078,0.0119,0.0269,0.0283,0.0038
490,0.0445,0.0944,0.0928,0.0078,0.0119,0.0269,0.0283,0.0038
491,0.0443,0.0972,0.0958,0.0077,0.0108,0.0303,0.0312,0.0035
492,0.0445,0.0944,0.0928,0.0078,0.0119,0.0269,0.0283,0.0038
493,0.0445,0.0944,0.0928,0.0078,0.0119,0.0269,0.0283,0.0038
494,0.0445,0.0944,0.0928,0.0078,0.0119,0.0269,0.0283,0.0038
495,0.0445,0.0944,0.0928,0.0078,0.0119,0.0269,0.0283,0.0038
496,0.0445,0.0944,0.0928,0.0078,0.0119,0.0269,0.0283,0.0038
497,0.0445,0.0944,0.0928,0.0078,0.0119,0.0269,0.0283,0.0038
498,0.0445,0.0944,0.0928,0.0078,0.0119,0.0269,0.0283,0.0038
499,0.0452,0.0996,0.0963,0.0076,0.0154,0.0422,0.0363,0.0033
500,0.0445,0.0944,0.0928,0.0078,0.0119,0.0269,0.0283,0.0038
501,0.0445,0.0944,0.0928,0.0078,0.0119,0.0269,0.0283,0.0038
502,0.0443,0.0972,0.0958,0.0077,0.0108,0.0303,0.0312,0.0035
503,0.0445,0.0944,0.0928,0.0078,0.0119,0.0269,0.0283,0.0038
504,0.0445,0.0944,0.0928,0.0078,0.0119,0.0269,0.0283,0.0038
505,0.0445,0.0944,0.0928,0.0078,0.0119,0.0269,0.0283,0.0038
506,0.0445,0.0944,0.0928,0.0078,0.0119,0.0269,0.0283,0.0038
507,0.0445,0.0944,0.0928,0.0078,0.0119,0.0269,0.0283,0.0038
508,0.0445,0.0944,0.0928,0.0078,0.0119,0.0269,0.0283,0.0038
509,0.0445,0.0944,0.0928,0.0078,0.0119,0.0269,0.0283,0.0038
510,0.0445,0.0944,0.0928,0.0078,0.0119,0.0269,0.0283,0.0038
511,0.0450,0.0961,0.0938,0.0077,0.0149,0.0321,0.0298,0.0036
512,0.0445,0.0944,0.0928,0.0078,0.0119,0.0269,0.0283,0.0038
513,0.0443,0.0972,0.0958,0.0077,0.0108,0.0303,0.0312,0.0035
514,0.0445,0.0944,0.0928,0.0078,0.0119,0.0269,0.0283,0.0038
515,0.0445,0.0944,0.0928,0.0078,0.0119,0.0269,0.0283,0.0038
516,0.0445,0.0944,0.0928,0.0078,0.0119,0.0269,0.0283,0.0038
517,0.0445,0.0944,0.0928,0.0078,0.0119,0.0269,0.0283,0.0038
518,0.0445,0.0944,0.0928,0.0078,0.0119,0.0269,0.0283,0.0038
519,0.0445,0.0944,0.0928,0.0078,0.0119,0.0269,0.0283,0.0038
520,0.0445,0.0944,0.0928,0.0078,0.0119,0.0269,0.0283,0.0038
521,0.0445,0.0944,0.0928,0.0078,0.0119,0.0269,0.0283,0.0038
522,0.0445,0.0944,0.0928,0.0078,0.0119,0.0269,0.0283,0.0038
523,0.0450,0.0948,0.0930,0.0078,0.0148,0.0278,0.0284,0.0039
524,0.0446,0.1061,0.1036,0.0078,0.0129,0.0478,0.0460,0.0034
525,0.0445,0.0944,0.0928,0.0078,0.0119,0.0269,0.0283,0.0038
526,0.0445,0.0944,0.0928,0.0078,0.0119,0.0269,0.0283,0.0038
527,0.0445,0.0944,0.0928,0.0078,0.0119,0.0269,0.0283,0.0038
528,0.0445,0.0944,0.0928,0.0078,0.0119,0.0269,0.0283,0.0038
529,0.0445,0.0944,0.0928,0.0078,0.0119,0.0269,0.0283,0.0038
530,0.0459,0.1079,0.1115,0.0089,0.0173,0.0564,0.0629,0.0055
531,0.0447,0.0964,0.0964,0.0090,0.0128,0.0333,0.0380,0.0054
532,0.0446,0.0961,0.0935,0.0092,0.0122,0.0301,0.0263,0.0053
533,0.0448,0.1005,0.0962,0.0094,0.0136,0.0439,0.0373,0.0051
534,0.0450,0.0961,0.0938,0.0077,0.0149,0.0321,0.0298,0.0036
535,0.0443,0.0972,0.0958,0.0077,0.0108,0.0303,0.0312,0.0035
536,0.0450,0.0945,0.0934,0.0080,0.0147,0.0262,0.0295,0.0041
537,0.0453,0.1071,0.1019,0.0090,0.0160,0.0556,0.0493,0.0046
538,0.0454,0.1073,0.1022,0.0086,0.0163,0.0560,0.0499,0.0043
539,0.0452,0.1032,0.0984,0.0081,0.0155,0.0497,0.0432,0.0040
540,0.0449,0.0992,0.0953,0.0079,0.0145,0.0421,0.0359,0.0039
541,0.0447,0.0959,0.0930,0.0078,0.0133,0.0329,0.0283,0.0037
542,0.0445,0.0946,0.0925,0.0077,0.0123,0.0268,0.0270,0.0037
543,0.0447,0.0970,0.0943,0.0077,0.0134,0.0359,0.0307,0.0035
544,0.0449,0.0991,0.0961,0.0076,0.0143,0.0409,0.0359,0.0033
545,0.0451,0.1008,0.0974,0.0076,0.0152,0.0449,0.0397,0.0030
546,0.0443,0.0972,0.0958,0.0077,0.0108,0.0303,0.0312,0.0035
547,0.0452,0.0996,0.0963,0.0076,0.0154,0.0422,0.0363,0.0033
548,0.0452,0.0943,0.0927,0.0085,0.0154,0.0254,0.0268,0.0049
549,0.0450,0.0961,0.0938,0.0077,0.0149,0.0321,0.0298,0.0036
550,0.0450,0.0948,0.0930,0.0078,0.0148,0.0278,0.0284,0.0039
551,0.0450,0.0945,0.0934,0.0080,0.0147,0.0262,0.0295,0.0041
552,0.0452,0.0943,0.0927,0.0085,0.0154,0.0254,0.0268,0.0049
553,0.0456,0.0954,0.0919,0.0097,0.0167,0.0306,0.0231,0.0065
554,0.0444,0.1003,0.0991,0.0282,0.0115,0.0412,0.0422,0.0198
555,0.0447,0.0959,0.0938,0.0205,0.0138,0.0311,0.0304,0.0146
556,0.0450,0.0955,0.0934,0.0154,0.0148,0.0285,0.0278,0.0110
557,0.0445,0.1073,0.1002,0.0397,0.0119,0.0487,0.0417,0.0258
558,0.0443,0.0972,0.0958,0.0077,0.0108,0.0303,0.0312,0.0035
559,0.0443,0.0972,0.0958,0.0077,0.0108,0.0303,0.0312,0.0035
560,0.0443,0.0972,0.0958,0.0077,0.0108,0.0303,0.0312,0.0035
561,0.0443,0.0972,0.0958,0.0077,0.0108,0.0303,0.0312,0.0035
562,0.0443,0.0972,0.0958,0.0077,0.0108,0.0303,0.0312,0.0035
563,0.0443,0.0972,0.0958,0.0077,0.0108,0.0303,0.0312,0.0035
564,0.0443,0.0972,0.0958,0.0077,0.0108,0.0303,0.0312,0.0035
565,0.0443,0.0972,0.0958,0.0077,0.0108,0.0303,0.0312,0.0035
566,0.0445,0.1029,0.1000,0.0079,0.0124,0.0400,0.0381,0.0038
567,0.0443,0.0972,0.0958,0.0077,0.0108,0.0303,0.0312,0.0035
568,0.0446,0.1082,0.1032,0.0343,0.0129,0.0492,0.0452,0.0220
569,0.0443,0.0972,0.0958,0.0077,0.0108,0.0303,0.0312,0.0035
570,0.0443,0.0972,0.0958,0.0077,0.0108,0.0303,0.0312,0.0035
571,0.0443,0.0972,0.0958,0.0077,0.0108,0.0303,0.0312,0.0035
572,0.0443,0.0972,0.0958,0.0077,0.0108,0.0303,0.0312,0.0035
573,0.0443,0.0972,0.0958,0.0077,0.0108,0.0303,0.0312,0.0035
574,0.0443,0.0972,0.0958,0.0077,0.0108,0.0303,0.0312,0.0035
575,0.0443,0.0972,0.0958,0.0077,0.0108,0.0303,0.0312,0.0035
576,0.0443,0.0972,0.0958,0.0077,0.0108,0.0303,0.0312,0.0035
577,0.0443,0.0972,0.0958,0.0077,0.0108,0.0303,0.0312,0.0035
578,0.0445,0.1010,0.0978,0.0082,0.0121,0.0352,0.0343,0.0044
579,0.0446,0.1068,0.1045,0.0290,0.0132,0.0476,0.0474,0.0184
580,0.0443,0.0972,0.0958,0.0077,0.0108,0.0303,0.0312,0.0035
581,0.0443,0.0972,0.0958,0.0077,0.0108,0.0303,0.0312,0.0035
582,0.0443,0.0972,0.0958,0.0077,0.0108,0.0303,0.0312,0.0035
583,0.0443,0.0972,0.0958,0.0077,0.0108,0.0303,0.0312,0.0035
584,0.0443,0.0972,0.0958,0.0077,0.0108,0.0303,0.0312,0.0035
585,0.0456,0.1012,0.1023,0.0082,0.0165,0.0421,0.0438,0.0042
586,0.0446,0.0973,0.1001,0.0090,0.0122,0.0351,0.0444,0.0053
587,0.0446,0.1020,0.1058,0.0097,0.0122,0.0438,0.0482,0.0060
588,0.0450,0.1096,0.1136,0.0102,0.0145,0.0572,0.0605,0.0065
589,0.0445,0.1029,0.1000,0.0079,0.0124,0.0400,0.0381,0.0038
590,0.0446,0.1037,0.1026,0.0236,0.0128,0.0433,0.0448,0.0146
591,0.0445,0.1008,0.0974,0.0087,0.0121,0.0351,0.0342,0.0050
592,0.0455,0.1167,0.1202,0.0098,0.0165,0.0666,0.0696,0.0061
593,0.0454,0.1151,0.1177,0.0092,0.0164,0.0648,0.0676,0.0057
594,0.0451,0.1107,0.1121,0.0086,0.0154,0.0585,0.0604,0.0050
595,0.0448,0.1051,0.1055,0.0081,0.0141,0.0497,0.0513,0.0044
596,0.0445,0.1001,0.0996,0.0078,0.0125,0.0394,0.0405,0.0039
597,0.0443,0.0973,0.0956,0.0077,0.0105,0.0309,0.0313,0.0035
598,0.0443,0.0997,0.0982,0.0077,0.0112,0.0370,0.0371,0.0035
599,0.0445,0.1041,0.1027,0.0078,0.0122,0.0458,0.0457,0.0036
600,0.0446,0.1068,0.1048,0.0078,0.0128,0.0496,0.0484,0.0035
601,0.0445,0.0998,0.0991,0.0188,0.0118,0.0361,0.0388,0.0111
602,0.0446,0.1061,0.1036,0.0078,0.0129,0.0478,0.0460,0.0034
603,0.0447,0.1017,0.0978,0.0091,0.0126,0.0365,0.0344,0.0057
604,0.0445,0.1029,0.1000,0.0079,0.0124,0.0400,0.0381,0.0038
605,0.0445,0.1010,0.0978,0.0082,0.0121,0.0352,0.0343,0.0044
606,0.0445,0.1008,0.0974,0.0087,0.0121,0.0351,0.0342,0.0050
607,0.0447,0.1017,0.0978,0.0091,0.0126,0.0365,0.0344,0.0057
608,0.0449,0.1049,0.0997,0.0096,0.0133,0.0410,0.0360,0.0063
609,0.0445,0.1017,0.0966,0.0291,0.0118,0.0414,0.0358,0.0199
610,0.0446,0.1035,0.0995,0.0258,0.0130,0.0439,0.0406,0.0173
611,0.0447,0.1028,0.1009,0.0220,0.0135,0.0431,0.0433,0.0145
612,0.0443,0.0989,0.0983,0.0078,0.0104,0.0322,0.0347,0.0037
613,0.0445,0.0981,0.0969,0.0159,0.0114,0.0315,0.0337,0.0092
614,0.0444,0.0949,0.0928,0.0077,0.0118,0.0264,0.0263,0.0032
615,0.0444,0.0949,0.0928,0.0077,0.0118,0.0264,0.0263,0.0032
616,0.0444,0.0949,0.0928,0.0077,0.0118,0.0264,0.0263,0.0032
617,0.0444,0.0951,0.0931,0.0077,0.0116,0.0275,0.0276,0.0033
618,0.0444,0.0951,0.0931,0.0077,0.0116,0.0275,0.0276,0.0033
619,0.0445,0.0970,0.0951,0.0077,0.0124,0.0337,0.0326,0.0032
620,0.0447,0.0999,0.0981,0.0077,0.0133,0.0414,0.0402,0.0034
621,0.0448,0.1014,0.0995,0.0077,0.0140,0.0442,0.0429,0.0033
622,0.0448,0.1003,0.0981,0.0077,0.0141,0.0414,0.0396,0.0032
623,0.0447,0.0973,0.0950,0.0077,0.0137,0.0328,0.0313,0.0032
624,0.0444,0.0978,0.0965,0.0145,0.0114,0.0311,0.0324,0.0085
625,0.0446,0.0959,0.0937,0.0077,0.0133,0.0285,0.0289,0.0036
626,0.0446,0.0959,0.0938,0.0080,0.0131,0.0295,0.0301,0.0041
627,0.0448,0.0958,0.0935,0.0083,0.0136,0.0287,0.0289,0.0046
628,0.0450,0.0969,0.0936,0.0088,0.0145,0.0301,0.0278,0.0052
629,0.0445,0.0970,0.0951,0.0077,0.0124,0.0337,0.0326,0.0032
630,0.0444,0.0964,0.0938,0.0160,0.0117,0.0301,0.0292,0.0100
631,0.0447,0.0969,0.0943,0.0138,0.0133,0.0325,0.0309,0.0086
632,0.0448,0.0972,0.0955,0.0122,0.0141,0.0343,0.0349,0.0075
633,0.0448,0.0964,0.0950,0.0108,0.0139,0.0318,0.0336,0.0065
634,0.0447,0.0954,0.0937,0.0097,0.0133,0.0282,0.0297,0.0056
635,0.0444,0.0979,0.0968,0.0132,0.0111,0.0311,0.0325,0.0078
636,0.0446,0.0949,0.0929,0.0092,0.0128,0.0268,0.0268,0.0053
637,0.0446,0.0948,0.0926,0.0090,0.0125,0.0264,0.0260,0.0048
638,0.0445,0.0947,0.0926,0.0088,0.0126,0.0262,0.0259,0.0047
639,0.0445,0.0949,0.0928,0.0084,0.0128,0.0271,0.0265,0.0045
640,0.0445,0.0949,0.0928,0.0079,0.0125,0.0265,0.0262,0.0040
641,0.0447,0.0999,0.0981,0.0077,0.0133,0.0414,0.0402,0.0034
642,0.0443,0.0948,0.0928,0.0080,0.0108,0.0260,0.0267,0.0041
643,0.0443,0.0950,0.0932,0.0084,0.0105,0.0274,0.0281,0.0046
644,0.0444,0.0953,0.0935,0.0085,0.0115,0.0292,0.0290,0.0045
645,0.0445,0.0957,0.0937,0.0088,0.0127,0.0303,0.0292,0.0050
646,0.0444,0.0984,0.0973,0.0113,0.0110,0.0320,0.0333,0.0067
647,0.0446,0.0960,0.0943,0.0093,0.0131,0.0300,0.0287,0.0055
648,0.0446,0.0979,0.0965,0.0099,0.0128,0.0346,0.0339,0.0059
649,0.0444,0.1008,0.0991,0.0111,0.0118,0.0396,0.0400,0.0072
650,0.0443,0.1021,0.0992,0.0132,0.0108,0.0421,0.0393,0.0093
651,0.0445,0.1014,0.0968,0.0160,0.0123,0.0429,0.0355,0.0115
652,0.0453,0.1005,0.0974,0.0185,0.0158,0.0409,0.0385,0.0134
653,0.0448,0.1014,0.0995,0.0077,0.0140,0.0442,0.0429,0.0033
654,0.0444,0.0949,0.0928,0.0077,0.0118,0.0264,0.0263,0.0032
655,0.0444,0.0949,0.0928,0.0077,0.0118,0.0264,0.0263,0.0032
656,0.0444,0.0949,0.0928,0.0077,0.0118,0.0264,0.0263,0.0032
657,0.0443,0.0988,0.0980,0.0093,0.0108,0.0322,0.0343,0.0055
658,0.0444,0.0949,0.0928,0.0077,0.0118,0.0264,0.0263,0.0032
659,0.0444,0.0949,0.0928,0.0077,0.0118,0.0264,0.0263,0.0032
660,0.0444,0.0949,0.0928,0.0077,0.0118,0.0264,0.0263,0.0032
661,0.0444,0.0949,0.0928,0.0077,0.0118,0.0264,0.0263,0.0032
662,0.0444,0.0949,0.0928,0.0077,0.0118,0.0264,0.0263,0.0032
663,0.0444,0.0949,0.0928,0.0077,0.0118,0.0264,0.0263,0.0032
664,0.0444,0.0949,0.0928,0.0077,0.0118,0.0264,0.0263,0.0032
665,0.0448,0.1003,0.0981,0.0077,0.0141,0.0414,0.0396,0.0032
666,0.0444,0.0949,0.0928,0.0077,0.0118,0.0264,0.0263,0.0032
667,0.0444,0.0949,0.0928,0.0077,0.0118,0.0264,0.0263,0.0032
668,0.0444,0.1062,0.1051,0.0079,0.0115,0.0470,0.0474,0.0037
669,0.0444,0.0949,0.0928,0.0077,0.0118,0.0264,0.0263,0.0032
670,0.0444,0.0949,0.0928,0.0077,0.0118,0.0264,0.0263,0.0032
671,0.0444,0.0949,0.0928,0.0077,0.0118,0.0264,0.0263,0.0032
672,0.0444,0.0949,0.0928,0.0077,0.0118,0.0264,0.0263,0.0032
673,0.0444,0.0949,0.0928,0.0077,0.0118,0.0264,0.0263,0.0032
674,0.0444,0.0949,0.0928,0.0077,0.0118,0.0264,0.0263,0.0032
675,0.0444,0.0949,0.0928,0.0077,0.0118,0.0264,0.0263,0.0032
676,0.0444,0.0949,0.0928,0.0077,0.0118,0.0264,0.0263,0.0032
677,0.0447,0.0973,0.0950,0.0077,0.0137,0.0328,0.0313,0.0032
678,0.0444,0.0949,0.0928,0.0077,0.0118,0.0264,0.0263,0.0032
679,0.0442,0.0986,0.0979,0.0081,0.0100,0.0313,0.0333,0.0044
680,0.0444,0.0949,0.0928,0.0077,0.0118,0.0264,0.0263,0.0032
681,0.0444,0.0949,0.0928,0.0077,0.0118,0.0264,0.0263,0.0032
682,0.0444,0.0949,0.0928,0.0077,0.0118,0.0264,0.0263,0.0032
683,0.0444,0.0949,0.0928,0.0077,0.0118,0.0264,0.0263,0.0032
684,0.0444,0.0949,0.0928,0.0077,0.0118,0.0264,0.0263,0.0032
685,0.0444,0.0949,0.0928,0.0077,0.0118,0.0264,0.0263,0.0032
686,0.0444,0.0949,0.0928,0.0077,0.0118,0.0264,0.0263,0.0032
687,0.0444,0.0949,0.0928,0.0077,0.0118,0.0264,0.0263,0.0032
688,0.0444,0.0949,0.0928,0.0077,0.0118,0.0264,0.0263,0.0032
689,0.0446,0.0959,0.0937,0.0077,0.0133,0.0285,0.0289,0.0036
690,0.0443,0.0985,0.0976,0.0095,0.0103,0.0318,0.0330,0.0059
691,0.0444,0.0949,0.0928,0.0077,0.0118,0.0264,0.0263,0.0032
692,0.0444,0.0949,0.0928,0.0077,0.0118,0.0264,0.0263,0.0032
693,0.0444,0.0949,0.0928,0.0077,0.0118,0.0264,0.0263,0.0032
694,0.0444,0.0949,0.0928,0.0077,0.0118,0.0264,0.0263,0.0032
695,0.0444,0.0949,0.0928,0.0077,0.0118,0.0264,0.0263,0.0032
696,0.0455,0.1025,0.1032,0.0081,0.0158,0.0465,0.0483,0.0038
697,0.0446,0.0957,0.0949,0.0087,0.0124,0.0292,0.0325,0.0044
698,0.0447,0.0986,0.0972,0.0092,0.0129,0.0383,0.0370,0.0051
699,0.0452,0.1049,0.1030,0.0095,0.0151,0.0516,0.0496,0.0055
700,0.0447,0.0973,0.0950,0.0077,0.0137,0.0328,0.0313,0.0032
701,0.0444,0.0987,0.0977,0.0110,0.0115,0.0334,0.0335,0.0069
702,0.0446,0.0959,0.0938,0.0080,0.0131,0.0295,0.0301,0.0041
703,0.0457,0.1115,0.1096,0.0092,0.0172,0.0614,0.0598,0.0052
704,0.0457,0.1104,0.1082,0.0087,0.0170,0.0600,0.0583,0.0048
705,0.0454,0.1058,0.1036,0.0082,0.0161,0.0532,0.0515,0.0042
706,0.0450,0.1013,0.0990,0.0078,0.0149,0.0454,0.0436,0.0037
707,0.0447,0.0970,0.0948,0.0077,0.0133,0.0351,0.0333,0.0033
708,0.0444,0.0951,0.0931,0.0077,0.0116,0.0275,0.0276,0.0033
709,0.0445,0.0970,0.0951,0.0077,0.0124,0.0337,0.0326,0.0032
710,0.0447,0.0999,0.0981,0.0077,0.0133,0.0414,0.0402,0.0034
711,0.0448,0.1014,0.0995,0.0077,0.0140,0.0442,0.0429,0.0033
712,0.0445,0.0993,0.0981,0.0126,0.0121,0.0350,0.0343,0.0086
713,0.0448,0.1003,0.0981,0.0077,0.0141,0.0414,0.0396,0.0032
714,0.0448,0.0958,0.0935,0.0083,0.0136,0.0287,0.0289,0.0046
715,0.0447,0.0973,0.0950,0.0077,0.0137,0.0328,0.0313,0.0032
716,0.0446,0.0959,0.0937,0.0077,0.0133,0.0285,0.0289,0.0036
717,0.0446,0.0959,0.0938,0.0080,0.0131,0.0295,0.0301,0.0041
718,0.0448,0.0958,0.0935,0.0083,0.0136,0.0287,0.0289,0.0046
719,0.0450,0.0969,0.0936,0.0088,0.0145,0.0301,0.0278,0.0052
720,0.0444,0.0964,0.0938,0.0160,0.0117,0.0301,0.0292,0.0100
721,0.0447,0.0969,0.0943,0.0138,0.0133,0.0325,0.0309,0.0086
722,0.0448,0.0972,0.0955,0.0122,0.0141,0.0343,0.0349,0.0075
723,0.0443,0.0987,0.0974,0.0078,0.0102,0.0323,0.0332,0.0036
724,0.0445,0.1006,0.0996,0.0148,0.0121,0.0356,0.0351,0.0103
725,0.0446,0.0941,0.0923,0.0077,0.0124,0.0246,0.0262,0.0035
726,0.0446,0.0941,0.0923,0.0077,0.0124,0.0246,0.0262,0.0035
727,0.0446,0.0941,0.0923,0.0077,0.0124,0.0246,0.0262,0.0035
728,0.0445,0.0944,0.0926,0.0077,0.0124,0.0258,0.0274,0.0035
729,0.0445,0.0944,0.0926,0.0077,0.0124,0.0258,0.0274,0.0035
730,0.0447,0.0958,0.0938,0.0077,0.0133,0.0315,0.0293,0.0034
731,0.0448,0.0973,0.0954,0.0077,0.0140,0.0364,0.0346,0.0032
732,0.0450,0.0983,0.0965,0.0076,0.0147,0.0387,0.0373,0.0032
733,0.0451,0.0973,0.0954,0.0076,0.0149,0.0359,0.0339,0.0032
734,0.0449,0.0952,0.0934,0.0076,0.0144,0.0279,0.0281,0.0032
735,0.0445,0.1040,0.1031,0.0187,0.0118,0.0409,0.0405,0.0125
736,0.0448,0.0950,0.0933,0.0076,0.0141,0.0286,0.0297,0.0032
737,0.0448,0.0955,0.0940,0.0077,0.0140,0.0308,0.0318,0.0035
738,0.0449,0.0952,0.0937,0.0080,0.0145,0.0299,0.0310,0.0040
739,0.0452,0.0946,0.0924,0.0086,0.0155,0.0264,0.0264,0.0048
740,0.0447,0.0958,0.0938,0.0077,0.0133,0.0315,0.0293,0.0034
741,0.0444,0.0978,0.0953,0.0225,0.0116,0.0360,0.0347,0.0160
742,0.0447,0.0956,0.0931,0.0174,0.0135,0.0295,0.0273,0.0124
743,0.0449,0.0954,0.0935,0.0142,0.0145,0.0276,0.0283,0.0100
744,0.0449,0.0950,0.0932,0.0127,0.0143,0.0275,0.0270,0.0086
745,0.0448,0.0946,0.0927,0.0109,0.0140,0.0266,0.0262,0.0070
746,0.0445,0.1104,0.1079,0.0246,0.0121,0.0489,0.0481,0.0160
747,0.0448,0.0945,0.0925,0.0096,0.0136,0.0267,0.0266,0.0060
748,0.0447,0.0944,0.0924,0.0086,0.0135,0.0264,0.0266,0.0050
749,0.0447,0.0943,0.0924,0.0081,0.0135,0.0260,0.0266,0.0040
750,0.0447,0.0943,0.0924,0.0078,0.0136,0.0260,0.0268,0.0034
751,0.0447,0.0941,0.0922,0.0077,0.0134,0.0246,0.0257,0.0033
752,0.0448,0.0973,0.0954,0.0077,0.0140,0.0364,0.0346,0.0032
753,0.0443,0.0942,0.0926,0.0079,0.0112,0.0253,0.0273,0.0041
754,0.0443,0.0945,0.0930,0.0080,0.0105,0.0265,0.0286,0.0041
755,0.0444,0.0948,0.0932,0.0081,0.0116,0.0285,0.0292,0.0037
756,0.0446,0.0951,0.0932,0.0088,0.0131,0.0289,0.0286,0.0052
757,0.0446,0.1150,0.1096,0.0317,0.0130,0.0544,0.0492,0.0204
758,0.0447,0.0951,0.0932,0.0099,0.0138,0.0271,0.0264,0.0067
759,0.0447,0.0959,0.0944,0.0106,0.0138,0.0301,0.0291,0.0071
760,0.0446,0.0973,0.0959,0.0111,0.0131,0.0332,0.0340,0.0075
761,0.0444,0.0979,0.0959,0.0119,0.0119,0.0351,0.0336,0.0081
762,0.0444,0.0974,0.0943,0.0132,0.0112,0.0348,0.0292,0.0089
763,0.0448,0.0992,0.0979,0.0152,0.0142,0.0376,0.0406,0.0102
764,0.0450,0.0983,0.0965,0.0076,0.0147,0.0387,0.0373,0.0032
765,0.0446,0.0941,0.0923,0.0077,0.0124,0.0246,0.0262,0.0035
766,0.0446,0.0941,0.0923,0.0077,0.0124,0.0246,0.0262,0.0035
767,0.0446,0.0941,0.0923,0.0077,0.0124,0.0246,0.0262,0.0035
768,0.0452,0.1152,0.1060,0.0389,0.0151,0.0564,0.0452,0.0249
769,0.0446,0.0941,0.0923,0.0077,0.0124,0.0246,0.0262,0.0035
770,0.0446,0.0941,0.0923,0.0077,0.0124,0.0246,0.0262,0.0035
771,0.0446,0.0941,0.0923,0.0077,0.0124,0.0246,0.0262,0.0035
772,0.0446,0.0941,0.0923,0.0077,0.0124,0.0246,0.0262,0.0035
773,0.0446,0.0941,0.0923,0.0077,0.0124,0.0246,0.0262,0.0035
774,0.0446,0.0941,0.0923,0.0077,0.0124,0.0246,0.0262,0.0035
775,0.0446,0.0941,0.0923,0.0077,0.0124,0.0246,0.0262,0.0035
776,0.0451,0.0973,0.0954,0.0076,0.0149,0.0359,0.0339,0.0032
777,0.0446,0.0941,0.0923,0.0077,0.0124,0.0246,0.0262,0.0035
778,0.0446,0.0941,0.0923,0.0077,0.0124,0.0246,0.0262,0.0035
779,0.0465,0.1122,0.1026,0.0459,0.0186,0.0567,0.0450,0.0293
780,0.0446,0.0941,0.0923,0.0077,0.0124,0.0246,0.0262,0.0035
781,0.0446,0.0941,0.0923,0.0077,0.0124,0.0246,0.0262,0.0035
782,0.0446,0.0941,0.0923,0.0077,0.0124,0.0246,0.0262,0.0035
783,0.0446,0.0941,0.0923,0.0077,0.0124,0.0246,0.0262,0.0035
784,0.0446,0.0941,0.0923,0.0077,0.0124,0.0246,0.0262,0.0035
785,0.0446,0.0941,0.0923,0.0077,0.0124,0.0246,0.0262,0.0035
786,0.0446,0.0941,0.0923,0.0077,0.0124,0.0246,0.0262,0.0035
787,0.0446,0.0941,0.0923,0.0077,0.0124,0.0246,0.0262,0.0035
788,0.0449,0.0952,0.0934,0.0076,0.0144,0.0279,0.0281,0.0032
789,0.0446,0.0941,0.0923,0.0077,0.0124,0.0246,0.0262,0.0035
790,0.0445,0.1097,0.1079,0.0079,0.0122,0.0519,0.0512,0.0036
791,0.0446,0.0941,0.0923,0.0077,0.0124,0.0246,0.0262,0.0035
792,0.0446,0.0941,0.0923,0.0077,0.0124,0.0246,0.0262,0.0035
793,0.0446,0.0941,0.0923,0.0077,0.0124,0.0246,0.0262,0.0035
794,0.0446,0.0941,0.0923,0.0077,0.0124,0.0246,0.0262,0.0035
795,0.0446,0.0941,0.0923,0.0077,0.0124,0.0246,0.0262,0.0035
796,0.0446,0.0941,0.0923,0.0077,0.0124,0.0246,0.0262,0.0035
797,0.0446,0.0941,0.0923,0.0077,0.0124,0.0246,0.0262,0.0035
798,0.0446,0.0941,0.0923,0.0077,0.0124,0.0246,0.0262,0.0035
799,0.0446,0.0941,0.0923,0.0077,0.0124,0.0246,0.0262,0.0035
800,0.0448,0.0950,0.0933,0.0076,0.0141,0.0286,0.0297,0.0032
801,0.0443,0.0989,0.0983,0.0078,0.0104,0.0322,0.0347,0.0037
802,0.0446,0.0941,0.0923,0.0077,0.0124,0.0246,0.0262,0.0035
803,0.0446,0.0941,0.0923,0.0077,0.0124,0.0246,0.0262,0.0035
804,0.0446,0.0941,0.0923,0.0077,0.0124,0.0246,0.0262,0.0035
805,0.0446,0.0941,0.0923,0.0077,0.0124,0.0246,0.0262,0.0035
806,0.0446,0.0941,0.0923,0.0077,0.0124,0.0246,0.0262,0.0035
807,0.0454,0.1047,0.1077,0.0082,0.0153,0.0514,0.0576,0.0043
808,0.0446,0.0956,0.0950,0.0086,0.0127,0.0291,0.0336,0.0042
809,0.0448,0.0968,0.0937,0.0091,0.0132,0.0337,0.0280,0.0045
810,0.0453,0.1017,0.0974,0.0093,0.0154,0.0466,0.0406,0.0048
811,0.0449,0.0952,0.0934,0.0076,0.0144,0.0279,0.0281,0.0032
812,0.0443,0.0989,0.0983,0.0078,0.0104,0.0322,0.0347,0.0037
813,0.0448,0.0955,0.0940,0.0077,0.0140,0.0308,0.0318,0.0035
814,0.0458,0.1075,0.1029,0.0089,0.0174,0.0564,0.0513,0.0046
815,0.0458,0.1071,0.1027,0.0085,0.0174,0.0558,0.0511,0.0042
816,0.0455,0.1030,0.0990,0.0080,0.0165,0.0494,0.0447,0.0038
817,0.0451,0.0986,0.0953,0.0078,0.0152,0.0407,0.0365,0.0034
818,0.0448,0.0953,0.0928,0.0077,0.0137,0.0307,0.0270,0.0034
819,0.0445,0.0944,0.0926,0.0077,0.0124,0.0258,0.0274,0.0035
820,0.0447,0.0958,0.0938,0.0077,0.0133,0.0315,0.0293,0.0034
821,0.0448,0.0973,0.0954,0.0077,0.0140,0.0364,0.0346,0.0032
822,0.0450,0.0983,0.0965,0.0076,0.0147,0.0387,0.0373,0.0032
823,0.0443,0.0989,0.0983,0.0078,0.0104,0.0322,0.0347,0.0037
824,0.0451,0.0973,0.0954,0.0076,0.0149,0.0359,0.0339,0.0032
825,0.0449,0.0952,0.0937,0.0080,0.0145,0.0299,0.0310,0.0040
826,0.0449,0.0952,0.0934,0.0076,0.0144,0.0279,0.0281,0.0032
827,0.0448,0.0950,0.0933,0.0076,0.0141,0.0286,0.0297,0.0032
828,0.0448,0.0955,0.0940,0.0077,0.0140,0.0308,0.0318,0.0035
829,0.0449,0.0952,0.0937,0.0080,0.0145,0.0299,0.0310,0.0040
830,0.0452,0.0946,0.0924,0.0086,0.0155,0.0264,0.0264,0.0048
831,0.0444,0.0978,0.0953,0.0225,0.0116,0.0360,0.0347,0.0160
832,0.0447,0.0956,0.0931,0.0174,0.0135,0.0295,0.0273,0.0124
833,0.0449,0.0954,0.0935,0.0142,0.0145,0.0276,0.0283,0.0100
834,0.0443,0.0987,0.0974,0.0078,0.0102,0.0323,0.0332,0.0036
835,0.0443,0.0989,0.0983,0.0078,0.0104,0.0322,0.0347,0.0037
836,0.0446,0.0941,0.0926,0.0077,0.0126,0.0251,0.0276,0.0037
837,0.0446,0.0941,0.0926,0.0077,0.0126,0.0251,0.0276,0.0037
838,0.0446,0.0941,0.0926,0.0077,0.0126,0.0251,0.0276,0.0037
839,0.0446,0.0942,0.0926,0.0077,0.0127,0.0253,0.0274,0.0037
840,0.0446,0.0942,0.0926,0.0077,0.0127,0.0253,0.0274,0.0037
841,0.0448,0.0955,0.0936,0.0077,0.0135,0.0303,0.0284,0.0035
842,0.0449,0.0966,0.0949,0.0077,0.0142,0.0340,0.0321,0.0033
843,0.0451,0.0974,0.0957,0.0076,0.0150,0.0364,0.0347,0.0031
844,0.0452,0.0966,0.0949,0.0076,0.0152,0.0333,0.0312,0.0031
845,0.0450,0.0950,0.0935,0.0076,0.0147,0.0284,0.0291,0.0032
846,0.0443,0.0989,0.0983,0.0078,0.0104,0.0322,0.0347,0.0037
847,0.0449,0.0952,0.0938,0.0076,0.0145,0.0296,0.0313,0.0033
848,0.0448,0.0965,0.0952,0.0077,0.0143,0.0333,0.0350,0.0034
849,0.0450,0.0960,0.0946,0.0080,0.0149,0.0321,0.0336,0.0039
850,0.0453,0.0947,0.0928,0.0087,0.0159,0.0274,0.0280,0.0051
851,0.0448,0.0955,0.0936,0.0077,0.0135,0.0303,0.0284,0.0035
852,0.0444,0.0997,0.0970,0.0279,0.0115,0.0403,0.0385,0.0195
853,0.0447,0.0961,0.0935,0.0217,0.0135,0.0318,0.0294,0.0153
854,0.0449,0.0954,0.0933,0.0176,0.0145,0.0289,0.0277,0.0124
855,0.0449,0.0950,0.0931,0.0151,0.0145,0.0283,0.0276,0.0104
856,0.0449,0.0947,0.0927,0.0126,0.0142,0.0275,0.0270,0.0083
857,0.0443,0.0989,0.0983,0.0078,0.0104,0.0322,0.0347,0.0037
858,0.0448,0.0946,0.0926,0.0105,0.0140,0.0272,0.0273,0.0068
859,0.0448,0.0946,0.0927,0.0090,0.0138,0.0273,0.0279,0.0055
860,0.0448,0.0944,0.0927,0.0082,0.0139,0.0266,0.0279,0.0043
861,0.0449,0.0943,0.0925,0.0078,0.0141,0.0257,0.0272,0.0034
862,0.0448,0.0941,0.0925,0.0077,0.0136,0.0249,0.0269,0.0034
863,0.0449,0.0966,0.0949,0.0077,0.0142,0.0340,0.0321,0.0033
864,0.0443,0.0944,0.0932,0.0079,0.0112,0.0262,0.0294,0.0040
865,0.0443,0.0945,0.0934,0.0080,0.0105,0.0270,0.0301,0.0038
866,0.0444,0.0949,0.0936,0.0082,0.0117,0.0289,0.0305,0.0038
867,0.0446,0.0952,0.0936,0.0093,0.0133,0.0301,0.0301,0.0060
868,0.0443,0.0989,0.0983,0.0078,0.0104,0.0322,0.0347,0.0037
869,0.0448,0.0950,0.0932,0.0107,0.0141,0.0265,0.0260,0.0076
870,0.0449,0.0956,0.0941,0.0120,0.0143,0.0284,0.0277,0.0085
871,0.0447,0.0965,0.0952,0.0133,0.0137,0.0307,0.0318,0.0095
872,0.0445,0.0969,0.0951,0.0144,0.0125,0.0322,0.0314,0.0105
873,0.0444,0.0967,0.0940,0.0160,0.0116,0.0314,0.0276,0.0118
874,0.0447,0.0998,0.0987,0.0186,0.0135,0.0406,0.0430,0.0137
875,0.0451,0.0974,0.0957,0.0076,0.0150,0.0364,0.0347,0.0031
876,0.0446,0.0941,0.0926,0.0077,0.0126,0.0251,0.0276,0.0037
877,0.0446,0.0941,0.0926,0.0077,0.0126,0.0251,0.0276,0.0037
878,0.0446,0.0941,0.0926,0.0077,0.0126,0.0251,0.0276,0.0037
879,0.0443,0.0989,0.0983,0.0078,0.0104,0.0322,0.0347,0.0037
880,0.0446,0.0941,0.0926,0.0077,0.0126,0.0251,0.0276,0.0037
881,0.0446,0.0941,0.0926,0.0077,0.0126,0.0251,0.0276,0.0037
882,0.0446,0.0941,0.0926,0.0077,0.0126,0.0251,0.0276,0.0037
883,0.0446,0.0941,0.0926,0.0077,0.0126,0.0251,0.0276,0.0037
884,0.0446,0.0941,0.0926,0.0077,0.0126,0.0251,0.0276,0.0037
885,0.0446,0.0941,0.0926,0.0077,0.0126,0.0251,0.0276,0.0037
886,0.0446,0.0941,0.0926,0.0077,0.0126,0.0251,0.0276,0.0037
887,0.0452,0.0966,0.0949,0.0076,0.0152,0.0333,0.0312,0.0031
888,0.0446,0.0941,0.0926,0.0077,0.0126,0.0251,0.0276,0.0037
889,0.0446,0.0941,0.0926,0.0077,0.0126,0.0251,0.0276,0.0037
890,0.0443,0.0989,0.0983,0.0078,0.0104,0.0322,0.0347,0.0037
891,0.0446,0.0941,0.0926,0.0077,0.0126,0.0251,0.0276,0.0037
892,0.0446,0.0941,0.0926,0.0077,0.0126,0.0251,0.0276,0.0037
893,0.0446,0.0941,0.0926,0.0077,0.0126,0.0251,0.0276,0.0037
894,0.0446,0.0941,0.0926,0.0077,0.0126,0.0251,0.0276,0.0037
895,0.0446,0.0941,0.0926,0.0077,0.0126,0.0251,0.0276,0.0037
896,0.0446,0.0941,0.0926,0.0077,0.0126,0.0251,0.0276,0.0037
897,0.0446,0.0941,0.0926,0.0077,0.0126,0.0251,0.0276,0.0037
898,0.0446,0.0941,0.0926,0.0077,0.0126,0.0251,0.0276,0.0037
899,0.0450,0.0950,0.0935,0.0076,0.0147,0.0284,0.0291,0.0032
900,0.0446,0.0941,0.0926,0.0077,0.0126,0.0251,0.0276,0.0037
901,0.0443,0.0989,0.0983,0.0078,0.0104,0.0322,0.0347,0.0037
902,0.0446,0.0941,0.0926,0.0077,0.0126,0.0251,0.0276,0.0037
903,0.0446,0.0941,0.0926,0.0077,0.0126,0.0251,0.0276,0.0037
904,0.0446,0.0941,0.0926,0.0077,0.0126,0.0251,0.0276,0.0037
905,0.0446,0.0941,0.0926,0.0077,0.0126,0.0251,0.0276,0.0037
906,0.0446,0.0941,0.0926,0.0077,0.0126,0.0251,0.0276,0.0037
907,0.0446,0.0941,0.0926,0.0077,0.0126,0.0251,0.0276,0.0037
908,0.0446,0.0941,0.0926,0.0077,0.0126,0.0251,0.0276,0.0037
909,0.0446,0.0941,0.0926,0.0077,0.0126,0.0251,0.0276,0.0037
910,0.0446,0.0941,0.0926,0.0077,0.0126,0.0251,0.0276,0.0037
911,0.0449,0.0952,0.0938,0.0076,0.0145,0.0296,0.0313,0.0033
912,0.0445,0.1099,0.1073,0.0079,0.0123,0.0513,0.0496,0.0037
913,0.0446,0.0941,0.0926,0.0077,0.0126,0.0251,0.0276,0.0037
914,0.0446,0.0941,0.0926,0.0077,0.0126,0.0251,0.0276,0.0037
915,0.0446,0.0941,0.0926,0.0077,0.0126,0.0251,0.0276,0.0037
916,0.0446,0.0941,0.0926,0.0077,0.0126,0.0251,0.0276,0.0037
917,0.0446,0.0941,0.0926,0.0077,0.0126,0.0251,0.0276,0.0037
918,0.0454,0.1055,0.1101,0.0083,0.0151,0.0528,0.0612,0.0045
919,0.0447,0.0959,0.0961,0.0087,0.0128,0.0310,0.0374,0.0044
920,0.0448,0.0963,0.0934,0.0091,0.0133,0.0318,0.0246,0.0044
921,0.0453,0.1006,0.0959,0.0093,0.0154,0.0445,0.0368,0.0046
922,0.0450,0.0950,0.0935,0.0076,0.0147,0.0284,0.0291,0.0032
923,0.0443,0.0989,0.0983,0.0078,0.0104,0.0322,0.0347,0.0037
924,0.0448,0.0965,0.0952,0.0077,0.0143,0.0333,0.0350,0.0034
925,0.0459,0.1063,0.1009,0.0089,0.0175,0.0547,0.0481,0.0044
926,0.0459,0.1062,0.1013,0.0085,0.0176,0.0546,0.0486,0.0041
927,0.0456,0.1020,0.0976,0.0080,0.0166,0.0478,0.0418,0.0037
928,0.0452,0.0980,0.0946,0.0078,0.0154,0.0394,0.0342,0.0036
929,0.0449,0.0951,0.0926,0.0077,0.0140,0.0299,0.0261,0.0035
930,0.0446,0.0942,0.0926,0.0077,0.0127,0.0253,0.0274,0.0037
931,0.0448,0.0955,0.0936,0.0077,0.0135,0.0303,0.0284,0.0035
932,0.0449,0.0966,0.0949,0.0077,0.0142,0.0340,0.0321,0.0033
933,0.0451,0.0974,0.0957,0.0076,0.0150,0.0364,0.0347,0.0031
934,0.0443,0.0989,0.0983,0.0078,0.0104,0.0322,0.0347,0.0037
935,0.0452,0.0966,0.0949,0.0076,0.0152,0.0333,0.0312,0.0031
936,0.0450,0.0960,0.0946,0.0080,0.0149,0.0321,0.0336,0.0039
937,0.0450,0.0950,0.0935,0.0076,0.0147,0.0284,0.0291,0.0032
938,0.0449,0.0952,0.0938,0.0076,0.0145,0.0296,0.0313,0.0033
939,0.0448,0.0965,0.0952,0.0077,0.0143,0.0333,0.0350,0.0034
940,0.0450,0.0960,0.0946,0.0080,0.0149,0.0321,0.0336,0.0039
941,0.0453,0.0947,0.0928,0.0087,0.0159,0.0274,0.0280,0.0051
942,0.0444,0.0997,0.0970,0.0279,0.0115,0.0403,0.0385,0.0195
943,0.0447,0.0961,0.0935,0.0217,0.0135,0.0318,0.0294,0.0153
944,0.0449,0.0954,0.0933,0.0176,0.0145,0.0289,0.0277,0.0124
945,0.0443,0.1013,0.1001,0.0078,0.0106,0.0382,0.0388,0.0037
946,0.0443,0.0989,0.0983,0.0078,0.0104,0.0322,0.0347,0.0037
947,0.0444,0.0994,0.0999,0.0080,0.0113,0.0349,0.0388,0.0041
948,0.0444,0.0994,0.0999,0.0080,0.0113,0.0349,0.0388,0.0041
949,0.0444,0.0994,0.0999,0.0080,0.0113,0.0349,0.0388,0.0041
950,0.0443,0.0989,0.0987,0.0079,0.0108,0.0330,0.0365,0.0040
951,0.0443,0.0989,0.0987,0.0079,0.0108,0.0330,0.0365,0.0040
952,0.0444,0.1019,0.1023,0.0079,0.0114,0.0401,0.0437,0.0040
953,0.0445,0.1081,0.1093,0.0080,0.0125,0.0498,0.0534,0.0041
954,0.0447,0.1120,0.1127,0.0080,0.0132,0.0547,0.0575,0.0040
955,0.0447,0.1126,0.1126,0.0079,0.0135,0.0545,0.0565,0.0036
956,0.0447,0.1096,0.1085,0.0079,0.0132,0.0479,0.0488,0.0037
957,0.0443,0.0989,0.0983,0.0078,0.0104,0.0322,0.0347,0.0037
958,0.0446,0.1072,0.1052,0.0082,0.0128,0.0442,0.0442,0.0043
959,0.0446,0.1073,0.1046,0.0086,0.0127,0.0457,0.0441,0.0049
960,0.0447,0.1086,0.1053,0.0091,0.0130,0.0473,0.0450,0.0056
961,0.0449,0.1127,0.1085,0.0096,0.0137,0.0503,0.0479,0.0062
962,0.0444,0.1019,0.1023,0.0079,0.0114,0.0401,0.0437,0.0040
963,0.0445,0.1086,0.1024,0.0401,0.0118,0.0506,0.0449,0.0261
964,0.0445,0.1086,0.1053,0.0339,0.0125,0.0501,0.0480,0.0219
965,0.0446,0.1061,0.1057,0.0279,0.0126,0.0472,0.0489,0.0180
966,0.0445,0.1027,0.1031,0.0222,0.0122,0.0422,0.0456,0.0140
967,0.0445,0.0990,0.0992,0.0174,0.0115,0.0354,0.0395,0.0104
968,0.0443,0.0989,0.0983,0.0078,0.0104,0.0322,0.0347,0.0037
969,0.0444,0.0975,0.0969,0.0147,0.0113,0.0316,0.0351,0.0086
970,0.0444,0.0973,0.0965,0.0134,0.0113,0.0314,0.0340,0.0081
971,0.0444,0.0975,0.0970,0.0125,0.0111,0.0314,0.0344,0.0077
972,0.0443,0.0979,0.0977,0.0110,0.0111,0.0317,0.0354,0.0068
973,0.0444,0.0988,0.0990,0.0094,0.0114,0.0335,0.0374,0.0058
974,0.0445,0.1081,0.1093,0.0080,0.0125,0.0498,0.0534,0.0041
975,0.0443,0.0995,0.0998,0.0078,0.0110,0.0348,0.0384,0.0038
976,0.0443,0.0992,0.0993,0.0090,0.0107,0.0343,0.0373,0.0053
977,0.0443,0.0996,0.0993,0.0107,0.0111,0.0356,0.0374,0.0070
978,0.0444,0.1004,0.0999,0.0128,0.0113,0.0376,0.0381,0.0090
979,0.0443,0.0989,0.0983,0.0078,0.0104,0.0322,0.0347,0.0037
980,0.0444,0.1023,0.1017,0.0154,0.0115,0.0402,0.0396,0.0110
981,0.0444,0.1067,0.1058,0.0197,0.0117,0.0463,0.0453,0.0135
982,0.0445,0.1142,0.1111,0.0260,0.0121,0.0541,0.0521,0.0170
983,0.0446,0.1189,0.1124,0.0332,0.0130,0.0591,0.0523,0.0214
984,0.0452,0.1189,0.1080,0.0405,0.0150,0.0612,0.0494,0.0259
985,0.0462,0.1155,0.1038,0.0475,0.0181,0.0615,0.0468,0.0303
986,0.0447,0.1120,0.1127,0.0080,0.0132,0.0547,0.0575,0.0040
987,0.0444,0.0994,0.0999,0.0080,0.0113,0.0349,0.0388,0.0041
988,0.0444,0.0994,0.0999,0.0080,0.0113,0.0349,0.0388,0.0041
989,0.0444,0.0994,0.0999,0.0080,0.0113,0.0349,0.0388,0.0041
990,0.0443,0.0989,0.0983,0.0078,0.0104,0.0322,0.0347,0.0037
991,0.0444,0.0994,0.0999,0.0080,0.0113,0.0349,0.0388,0.0041
992,0.0444,0.0994,0.0999,0.0080,0.0113,0.0349,0.0388,0.0041
993,0.0444,0.0994,0.0999,0.0080,0.0113,0.0349,0.0388,0.0041
994,0.0444,0.0994,0.0999,0.0080,0.0113,0.0349,0.0388,0.0041
995,0.0444,0.0994,0.0999,0.0080,0.0113,0.0349,0.0388,0.0041
996,0.0444,0.0994,0.0999,0.0080,0.0113,0.0349,0.0388,0.0041
997,0.0444,0.0994,0.0999,0.0080,0.0113,0.0349,0.0388,0.0041
998,0.0447,0.1126,0.1126,0.0079,0.0135,0.0545,0.0565,0.0036
999,0.0444,0.0994,0.0999,0.0080,0.0113,0.0349,0.0388,0.0041
1000,0.0444,0.0994,0.0999,0.0080,0.0113,0.0349,0.0388,0.0041
1001,0.0443,0.0989,0.0983,0.0078,0.0104,0.0322,0.0347,0.0037
1002,0.0444,0.0994,0.0999,0.0080,0.0113,0.0349,0.0388,0.0041
1003,0.0444,0.0994,0.0999,0.0080,0.0113,0.0349,0.0388,0.0041
1004,0.0444,0.0994,0.0999,0.0080,0.0113,0.0349,0.0388,0.0041
1005,0.0444,0.0994,0.0999,0.0080,0.0113,0.0349,0.0388,0.0041
1006,0.0444,0.0994,0.0999,0.0080,0.0113,0.0349,0.0388,0.0041
1007,0.0444,0.0994,0.0999,0.0080,0.0113,0.0349,0.0388,0.0041
1008,0.0444,0.0994,0.0999,0.0080,0.0113,0.0349,0.0388,0.0041
1009,0.0444,0.0994,0.0999,0.0080,0.0113,0.0349,0.0388,0.0041
1010,0.0447,0.1096,0.1085,0.0079,0.0132,0.0479,0.0488,0.0037
1011,0.0444,0.0994,0.0999,0.0080,0.0113,0.0349,0.0388,0.0041
1012,0.0443,0.0989,0.0983,0.0078,0.0104,0.0322,0.0347,0.0037
1013,0.0444,0.0994,0.0999,0.0080,0.0113,0.0349,0.0388,0.0041
1014,0.0444,0.0994,0.0999,0.0080,0.0113,0.0349,0.0388,0.0041
1015,0.0444,0.0994,0.0999,0.0080,0.0113,0.0349,0.0388,0.0041
1016,0.0444,0.0994,0.0999,0.0080,0.0113,0.0349,0.0388,0.0041
1017,0.0444,0.0994,0.0999,0.0080,0.0113,0.0349,0.0388,0.0041
1018,0.0444,0.0994,0.0999,0.0080,0.0113,0.0349,0.0388,0.0041
1019,0.0444,0.0994,0.0999,0.0080,0.0113,0.0349,0.0388,0.0041
1020,0.0444,0.0994,0.0999,0.0080,0.0113,0.0349,0.0388,0.0041
1021,0.0444,0.0994,0.0999,0.0080,0.0113,0.0349,0.0388,0.0041
1022,0.0446,0.1072,0.1052,0.0082,0.0128,0.0442,0.0442,0.0043
1023,0.0443,0.0989,0.0983,0.0078,0.0104,0.0322,0.0347,0.0037
1024,0.0444,0.0994,0.0999,0.0080,0.0113,0.0349,0.0388,0.0041
1025,0.0444,0.0994,0.0999,0.0080,0.0113,0.0349,0.0388,0.0041
1026,0.0444,0.0994,0.0999,0.0080,0.0113,0.0349,0.0388,0.0041
1027,0.0444,0.0994,0.0999,0.0080,0.0113,0.0349,0.0388,0.0041
1028,0.0444,0.0994,0.0999,0.0080,0.0113,0.0349,0.0388,0.0041
1029,0.0455,0.1016,0.1055,0.0089,0.0162,0.0412,0.0520,0.0053
1030,0.0445,0.0994,0.1053,0.0100,0.0119,0.0404,0.0520,0.0064
1031,0.0446,0.1046,0.1116,0.0108,0.0123,0.0466,0.0549,0.0072
1032,0.0450,0.1115,0.1188,0.0112,0.0147,0.0580,0.0633,0.0075
1033,0.0447,0.1096,0.1085,0.0079,0.0132,0.0479,0.0488,0.0037
1034,0.0445,0.1068,0.1035,0.0081,0.0119,0.0439,0.0418,0.0042
1035,0.0446,0.1073,0.1046,0.0086,0.0127,0.0457,0.0441,0.0049
1036,0.0456,0.1185,0.1249,0.0106,0.0168,0.0672,0.0722,0.0069
1037,0.0455,0.1168,0.1225,0.0099,0.0167,0.0654,0.0704,0.0064
1038,0.0452,0.1124,0.1169,0.0091,0.0157,0.0592,0.0637,0.0057
1039,0.0449,0.1075,0.1108,0.0085,0.0144,0.0514,0.0557,0.0050
1040,0.0446,0.1026,0.1045,0.0082,0.0128,0.0419,0.0462,0.0045
1041,0.0443,0.0989,0.0987,0.0079,0.0108,0.0330,0.0365,0.0040
1042,0.0444,0.1019,0.1023,0.0079,0.0114,0.0401,0.0437,0.0040
1043,0.0445,0.1081,0.1093,0.0080,0.0125,0.0498,0.0534,0.0041
1044,0.0447,0.1120,0.1127,0.0080,0.0132,0.0547,0.0575,0.0040
1045,0.0443,0.0989,0.0983,0.0078,0.0104,0.0322,0.0347,0.0037
1046,0.0447,0.1126,0.1126,0.0079,0.0135,0.0545,0.0565,0.0036
1047,0.0447,0.1086,0.1053,0.0091,0.0130,0.0473,0.0450,0.0056
1048,0.0447,0.1096,0.1085,0.0079,0.0132,0.0479,0.0488,0.0037
1049,0.0446,0.1072,0.1052,0.0082,0.0128,0.0442,0.0442,0.0043
1050,0.0446,0.1073,0.1046,0.0086,0.0127,0.0457,0.0441,0.0049
1051,0.0447,0.1086,0.1053,0.0091,0.0130,0.0473,0.0450,0.0056
1052,0.0449,0.1127,0.1085,0.0096,0.0137,0.0503,0.0479,0.0062
1053,0.0445,0.1086,0.1024,0.0401,0.0118,0.0506,0.0449,0.0261
1054,0.0445,0.1086,0.1053,0.0339,0.0125,0.0501,0.0480,0.0219
1055,0.0446,0.1061,0.1057,0.0279,0.0126,0.0472,0.0489,0.0180
1056,0.0444,0.1062,0.1051,0.0079,0.0115,0.0470,0.0474,0.0037
1057,0.0443,0.0989,0.0983,0.0078,0.0104,0.0322,0.0347,0.0037
1058,0.0444,0.0974,0.0968,0.0078,0.0117,0.0320,0.0346,0.0039
1059,0.0444,0.0974,0.0968,0.0078,0.0117,0.0320,0.0346,0.0039
1060,0.0444,0.0974,0.0968,0.0078,0.0117,0.0320,0.0346,0.0039
1061,0.0444,0.0974,0.0966,0.0078,0.0114,0.0311,0.0337,0.0038
1062,0.0444,0.0974,0.0966,0.0078,0.0114,0.0311,0.0337,0.0038
1063,0.0444,0.1001,0.1000,0.0078,0.0121,0.0385,0.0415,0.0039
1064,0.0446,0.1052,0.1058,0.0079,0.0131,0.0473,0.0505,0.0040
1065,0.0448,0.1084,0.1086,0.0079,0.0138,0.0516,0.0539,0.0039
1066,0.0448,0.1078,0.1076,0.0078,0.0140,0.0502,0.0522,0.0036
1067,0.0447,0.1047,0.1037,0.0078,0.0137,0.0432,0.0443,0.0034
1068,0.0443,0.0989,0.0983,0.0078,0.0104,0.0322,0.0347,0.0037
1069,0.0447,0.1025,0.1007,0.0079,0.0134,0.0393,0.0396,0.0039
1070,0.0447,0.1022,0.0999,0.0083,0.0133,0.0400,0.0389,0.0045
1071,0.0448,0.1030,0.1003,0.0087,0.0136,0.0415,0.0398,0.0052
1072,0.0450,0.1057,0.1023,0.0092,0.0142,0.0436,0.0419,0.0058
1073,0.0444,0.1001,0.1000,0.0078,0.0121,0.0385,0.0415,0.0039
1074,0.0445,0.1023,0.0979,0.0292,0.0117,0.0429,0.0386,0.0200
1075,0.0445,0.1032,0.1007,0.0252,0.0125,0.0441,0.0429,0.0170
1076,0.0446,0.1019,0.1015,0.0209,0.0128,0.0421,0.0442,0.0139
1077,0.0446,0.0999,0.1000,0.0170,0.0126,0.0387,0.0420,0.0109
1078,0.0445,0.0970,0.0966,0.0136,0.0117,0.0320,0.0357,0.0079
1079,0.0443,0.0989,0.0983,0.0078,0.0104,0.0322,0.0347,0.0037
1080,0.0444,0.0961,0.0949,0.0120,0.0113,0.0295,0.0314,0.0067
1081,0.0444,0.0960,0.0947,0.0114,0.0113,0.0294,0.0307,0.0067
1082,0.0444,0.0960,0.0947,0.0107,0.0113,0.0292,0.0304,0.0065
1083,0.0444,0.0965,0.0954,0.0099,0.0116,0.0297,0.0320,0.0060
1084,0.0444,0.0970,0.0962,0.0088,0.0119,0.0307,0.0334,0.0052
1085,0.0446,0.1052,0.1058,0.0079,0.0131,0.0473,0.0505,0.0040
1086,0.0444,0.0973,0.0966,0.0078,0.0112,0.0316,0.0341,0.0037
1087,0.0443,0.0974,0.0965,0.0086,0.0109,0.0317,0.0336,0.0048
1088,0.0443,0.0976,0.0965,0.0096,0.0110,0.0328,0.0332,0.0061
1089,0.0444,0.0986,0.0974,0.0111,0.0113,0.0354,0.0349,0.0077
1090,0.0443,0.0989,0.0983,0.0078,0.0104,0.0322,0.0347,0.0037
1091,0.0444,0.0999,0.0988,0.0127,0.0114,0.0377,0.0366,0.0091
1092,0.0444,0.1036,0.1026,0.0158,0.0114,0.0432,0.0422,0.0110
1093,0.0444,0.1102,0.1075,0.0207,0.0115,0.0509,0.0491,0.0141
1094,0.0445,0.1133,0.1077,0.0261,0.0123,0.0545,0.0484,0.0176
1095,0.0449,0.1127,0.1038,0.0319,0.0142,0.0560,0.0455,0.0214
1096,0.0458,0.1099,0.1010,0.0374,0.0173,0.0560,0.0437,0.0250
1097,0.0448,0.1084,0.1086,0.0079,0.0138,0.0516,0.0539,0.0039
1098,0.0444,0.0974,0.0968,0.0078,0.0117,0.0320,0.0346,0.0039
1099,0.0444,0.0974,0.0968,0.0078,0.0117,0.0320,0.0346,0.0039
1100,0.0444,0.0974,0.0968,0.0078,0.0117,0.0320,0.0346,0.0039
1101,0.0443,0.0989,0.0983,0.0078,0.0104,0.0322,0.0347,0.0037
1102,0.0444,0.0974,0.0968,0.0078,0.0117,0.0320,0.0346,0.0039
1103,0.0444,0.0974,0.0968,0.0078,0.0117,0.0320,0.0346,0.0039
1104,0.0444,0.0974,0.0968,0.0078,0.0117,0.0320,0.0346,0.0039
1105,0.0444,0.0974,0.0968,0.0078,0.0117,0.0320,0.0346,0.0039
1106,0.0444,0.0974,0.0968,0.0078,0.0117,0.0320,0.0346,0.0039
1107,0.0444,0.0974,0.0968,0.0078,0.0117,0.0320,0.0346,0.0039
1108,0.0444,0.0974,0.0968,0.0078,0.0117,0.0320,0.0346,0.0039
1109,0.0448,0.1078,0.1076,0.0078,0.0140,0.0502,0.0522,0.0036
1110,0.0444,0.0974,0.0968,0.0078,0.0117,0.0320,0.0346,0.0039
1111,0.0444,0.0974,0.0968,0.0078,0.0117,0.0320,0.0346,0.0039
1112,0.0443,0.0989,0.0983,0.0078,0.0104,0.0322,0.0347,0.0037
1113,0.0444,0.0974,0.0968,0.0078,0.0117,0.0320,0.0346,0.0039
1114,0.0444,0.0974,0.0968,0.0078,0.0117,0.0320,0.0346,0.0039
1115,0.0444,0.0974,0.0968,0.0078,0.0117,0.0320,0.0346,0.0039
1116,0.0444,0.0974,0.0968,0.0078,0.0117,0.0320,0.0346,0.0039
1117,0.0444,0.0974,0.0968,0.0078,0.0117,0.0320,0.0346,0.0039
1118,0.0444,0.0974,0.0968,0.0078,0.0117,0.0320,0.0346,0.0039
1119,0.0444,0.0974,0.0968,0.0078,0.0117,0.0320,0.0346,0.0039
1120,0.0444,0.0974,0.0968,0.0078,0.0117,0.0320,0.0346,0.0039
1121,0.0447,0.1047,0.1037,0.0078,0.0137,0.0432,0.0443,0.0034
1122,0.0444,0.0974,0.0968,0.0078,0.0117,0.0320,0.0346,0.0039
1123,0.0443,0.0989,0.0983,0.0078,0.0104,0.0322,0.0347,0.0037
1124,0.0444,0.0974,0.0968,0.0078,0.0117,0.0320,0.0346,0.0039
1125,0.0444,0.0974,0.0968,0.0078,0.0117,0.0320,0.0346,0.0039
1126,0.0444,0.0974,0.0968,0.0078,0.0117,0.0320,0.0346,0.0039
1127,0.0444,0.0974,0.0968,0.0078,0.0117,0.0320,0.0346,0.0039
1128,0.0444,0.0974,0.0968,0.0078,0.0117,0.0320,0.0346,0.0039
1129,0.0444,0.0974,0.0968,0.0078,0.0117,0.0320,0.0346,0.0039
1130,0.0444,0.0974,0.0968,0.0078,0.0117,0.0320,0.0346,0.0039
1131,0.0444,0.0974,0.0968,0.0078,0.0117,0.0320,0.0346,0.0039
1132,0.0444,0.0974,0.0968,0.0078,0.0117,0.0320,0.0346,0.0039
1133,0.0447,0.1025,0.1007,0.0079,0.0134,0.0393,0.0396,0.0039
1134,0.0443,0.0989,0.0983,0.0078,0.0104,0.0322,0.0347,0.0037
1135,0.0444,0.0974,0.0968,0.0078,0.0117,0.0320,0.0346,0.0039
1136,0.0444,0.0974,0.0968,0.0078,0.0117,0.0320,0.0346,0.0039
1137,0.0444,0.0974,0.0968,0.0078,0.0117,0.0320,0.0346,0.0039
1138,0.0444,0.0974,0.0968,0.0078,0.0117,0.0320,0.0346,0.0039
1139,0.0444,0.0974,0.0968,0.0078,0.0117,0.0320,0.0346,0.0039
1140,0.0454,0.1016,0.1036,0.0086,0.0158,0.0413,0.0458,0.0049
1141,0.0446,0.0979,0.1005,0.0096,0.0121,0.0373,0.0458,0.0059
1142,0.0447,0.1021,0.1052,0.0103,0.0127,0.0433,0.0487,0.0067
1143,0.0452,0.1089,0.1122,0.0107,0.0151,0.0553,0.0576,0.0070
1144,0.0447,0.1047,0.1037,0.0078,0.0137,0.0432,0.0443,0.0034
1145,0.0443,0.0989,0.0983,0.0078,0.0104,0.0322,0.0347,0.0037
1146,0.0447,0.1022,0.0999,0.0083,0.0133,0.0400,0.0389,0.0045
1147,0.0457,0.1149,0.1181,0.0101,0.0172,0.0640,0.0668,0.0065
1148,0.0457,0.1133,0.1161,0.0095,0.0170,0.0622,0.0652,0.0059
1149,0.0454,0.1095,0.1115,0.0088,0.0161,0.0565,0.0591,0.0052
1150,0.0450,0.1046,0.1059,0.0083,0.0148,0.0484,0.0511,0.0047
1151,0.0446,0.1001,0.1004,0.0080,0.0132,0.0389,0.0417,0.0042
1152,0.0444,0.0974,0.0966,0.0078,0.0114,0.0311,0.0337,0.0038
1153,0.0444,0.1001,0.1000,0.0078,0.0121,0.0385,0.0415,0.0039
1154,0.0446,0.1052,0.1058,0.0079,0.0131,0.0473,0.0505,0.0040
1155,0.0448,0.1084,0.1086,0.0079,0.0138,0.0516,0.0539,0.0039
1156,0.0445,0.1047,0.1010,0.0086,0.0120,0.0391,0.0376,0.0048
1157,0.0448,0.1078,0.1076,0.0078,0.0140,0.0502,0.0522,0.0036
1158,0.0448,0.1030,0.1003,0.0087,0.0136,0.0415,0.0398,0.0052
1159,0.0447,0.1047,0.1037,0.0078,0.0137,0.0432,0.0443,0.0034
1160,0.0447,0.1025,0.1007,0.0079,0.0134,0.0393,0.0396,0.0039
1161,0.0447,0.1022,0.0999,0.0083,0.0133,0.0400,0.0389,0.0045
1162,0.0448,0.1030,0.1003,0.0087,0.0136,0.0415,0.0398,0.0052
1163,0.0450,0.1057,0.1023,0.0092,0.0142,0.0436,0.0419,0.0058
1164,0.0445,0.1023,0.0979,0.0292,0.0117,0.0429,0.0386,0.0200
1165,0.0445,0.1032,0.1007,0.0252,0.0125,0.0441,0.0429,0.0170
1166,0.0446,0.1019,0.1015,0.0209,0.0128,0.0421,0.0442,0.0139
1167,0.0445,0.1097,0.1079,0.0079,0.0122,0.0519,0.0512,0.0036
1168,0.0443,0.0989,0.0983,0.0078,0.0104,0.0322,0.0347,0.0037
1169,0.0446,0.0948,0.0929,0.0077,0.0125,0.0266,0.0269,0.0034
1170,0.0446,0.0948,0.0929,0.0077,0.0125,0.0266,0.0269,0.0034
1171,0.0446,0.0948,0.0929,0.0077,0.0125,0.0266,0.0269,0.0034
1172,0.0445,0.0949,0.0931,0.0077,0.0123,0.0268,0.0273,0.0034
1173,0.0445,0.0949,0.0931,0.0077,0.0123,0.0268,0.0273,0.0034
1174,0.0446,0.0968,0.0957,0.0077,0.0131,0.0338,0.0354,0.0035
1175,0.0449,0.0998,0.0993,0.0078,0.0140,0.0410,0.0432,0.0037
1176,0.0451,0.1016,0.1014,0.0077,0.0148,0.0443,0.0466,0.0036
1177,0.0451,0.1005,0.1000,0.0077,0.0150,0.0419,0.0439,0.0035
1178,0.0450,0.0976,0.0963,0.0077,0.0147,0.0340,0.0352,0.0032
1179,0.0443,0.0989,0.0983,0.0078,0.0104,0.0322,0.0347,0.0037
1180,0.0449,0.0960,0.0942,0.0077,0.0144,0.0289,0.0296,0.0033
1181,0.0448,0.0960,0.0938,0.0078,0.0142,0.0304,0.0296,0.0038
1182,0.0450,0.0960,0.0937,0.0081,0.0146,0.0302,0.0294,0.0044
1183,0.0452,0.0968,0.0943,0.0086,0.0153,0.0310,0.0304,0.0050
1184,0.0446,0.0968,0.0957,0.0077,0.0131,0.0338,0.0354,0.0035
1185,0.0444,0.0964,0.0936,0.0160,0.0116,0.0297,0.0277,0.0101
1186,0.0446,0.0965,0.0945,0.0140,0.0127,0.0316,0.0321,0.0090
1187,0.0447,0.0964,0.0954,0.0124,0.0133,0.0321,0.0348,0.0081
1188,0.0446,0.0955,0.0945,0.0112,0.0131,0.0288,0.0324,0.0074
1189,0.0446,0.0949,0.0933,0.0104,0.0126,0.0269,0.0284,0.0066
1190,0.0443,0.0989,0.0983,0.0078,0.0104,0.0322,0.0347,0.0037
1191,0.0445,0.0949,0.0926,0.0098,0.0122,0.0277,0.0262,0.0063
1192,0.0445,0.0948,0.0925,0.0091,0.0121,0.0277,0.0258,0.0056
1193,0.0445,0.0946,0.0925,0.0086,0.0124,0.0265,0.0256,0.0046
1194,0.0446,0.0945,0.0925,0.0083,0.0127,0.0259,0.0258,0.0044
1195,0.0446,0.0946,0.0927,0.0079,0.0129,0.0259,0.0261,0.0041
1196,0.0449,0.0998,0.0993,0.0078,0.0140,0.0410,0.0432,0.0037
1197,0.0444,0.0948,0.0929,0.0078,0.0118,0.0268,0.0268,0.0036
1198,0.0443,0.0950,0.0931,0.0080,0.0111,0.0276,0.0273,0.0039
1199,0.0443,0.0953,0.0933,0.0084,0.0110,0.0289,0.0278,0.0044
1200,0.0444,0.0958,0.0937,0.0091,0.0112,0.0305,0.0288,0.0052
1201,0.0443,0.0989,0.0983,0.0078,0.0104,0.0322,0.0347,0.0037
1202,0.0444,0.0967,0.0950,0.0097,0.0118,0.0332,0.0313,0.0059
1203,0.0444,0.0991,0.0976,0.0105,0.0117,0.0380,0.0367,0.0064
1204,0.0444,0.1025,0.1004,0.0119,0.0111,0.0430,0.0420,0.0079
1205,0.0443,0.1039,0.1002,0.0140,0.0109,0.0454,0.0408,0.0100
1206,0.0445,0.1029,0.0974,0.0167,0.0125,0.0459,0.0378,0.0122
1207,0.0452,0.1016,0.0979,0.0193,0.0155,0.0441,0.0390,0.0141
1208,0.0451,0.1016,0.1014,0.0077,0.0148,0.0443,0.0466,0.0036
1209,0.0446,0.0948,0.0929,0.0077,0.0125,0.0266,0.0269,0.0034
1210,0.0446,0.0948,0.0929,0.0077,0.0125,0.0266,0.0269,0.0034
1211,0.0446,0.0948,0.0929,0.0077,0.0125,0.0266,0.0269,0.0034
1212,0.0443,0.0989,0.0983,0.0078,0.0104,0.0322,0.0347,0.0037
1213,0.0446,0.0948,0.0929,0.0077,0.0125,0.0266,0.0269,0.0034
1214,0.0446,0.0948,0.0929,0.0077,0.0125,0.0266,0.0269,0.0034
1215,0.0446,0.0948,0.0929,0.0077,0.0125,0.0266,0.0269,0.0034
1216,0.0446,0.0948,0.0929,0.0077,0.0125,0.0266,0.0269,0.0034
1217,0.0446,0.0948,0.0929,0.0077,0.0125,0.0266,0.0269,0.0034
1218,0.0446,0.0948,0.0929,0.0077,0.0125,0.0266,0.0269,0.0034
1219,0.0446,0.0948,0.0929,0.0077,0.0125,0.0266,0.0269,0.0034
1220,0.0451,0.1005,0.1000,0.0077,0.0150,0.0419,0.0439,0.0035
1221,0.0446,0.0948,0.0929,0.0077,0.0125,0.0266,0.0269,0.0034
1222,0.0446,0.0948,0.0929,0.0077,0.0125,0.0266,0.0269,0.0034
1223,0.0457,0.1010,0.1040,0.0084,0.0169,0.0408,0.0497,0.0047
1224,0.0446,0.0948,0.0929,0.0077,0.0125,0.0266,0.0269,0.0034
1225,0.0446,0.0948,0.0929,0.0077,0.0125,0.0266,0.0269,0.0034
1226,0.0446,0.0948,0.0929,0.0077,0.0125,0.0266,0.0269,0.0034
1227,0.0446,0.0948,0.0929,0.0077,0.0125,0.0266,0.0269,0.0034
1228,0.0446,0.0948,0.0929,0.0077,0.0125,0.0266,0.0269,0.0034
1229,0.0446,0.0948,0.0929,0.0077,0.0125,0.0266,0.0269,0.0034
1230,0.0446,0.0948,0.0929,0.0077,0.0125,0.0266,0.0269,0.0034
1231,0.0446,0.0948,0.0929,0.0077,0.0125,0.0266,0.0269,0.0034
1232,0.0450,0.0976,0.0963,0.0077,0.0147,0.0340,0.0352,0.0032
1233,0.0446,0.0948,0.0929,0.0077,0.0125,0.0266,0.0269,0.0034
1234,0.0446,0.0985,0.1045,0.0094,0.0121,0.0378,0.0502,0.0058
1235,0.0446,0.0948,0.0929,0.0077,0.0125,0.0266,0.0269,0.0034
1236,0.0446,0.0948,0.0929,0.0077,0.0125,0.0266,0.0269,0.0034
1237,0.0446,0.0948,0.0929,0.0077,0.0125,0.0266,0.0269,0.0034
1238,0.0446,0.0948,0.0929,0.0077,0.0125,0.0266,0.0269,0.0034
1239,0.0446,0.0948,0.0929,0.0077,0.0125,0.0266,0.0269,0.0034
1240,0.0446,0.0948,0.0929,0.0077,0.0125,0.0266,0.0269,0.0034
1241,0.0446,0.0948,0.0929,0.0077,0.0125,0.0266,0.0269,0.0034
1242,0.0446,0.0948,0.0929,0.0077,0.0125,0.0266,0.0269,0.0034
1243,0.0446,0.0948,0.0929,0.0077,0.0125,0.0266,0.0269,0.0034
1244,0.0449,0.0960,0.0942,0.0077,0.0144,0.0289,0.0296,0.0033
1245,0.0446,0.1043,0.1118,0.0102,0.0119,0.0466,0.0540,0.0066
1246,0.0446,0.0948,0.0929,0.0077,0.0125,0.0266,0.0269,0.0034
1247,0.0446,0.0948,0.0929,0.0077,0.0125,0.0266,0.0269,0.0034
1248,0.0446,0.0948,0.0929,0.0077,0.0125,0.0266,0.0269,0.0034
1249,0.0446,0.0948,0.0929,0.0077,0.0125,0.0266,0.0269,0.0034
1250,0.0446,0.0948,0.0929,0.0077,0.0125,0.0266,0.0269,0.0034
1251,0.0453,0.1027,0.1045,0.0082,0.0150,0.0460,0.0497,0.0041
1252,0.0446,0.0962,0.0955,0.0090,0.0125,0.0309,0.0334,0.0051
1253,0.0449,0.0984,0.0966,0.0096,0.0134,0.0372,0.0368,0.0058
1254,0.0454,0.1037,0.1013,0.0099,0.0158,0.0490,0.0460,0.0061
1255,0.0450,0.0976,0.0963,0.0077,0.0147,0.0340,0.0352,0.0032
1256,0.0449,0.1122,0.1201,0.0106,0.0141,0.0598,0.0660,0.0070
1257,0.0448,0.0960,0.0938,0.0078,0.0142,0.0304,0.0296,0.0038
1258,0.0460,0.1091,0.1070,0.0094,0.0178,0.0579,0.0561,0.0056
1259,0.0459,0.1080,0.1060,0.0089,0.0176,0.0566,0.0551,0.0051
1260,0.0456,0.1039,0.1022,0.0083,0.0167,0.0501,0.0492,0.0045
1261,0.0452,0.1001,0.0983,0.0079,0.0155,0.0428,0.0421,0.0040
1262,0.0449,0.0965,0.0948,0.0077,0.0140,0.0334,0.0334,0.0036
1263,0.0445,0.0949,0.0931,0.0077,0.0123,0.0268,0.0273,0.0034
1264,0.0446,0.0968,0.0957,0.0077,0.0131,0.0338,0.0354,0.0035
1265,0.0449,0.0998,0.0993,0.0078,0.0140,0.0410,0.0432,0.0037
1266,0.0451,0.1016,0.1014,0.0077,0.0148,0.0443,0.0466,0.0036
1267,0.0445,0.1068,0.1035,0.0081,0.0119,0.0439,0.0418,0.0042
1268,0.0451,0.1005,0.1000,0.0077,0.0150,0.0419,0.0439,0.0035
1269,0.0450,0.0960,0.0937,0.0081,0.0146,0.0302,0.0294,0.0044
1270,0.0450,0.0976,0.0963,0.0077,0.0147,0.0340,0.0352,0.0032
1271,0.0449,0.0960,0.0942,0.0077,0.0144,0.0289,0.0296,0.0033
1272,0.0448,0.0960,0.0938,0.0078,0.0142,0.0304,0.0296,0.0038
1273,0.0450,0.0960,0.0937,0.0081,0.0146,0.0302,0.0294,0.0044
1274,0.0452,0.0968,0.0943,0.0086,0.0153,0.0310,0.0304,0.0050
1275,0.0444,0.0964,0.0936,0.0160,0.0116,0.0297,0.0277,0.0101
1276,0.0446,0.0965,0.0945,0.0140,0.0127,0.0316,0.0321,0.0090
1277,0.0447,0.0964,0.0954,0.0124,0.0133,0.0321,0.0348,0.0081
1278,0.0445,0.1099,0.1073,0.0079,0.0123,0.0513,0.0496,0.0037
1279,0.0446,0.1049,0.1008,0.0092,0.0124,0.0397,0.0377,0.0055
1280,0.0447,0.0940,0.0921,0.0077,0.0130,0.0241,0.0250,0.0033
1281,0.0447,0.0940,0.0921,0.0077,0.0130,0.0241,0.0250,0.0033
1282,0.0447,0.0940,0.0921,0.0077,0.0130,0.0241,0.0250,0.0033
1283,0.0447,0.0942,0.0923,0.0077,0.0130,0.0246,0.0254,0.0034
1284,0.0447,0.0942,0.0923,0.0077,0.0130,0.0246,0.0254,0.0034
1285,0.0448,0.0953,0.0938,0.0077,0.0138,0.0301,0.0307,0.0034
1286,0.0450,0.0968,0.0958,0.0077,0.0146,0.0352,0.0367,0.0034
1287,0.0453,0.0977,0.0971,0.0077,0.0154,0.0376,0.0397,0.0033
1288,0.0453,0.0968,0.0960,0.0077,0.0157,0.0350,0.0368,0.0033
1289,0.0452,0.0949,0.0933,0.0076,0.0153,0.0262,0.0274,0.0032
1290,0.0454,0.1201,0.1266,0.0102,0.0162,0.0695,0.0747,0.0066
1291,0.0451,0.0948,0.0926,0.0076,0.0151,0.0277,0.0263,0.0031
1292,0.0450,0.0956,0.0930,0.0077,0.0150,0.0319,0.0292,0.0034
1293,0.0452,0.0955,0.0929,0.0079,0.0154,0.0315,0.0290,0.0039
1294,0.0454,0.0947,0.0923,0.0084,0.0162,0.0276,0.0256,0.0046
1295,0.0448,0.0953,0.0938,0.0077,0.0138,0.0301,0.0307,0.0034
1296,0.0444,0.0978,0.0946,0.0230,0.0115,0.0363,0.0326,0.0163
1297,0.0446,0.0957,0.0931,0.0189,0.0129,0.0305,0.0270,0.0134
1298,0.0447,0.0952,0.0933,0.0165,0.0137,0.0283,0.0273,0.0116
1299,0.0447,0.0951,0.0929,0.0153,0.0135,0.0291,0.0264,0.0105
1300,0.0447,0.0950,0.0925,0.0136,0.0132,0.0292,0.0263,0.0090
1301,0.0453,0.1183,0.1237,0.0096,0.0160,0.0676,0.0724,0.0061
1302,0.0446,0.0953,0.0927,0.0118,0.0129,0.0303,0.0277,0.0079
1303,0.0446,0.0952,0.0927,0.0099,0.0129,0.0300,0.0281,0.0065
1304,0.0447,0.0948,0.0926,0.0086,0.0131,0.0286,0.0276,0.0051
1305,0.0447,0.0943,0.0924,0.0079,0.0134,0.0265,0.0267,0.0039
1306,0.0448,0.0940,0.0921,0.0077,0.0136,0.0243,0.0251,0.0034
1307,0.0450,0.0968,0.0958,0.0077,0.0146,0.0352,0.0367,0.0034
1308,0.0445,0.0942,0.0922,0.0077,0.0121,0.0250,0.0258,0.0035
1309,0.0443,0.0944,0.0925,0.0079,0.0112,0.0258,0.0265,0.0034
1310,0.0443,0.0947,0.0927,0.0083,0.0108,0.0273,0.0268,0.0042
1311,0.0444,0.0951,0.0929,0.0094,0.0116,0.0281,0.0265,0.0060
1312,0.0450,0.1133,0.1171,0.0089,0.0150,0.0608,0.0646,0.0054
1313,0.0445,0.0953,0.0933,0.0106,0.0125,0.0285,0.0261,0.0074
1314,0.0445,0.0966,0.0949,0.0113,0.0127,0.0329,0.0311,0.0077
1315,0.0445,0.0981,0.0964,0.0117,0.0123,0.0359,0.0354,0.0078
1316,0.0444,0.0987,0.0962,0.0123,0.0116,0.0374,0.0341,0.0083
1317,0.0444,0.0982,0.0946,0.0135,0.0115,0.0374,0.0309,0.0090
1318,0.0448,0.0997,0.0985,0.0155,0.0140,0.0379,0.0411,0.0103
1319,0.0453,0.0977,0.0971,0.0077,0.0154,0.0376,0.0397,0.0033
1320,0.0447,0.0940,0.0921,0.0077,0.0130,0.0241,0.0250,0.0033
1321,0.0447,0.0940,0.0921,0.0077,0.0130,0.0241,0.0250,0.0033
1322,0.0447,0.0940,0.0921,0.0077,0.0130,0.0241,0.0250,0.0033
1323,0.0447,0.1078,0.1100,0.0083,0.0137,0.0524,0.0555,0.0047
1324,0.0447,0.0940,0.0921,0.0077,0.0130,0.0241,0.0250,0.0033
1325,0.0447,0.0940,0.0921,0.0077,0.0130,0.0241,0.0250,0.0033
1326,0.0447,0.0940,0.0921,0.0077,0.0130,0.0241,0.0250,0.0033
1327,0.0447,0.0940,0.0921,0.0077,0.0130,0.0241,0.0250,0.0033
1328,0.0447,0.0940,0.0921,0.0077,0.0130,0.0241,0.0250,0.0033
1329,0.0447,0.0940,0.0921,0.0077,0.0130,0.0241,0.0250,0.0033
1330,0.0447,0.0940,0.0921,0.0077,0.0130,0.0241,0.0250,0.0033
1331,0.0453,0.0968,0.0960,0.0077,0.0157,0.0350,0.0368,0.0033
1332,0.0447,0.0940,0.0921,0.0077,0.0130,0.0241,0.0250,0.0033
1333,0.0447,0.0940,0.0921,0.0077,0.0130,0.0241,0.0250,0.0033
1334,0.0444,0.1023,0.1031,0.0080,0.0120,0.0418,0.0444,0.0041
1335,0.0447,0.0940,0.0921,0.0077,0.0130,0.0241,0.0250,0.0033
1336,0.0447,0.0940,0.0921,0.0077,0.0130,0.0241,0.0250,0.0033
1337,0.0447,0.0940,0.0921,0.0077,0.0130,0.0241,0.0250,0.0033
1338,0.0447,0.0940,0.0921,0.0077,0.0130,0.0241,0.0250,0.0033
1339,0.0447,0.0940,0.0921,0.0077,0.0130,0.0241,0.0250,0.0033
1340,0.0447,0.0940,0.0921,0.0077,0.0130,0.0241,0.0250,0.0033
1341,0.0447,0.0940,0.0921,0.0077,0.0130,0.0241,0.0250,0.0033
1342,0.0447,0.0940,0.0921,0.0077,0.0130,0.0241,0.0250,0.0033
1343,0.0452,0.0949,0.0933,0.0076,0.0153,0.0262,0.0274,0.0032
1344,0.0447,0.0940,0.0921,0.0077,0.0130,0.0241,0.0250,0.0033
1345,0.0443,0.0987,0.0974,0.0078,0.0102,0.0323,0.0332,0.0036
1346,0.0447,0.0940,0.0921,0.0077,0.0130,0.0241,0.0250,0.0033
1347,0.0447,0.0940,0.0921,0.0077,0.0130,0.0241,0.0250,0.0033
1348,0.0447,0.0940,0.0921,0.0077,0.0130,0.0241,0.0250,0.0033
1349,0.0447,0.0940,0.0921,0.0077,0.0130,0.0241,0.0250,0.0033
1350,0.0447,0.0940,0.0921,0.0077,0.0130,0.0241,0.0250,0.0033
1351,0.0447,0.0940,0.0921,0.0077,0.0130,0.0241,0.0250,0.0033
1352,0.0447,0.0940,0.0921,0.0077,0.0130,0.0241,0.0250,0.0033
1353,0.0447,0.0940,0.0921,0.0077,0.0130,0.0241,0.0250,0.0033
1354,0.0447,0.0940,0.0921,0.0077,0.0130,0.0241,0.0250,0.0033
1355,0.0451,0.0948,0.0926,0.0076,0.0151,0.0277,0.0263,0.0031
1356,0.0443,0.1013,0.1001,0.0078,0.0106,0.0382,0.0388,0.0037
1357,0.0447,0.0940,0.0921,0.0077,0.0130,0.0241,0.0250,0.0033
1358,0.0447,0.0940,0.0921,0.0077,0.0130,0.0241,0.0250,0.0033
1359,0.0447,0.0940,0.0921,0.0077,0.0130,0.0241,0.0250,0.0033
1360,0.0447,0.0940,0.0921,0.0077,0.0130,0.0241,0.0250,0.0033
1361,0.0447,0.0940,0.0921,0.0077,0.0130,0.0241,0.0250,0.0033
1362,0.0452,0.1050,0.1093,0.0081,0.0146,0.0513,0.0594,0.0037
1363,0.0447,0.0961,0.0961,0.0087,0.0128,0.0306,0.0365,0.0045
1364,0.0450,0.0966,0.0936,0.0093,0.0138,0.0322,0.0274,0.0052
1365,0.0455,0.1005,0.0960,0.0095,0.0161,0.0436,0.0366,0.0055
1366,0.0452,0.0949,0.0933,0.0076,0.0153,0.0262,0.0274,0.0032
1367,0.0444,0.1062,0.1051,0.0079,0.0115,0.0470,0.0474,0.0037
1368,0.0450,0.0956,0.0930,0.0077,0.0150,0.0319,0.0292,0.0034
1369,0.0461,0.1050,0.1004,0.0090,0.0180,0.0524,0.0470,0.0049
1370,0.0460,0.1045,0.1004,0.0086,0.0179,0.0516,0.0471,0.0045
1371,0.0457,0.1010,0.0975,0.0081,0.0170,0.0456,0.0416,0.0040
1372,0.0453,0.0973,0.0945,0.0078,0.0157,0.0375,0.0344,0.0035
1373,0.0450,0.0948,0.0926,0.0077,0.0143,0.0285,0.0263,0.0033
1374,0.0447,0.0942,0.0923,0.0077,0.0130,0.0246,0.0254,0.0034
1375,0.0448,0.0953,0.0938,0.0077,0.0138,0.0301,0.0307,0.0034
1376,0.0450,0.0968,0.0958,0.0077,0.0146,0.0352,0.0367,0.0034
1377,0.0453,0.0977,0.0971,0.0077,0.0154,0.0376,0.0397,0.0033
1378,0.0445,0.1097,0.1079,0.0079,0.0122,0.0519,0.0512,0.0036
1379,0.0453,0.0968,0.0960,0.0077,0.0157,0.0350,0.0368,0.0033
1380,0.0452,0.0955,0.0929,0.0079,0.0154,0.0315,0.0290,0.0039
1381,0.0452,0.0949,0.0933,0.0076,0.0153,0.0262,0.0274,0.0032
1382,0.0451,0.0948,0.0926,0.0076,0.0151,0.0277,0.0263,0.0031
1383,0.0450,0.0956,0.0930,0.0077,0.0150,0.0319,0.0292,0.0034
1384,0.0452,0.0955,0.0929,0.0079,0.0154,0.0315,0.0290,0.0039
1385,0.0454,0.0947,0.0923,0.0084,0.0162,0.0276,0.0256,0.0046
1386,0.0444,0.0978,0.0946,0.0230,0.0115,0.0363,0.0326,0.0163
1387,0.0446,0.0957,0.0931,0.0189,0.0129,0.0305,0.0270,0.0134
1388,0.0447,0.0952,0.0933,0.0165,0.0137,0.0283,0.0273,0.0116
1389,0.0445,0.1068,0.1035,0.0081,0.0119,0.0439,0.0418,0.0042
1390,0.0445,0.1099,0.1073,0.0079,0.0123,0.0513,0.0496,0.0037
1391,0.0447,0.0941,0.0924,0.0077,0.0131,0.0250,0.0267,0.0035
1392,0.0447,0.0941,0.0924,0.0077,0.0131,0.0250,0.0267,0.0035
1393,0.0447,0.0941,0.0924,0.0077,0.0131,0.0250,0.0267,0.0035
1394,0.0447,0.0941,0.0922,0.0077,0.0133,0.0243,0.0255,0.0035
1395,0.0447,0.0941,0.0922,0.0077,0.0133,0.0243,0.0255,0.0035
1396,0.0449,0.0949,0.0933,0.0077,0.0140,0.0276,0.0280,0.0035
1397,0.0451,0.0960,0.0949,0.0077,0.0148,0.0322,0.0336,0.0034
1398,0.0454,0.0967,0.0959,0.0077,0.0156,0.0348,0.0366,0.0032
1399,0.0454,0.0961,0.0950,0.0077,0.0159,0.0322,0.0338,0.0032
1400,0.0453,0.0947,0.0930,0.0076,0.0155,0.0267,0.0260,0.0032
1401,0.0447,0.1064,0.1014,0.0097,0.0129,0.0417,0.0382,0.0062
1402,0.0452,0.0952,0.0928,0.0076,0.0154,0.0293,0.0278,0.0032
1403,0.0451,0.0967,0.0939,0.0077,0.0152,0.0348,0.0320,0.0033
1404,0.0452,0.0966,0.0938,0.0079,0.0157,0.0347,0.0318,0.0038
1405,0.0455,0.0951,0.0926,0.0084,0.0165,0.0295,0.0277,0.0046
1406,0.0449,0.0949,0.0933,0.0077,0.0140,0.0276,0.0280,0.0035
1407,0.0444,0.1001,0.0962,0.0287,0.0115,0.0408,0.0366,0.0199
1408,0.0446,0.0966,0.0935,0.0236,0.0129,0.0336,0.0293,0.0165
1409,0.0447,0.0957,0.0932,0.0203,0.0137,0.0311,0.0277,0.0142
1410,0.0447,0.0956,0.0931,0.0183,0.0136,0.0313,0.0281,0.0125
1411,0.0447,0.0958,0.0930,0.0160,0.0133,0.0320,0.0287,0.0106
1412,0.0445,0.1068,0.1035,0.0081,0.0119,0.0439,0.0418,0.0042
1413,0.0447,0.0957,0.0930,0.0131,0.0132,0.0317,0.0291,0.0089
1414,0.0447,0.0957,0.0933,0.0107,0.0132,0.0317,0.0301,0.0073
1415,0.0447,0.0952,0.0932,0.0090,0.0134,0.0300,0.0296,0.0056
1416,0.0448,0.0944,0.0926,0.0080,0.0139,0.0270,0.0279,0.0041
1417,0.0449,0.0942,0.0924,0.0078,0.0138,0.0253,0.0269,0.0037
1418,0.0451,0.0960,0.0949,0.0077,0.0148,0.0322,0.0336,0.0034
1419,0.0445,0.0943,0.0926,0.0077,0.0121,0.0263,0.0279,0.0035
1420,0.0443,0.0945,0.0928,0.0079,0.0112,0.0267,0.0280,0.0034
1421,0.0443,0.0947,0.0928,0.0084,0.0107,0.0276,0.0278,0.0046
1422,0.0444,0.0951,0.0930,0.0100,0.0119,0.0286,0.0276,0.0068
1423,0.0445,0.1047,0.1010,0.0086,0.0120,0.0391,0.0376,0.0048
1424,0.0445,0.0951,0.0931,0.0116,0.0128,0.0270,0.0247,0.0084
1425,0.0446,0.0959,0.0943,0.0129,0.0131,0.0303,0.0287,0.0092
1426,0.0446,0.0970,0.0954,0.0140,0.0128,0.0327,0.0324,0.0099
1427,0.0445,0.0975,0.0953,0.0148,0.0122,0.0343,0.0315,0.0108
1428,0.0444,0.0972,0.0943,0.0162,0.0118,0.0338,0.0290,0.0119
1429,0.0448,0.1001,0.0993,0.0187,0.0133,0.0400,0.0438,0.0138
1430,0.0454,0.0967,0.0959,0.0077,0.0156,0.0348,0.0366,0.0032
1431,0.0447,0.0941,0.0924,0.0077,0.0131,0.0250,0.0267,0.0035
1432,0.0447,0.0941,0.0924,0.0077,0.0131,0.0250,0.0267,0.0035
1433,0.0447,0.0941,0.0924,0.0077,0.0131,0.0250,0.0267,0.0035
1434,0.0446,0.1049,0.1008,0.0092,0.0124,0.0397,0.0377,0.0055
1435,0.0447,0.0941,0.0924,0.0077,0.0131,0.0250,0.0267,0.0035
1436,0.0447,0.0941,0.0924,0.0077,0.0131,0.0250,0.0267,0.0035
1437,0.0447,0.0941,0.0924,0.0077,0.0131,0.0250,0.0267,0.0035
1438,0.0447,0.0941,0.0924,0.0077,0.0131,0.0250,0.0267,0.0035
1439,0.0447,0.0941,0.0924,0.0077,0.0131,0.0250,0.0267,0.0035
1440,0.0447,0.0941,0.0924,0.0077,0.0131,0.0250,0.0267,0.0035
1441,0.0447,0.0941,0.0924,0.0077,0.0131,0.0250,0.0267,0.0035
1442,0.0454,0.0961,0.0950,0.0077,0.0159,0.0322,0.0338,0.0032
1443,0.0447,0.0941,0.0924,0.0077,0.0131,0.0250,0.0267,0.0035
1444,0.0447,0.0941,0.0924,0.0077,0.0131,0.0250,0.0267,0.0035
1445,0.0447,0.1064,0.1014,0.0097,0.0129,0.0417,0.0382,0.0062
1446,0.0447,0.0941,0.0924,0.0077,0.0131,0.0250,0.0267,0.0035
1447,0.0447,0.0941,0.0924,0.0077,0.0131,0.0250,0.0267,0.0035
1448,0.0447,0.0941,0.0924,0.0077,0.0131,0.0250,0.0267,0.0035
1449,0.0447,0.0941,0.0924,0.0077,0.0131,0.0250,0.0267,0.0035
1450,0.0447,0.0941,0.0924,0.0077,0.0131,0.0250,0.0267,0.0035
1451,0.0447,0.0941,0.0924,0.0077,0.0131,0.0250,0.0267,0.0035
1452,0.0447,0.0941,0.0924,0.0077,0.0131,0.0250,0.0267,0.0035
1453,0.0447,0.0941,0.0924,0.0077,0.0131,0.0250,0.0267,0.0035
1454,0.0453,0.0947,0.0930,0.0076,0.0155,0.0267,0.0260,0.0032
1455,0.0447,0.0941,0.0924,0.0077,0.0131,0.0250,0.0267,0.0035
1456,0.0448,0.1110,0.1044,0.0101,0.0134,0.0467,0.0412,0.0067
1457,0.0447,0.0941,0.0924,0.0077,0.0131,0.0250,0.0267,0.0035
1458,0.0447,0.0941,0.0924,0.0077,0.0131,0.0250,0.0267,0.0035
1459,0.0447,0.0941,0.0924,0.0077,0.0131,0.0250,0.0267,0.0035
1460,0.0447,0.0941,0.0924,0.0077,0.0131,0.0250,0.0267,0.0035
1461,0.0447,0.0941,0.0924,0.0077,0.0131,0.0250,0.0267,0.0035
1462,0.0447,0.0941,0.0924,0.0077,0.0131,0.0250,0.0267,0.0035
1463,0.0447,0.0941,0.0924,0.0077,0.0131,0.0250,0.0267,0.0035
1464,0.0447,0.0941,0.0924,0.0077,0.0131,0.0250,0.0267,0.0035
1465,0.0447,0.0941,0.0924,0.0077,0.0131,0.0250,0.0267,0.0035
1466,0.0452,0.0952,0.0928,0.0076,0.0154,0.0293,0.0278,0.0032
1467,0.0445,0.1073,0.1002,0.0397,0.0119,0.0487,0.0417,0.0258
1468,0.0447,0.0941,0.0924,0.0077,0.0131,0.0250,0.0267,0.0035
1469,0.0447,0.0941,0.0924,0.0077,0.0131,0.0250,0.0267,0.0035
1470,0.0447,0.0941,0.0924,0.0077,0.0131,0.0250,0.0267,0.0035
1471,0.0447,0.0941,0.0924,0.0077,0.0131,0.0250,0.0267,0.0035
1472,0.0447,0.0941,0.0924,0.0077,0.0131,0.0250,0.0267,0.0035
1473,0.0452,0.1059,0.1121,0.0081,0.0146,0.0531,0.0634,0.0037
1474,0.0447,0.0963,0.0975,0.0087,0.0130,0.0323,0.0404,0.0044
1475,0.0450,0.0961,0.0936,0.0092,0.0139,0.0298,0.0268,0.0050
1476,0.0455,0.0993,0.0948,0.0094,0.0162,0.0411,0.0324,0.0053
1477,0.0453,0.0947,0.0930,0.0076,0.0155,0.0267,0.0260,0.0032
1478,0.0446,0.1082,0.1032,0.0343,0.0129,0.0492,0.0452,0.0220
1479,0.0451,0.0967,0.0939,0.0077,0.0152,0.0348,0.0320,0.0033
1480,0.0461,0.1038,0.0987,0.0090,0.0181,0.0504,0.0436,0.0047
1481,0.0461,0.1035,0.0990,0.0085,0.0181,0.0501,0.0443,0.0043
1482,0.0458,0.1001,0.0963,0.0080,0.0171,0.0440,0.0388,0.0038
1483,0.0454,0.0966,0.0937,0.0078,0.0159,0.0357,0.0316,0.0035
1484,0.0450,0.0945,0.0924,0.0077,0.0145,0.0269,0.0248,0.0034
1485,0.0447,0.0941,0.0922,0.0077,0.0133,0.0243,0.0255,0.0035
1486,0.0449,0.0949,0.0933,0.0077,0.0140,0.0276,0.0280,0.0035
1487,0.0451,0.0960,0.0949,0.0077,0.0148,0.0322,0.0336,0.0034
1488,0.0454,0.0967,0.0959,0.0077,0.0156,0.0348,0.0366,0.0032
1489,0.0446,0.1068,0.1045,0.0290,0.0132,0.0476,0.0474,0.0184
1490,0.0454,0.0961,0.0950,0.0077,0.0159,0.0322,0.0338,0.0032
1491,0.0452,0.0966,0.0938,0.0079,0.0157,0.0347,0.0318,0.0038
1492,0.0453,0.0947,0.0930,0.0076,0.0155,0.0267,0.0260,0.0032
1493,0.0452,0.0952,0.0928,0.0076,0.0154,0.0293,0.0278,0.0032
1494,0.0451,0.0967,0.0939,0.0077,0.0152,0.0348,0.0320,0.0033
1495,0.0452,0.0966,0.0938,0.0079,0.0157,0.0347,0.0318,0.0038
1496,0.0455,0.0951,0.0926,0.0084,0.0165,0.0295,0.0277,0.0046
1497,0.0444,0.1001,0.0962,0.0287,0.0115,0.0408,0.0366,0.0199
1498,0.0446,0.0966,0.0935,0.0236,0.0129,0.0336,0.0293,0.0165
1499,0.0447,0.0957,0.0932,0.0203,0.0137,0.0311,0.0277,0.0142
1500,0.0691,0.0842,0.0868,0.0105,0.0250,0.0203,0.0219,0.0071
1501,0.0625,0.0868,0.0889,0.0117,0.0238,0.0198,0.0246,0.0088
1502,0.0560,0.0899,0.0910,0.0111,0.0217,0.0233,0.0266,0.0078
1503,0.0499,0.0932,0.0930,0.0101,0.0191,0.0236,0.0262,0.0054
1504,0.0444,0.0970,0.0949,0.0099,0.0160,0.0213,0.0236,0.0030
1505,0.0398,0.1018,0.0973,0.0109,0.0123,0.0199,0.0204,0.0031
1506,0.0364,0.1076,0.1002,0.0124,0.0083,0.0233,0.0193,0.0037
1507,0.0345,0.1144,0.1036,0.0141,0.0084,0.0259,0.0210,0.0038
1508,0.0342,0.1223,0.1076,0.0157,0.0100,0.0282,0.0224,0.0044
1509,0.0352,0.1314,0.1121,0.0173,0.0123,0.0306,0.0234,0.0051
1510,0.0376,0.1418,0.1175,0.0187,0.0151,0.0343,0.0256,0.0046
1511,0.0702,0.0853,0.0881,0.0101,0.0231,0.0196,0.0200,0.0065
1512,0.0632,0.0879,0.0898,0.0110,0.0208,0.0205,0.0211,0.0080
1513,0.0564,0.0908,0.0916,0.0103,0.0176,0.0229,0.0222,0.0067
1514,0.0501,0.0939,0.0934,0.0094,0.0141,0.0222,0.0214,0.0042
1515,0.0446,0.0977,0.0954,0.0096,0.0106,0.0192,0.0190,0.0027
1516,0.0402,0.1024,0.0977,0.0107,0.0102,0.0220,0.0194,0.0041
1517,0.0373,0.1081,0.1006,0.0121,0.0106,0.0257,0.0216,0.0046
1518,0.0357,0.1148,0.1038,0.0135,0.0114,0.0279,0.0232,0.0043
1519,0.0354,0.1224,0.1075,0.0150,0.0127,0.0299,0.0242,0.0043
1520,0.0359,0.1310,0.1118,0.0164,0.0143,0.0317,0.0247,0.0046
1521,0.0379,0.1409,0.1168,0.0178,0.0159,0.0346,0.0252,0.0044
1522,0.0717,0.0846,0.0880,0.0089,0.0216,0.0192,0.0229,0.0047
1523,0.0645,0.0870,0.0895,0.0097,0.0190,0.0201,0.0198,0.0062
1524,0.0576,0.0897,0.0909,0.0092,0.0154,0.0219,0.0183,0.0051
1525,0.0513,0.0927,0.0925,0.0086,0.0125,0.0210,0.0180,0.0028
1526,0.0458,0.0963,0.0944,0.0090,0.0119,0.0189,0.0188,0.0034
1527,0.0415,0.1008,0.0966,0.0101,0.0119,0.0220,0.0207,0.0047
1528,0.0386,0.1063,0.0993,0.0114,0.0122,0.0254,0.0226,0.0049
1529,0.0370,0.1128,0.1024,0.0126,0.0128,0.0275,0.0240,0.0044
1530,0.0364,0.1201,0.1059,0.0139,0.0137,0.0294,0.0248,0.0039
1531,0.0367,0.1285,0.1100,0.0153,0.0150,0.0310,0.0252,0.0040
1532,0.0383,0.1381,0.1149,0.0167,0.0162,0.0334,0.0254,0.0050
1533,0.0735,0.0821,0.0866,0.0078,0.0212,0.0189,0.0259,0.0025
1534,0.0662,0.0843,0.0877,0.0084,0.0186,0.0188,0.0229,0.0045
1535,0.0592,0.0868,0.0889,0.0081,0.0152,0.0207,0.0193,0.0038
1536,0.0528,0.0897,0.0904,0.0077,0.0130,0.0203,0.0182,0.0023
1537,0.0473,0.0931,0.0921,0.0081,0.0122,0.0181,0.0190,0.0035
1538,0.0429,0.0975,0.0943,0.0092,0.0121,0.0204,0.0205,0.0047
1539,0.0398,0.1029,0.0969,0.0102,0.0123,0.0234,0.0222,0.0048
1540,0.0380,0.1093,0.0999,0.0113,0.0126,0.0256,0.0235,0.0041
1541,0.0372,0.1165,0.1034,0.0126,0.0135,0.0277,0.0244,0.0034
1542,0.0374,0.1249,0.1075,0.0141,0.0150,0.0294,0.0249,0.0047
1543,0.0388,0.1344,0.1124,0.0158,0.0163,0.0317,0.0252,0.0065
1544,0.0754,0.0781,0.0837,0.0071,0.0215,0.0185,0.0271,0.0023
1545,0.0680,0.0803,0.0849,0.0073,0.0194,0.0170,0.0244,0.0030
1546,0.0610,0.0828,0.0860,0.0072,0.0163,0.0192,0.0202,0.0029
1547,0.0545,0.0857,0.0874,0.0067,0.0131,0.0196,0.0179,0.0022
1548,0.0489,0.0891,0.0891,0.0070,0.0119,0.0181,0.0182,0.0033
1549,0.0444,0.0935,0.0913,0.0079,0.0117,0.0184,0.0195,0.0043
1550,0.0411,0.0988,0.0940,0.0089,0.0119,0.0211,0.0210,0.0044
1551,0.0390,0.1052,0.0971,0.0100,0.0122,0.0234,0.0225,0.0036
1552,0.0381,0.1126,0.1007,0.0113,0.0131,0.0257,0.0235,0.0032
1553,0.0381,0.1211,0.1050,0.0132,0.0149,0.0277,0.0243,0.0058
1554,0.0393,0.1308,0.1099,0.0152,0.0164,0.0302,0.0249,0.0080
1555,0.0774,0.0733,0.0799,0.0071,0.0222,0.0177,0.0264,0.0044
1556,0.0700,0.0757,0.0814,0.0065,0.0208,0.0157,0.0249,0.0015
1557,0.0629,0.0783,0.0826,0.0063,0.0181,0.0173,0.0204,0.0021
1558,0.0564,0.0813,0.0841,0.0058,0.0150,0.0185,0.0173,0.0020
1559,0.0506,0.0849,0.0860,0.0059,0.0121,0.0178,0.0174,0.0030
1560,0.0459,0.0894,0.0883,0.0067,0.0114,0.0170,0.0185,0.0040
1561,0.0424,0.0949,0.0911,0.0077,0.0116,0.0192,0.0200,0.0041
1562,0.0401,0.1015,0.0944,0.0088,0.0121,0.0217,0.0216,0.0034
1563,0.0390,0.1092,0.0983,0.0103,0.0131,0.0242,0.0229,0.0033
1564,0.0389,0.1180,0.1028,0.0125,0.0151,0.0266,0.0240,0.0066
1565,0.0398,0.1280,0.1080,0.0150,0.0167,0.0293,0.0249,0.0093
1566,0.0794,0.0684,0.0758,0.0081,0.0230,0.0163,0.0245,0.0066
1567,0.0719,0.0711,0.0779,0.0060,0.0222,0.0158,0.0248,0.0023
1568,0.0648,0.0739,0.0793,0.0057,0.0198,0.0154,0.0207,0.0016
1569,0.0582,0.0772,0.0810,0.0051,0.0166,0.0170,0.0169,0.0020
1570,0.0523,0.0811,0.0832,0.0050,0.0134,0.0171,0.0169,0.0029
1571,0.0474,0.0859,0.0858,0.0058,0.0115,0.0161,0.0179,0.0039
1572,0.0437,0.0917,0.0888,0.0069,0.0117,0.0182,0.0195,0.0041
1573,0.0413,0.0987,0.0924,0.0078,0.0125,0.0208,0.0213,0.0034
1574,0.0400,0.1068,0.0967,0.0094,0.0137,0.0236,0.0230,0.0032
1575,0.0398,0.1161,0.1015,0.0119,0.0161,0.0263,0.0244,0.0069
1576,0.0404,0.1265,0.1071,0.0148,0.0179,0.0291,0.0256,0.0102
1577,0.0812,0.0639,0.0719,0.0098,0.0235,0.0142,0.0220,0.0091
1578,0.0737,0.0671,0.0748,0.0061,0.0232,0.0155,0.0246,0.0038
1579,0.0665,0.0703,0.0766,0.0053,0.0208,0.0138,0.0214,0.0021
1580,0.0598,0.0739,0.0786,0.0047,0.0174,0.0155,0.0172,0.0023
1581,0.0538,0.0782,0.0810,0.0046,0.0138,0.0160,0.0169,0.0032
1582,0.0487,0.0833,0.0839,0.0055,0.0117,0.0155,0.0180,0.0042
1583,0.0449,0.0896,0.0874,0.0065,0.0123,0.0179,0.0199,0.0045
1584,0.0424,0.0971,0.0914,0.0073,0.0137,0.0209,0.0221,0.0037
1585,0.0412,0.1058,0.0961,0.0087,0.0155,0.0241,0.0242,0.0029
1586,0.0411,0.1156,0.1013,0.0113,0.0185,0.0271,0.0260,0.0067
1587,0.0415,0.1267,0.1073,0.0146,0.0207,0.0302,0.0274,0.0104
1588,0.0828,0.0602,0.0688,0.0120,0.0236,0.0130,0.0199,0.0116
1589,0.0752,0.0640,0.0725,0.0069,0.0235,0.0151,0.0250,0.0055
1590,0.0679,0.0676,0.0748,0.0055,0.0210,0.0142,0.0228,0.0032
1591,0.0610,0.0716,0.0770,0.0048,0.0172,0.0142,0.0188,0.0031
1592,0.0549,0.0763,0.0798,0.0049,0.0129,0.0148,0.0178,0.0040
1593,0.0497,0.0820,0.0831,0.0059,0.0126,0.0156,0.0192,0.0050
1594,0.0459,0.0889,0.0870,0.0068,0.0140,0.0186,0.0215,0.0054
1595,0.0437,0.0970,0.0915,0.0074,0.0163,0.0221,0.0244,0.0046
1596,0.0431,0.1064,0.0968,0.0083,0.0191,0.0259,0.0270,0.0033
1597,0.0436,0.1170,0.1026,0.0108,0.0231,0.0295,0.0291,0.0058
1598,0.0443,0.1287,0.1091,0.0141,0.0260,0.0329,0.0308,0.0098
1599,0.0725,0.0798,0.0835,0.0111,0.0274,0.0245,0.0310,0.0074
1600,0.0647,0.0823,0.0869,0.0117,0.0203,0.0223,0.0357,0.0072
1601,0.0580,0.0849,0.0875,0.0123,0.0211,0.0217,0.0289,0.0077
1602,0.0516,0.0879,0.0889,0.0123,0.0199,0.0197,0.0217,0.0080
1603,0.0455,0.0918,0.0914,0.0120,0.0164,0.0196,0.0183,0.0078
1604,0.0399,0.0968,0.0946,0.0121,0.0111,0.0212,0.0188,0.0070
1605,0.0358,0.1034,0.0987,0.0136,0.0083,0.0222,0.0196,0.0060
1606,0.0337,0.1122,0.1038,0.0169,0.0092,0.0222,0.0208,0.0075
1607,0.0331,0.1238,0.1103,0.0211,0.0067,0.0303,0.0221,0.0111
1608,0.0350,0.1384,0.1184,0.0236,0.0100,0.0355,0.0263,0.0103
1609,0.0386,0.1566,0.1286,0.0282,0.0136,0.0443,0.0309,0.0170
1610,0.0733,0.0814,0.0844,0.0099,0.0262,0.0208,0.0252,0.0052
1611,0.0655,0.0841,0.0868,0.0107,0.0205,0.0244,0.0270,0.0046
1612,0.0585,0.0865,0.0882,0.0112,0.0209,0.0217,0.0212,0.0048
1613,0.0520,0.0894,0.0901,0.0110,0.0198,0.0192,0.0197,0.0050
1614,0.0458,0.0932,0.0926,0.0108,0.0170,0.0193,0.0208,0.0052
1615,0.0402,0.0981,0.0956,0.0114,0.0120,0.0213,0.0199,0.0051
1616,0.0360,0.1047,0.0994,0.0133,0.0068,0.0228,0.0189,0.0047
1617,0.0339,0.1134,0.1043,0.0163,0.0083,0.0222,0.0202,0.0060
1618,0.0334,0.1247,0.1106,0.0199,0.0069,0.0285,0.0218,0.0091
1619,0.0349,0.1389,0.1185,0.0224,0.0092,0.0344,0.0263,0.0086
1620,0.0382,0.1565,0.1284,0.0270,0.0139,0.0426,0.0321,0.0161
1621,0.0744,0.0821,0.0849,0.0092,0.0259,0.0239,0.0207,0.0034
1622,0.0665,0.0845,0.0869,0.0104,0.0206,0.0246,0.0219,0.0046
1623,0.0593,0.0866,0.0884,0.0109,0.0207,0.0210,0.0195,0.0050
1624,0.0527,0.0893,0.0903,0.0103,0.0197,0.0185,0.0220,0.0036
1625,0.0465,0.0929,0.0924,0.0101,0.0174,0.0188,0.0221,0.0040
1626,0.0410,0.0977,0.0952,0.0109,0.0132,0.0208,0.0203,0.0045
1627,0.0366,0.1041,0.0988,0.0127,0.0072,0.0227,0.0186,0.0045
1628,0.0342,0.1125,0.1035,0.0155,0.0063,0.0225,0.0198,0.0057
1629,0.0336,0.1235,0.1095,0.0188,0.0065,0.0266,0.0213,0.0084
1630,0.0350,0.1375,0.1172,0.0213,0.0093,0.0338,0.0252,0.0086
1631,0.0380,0.1544,0.1269,0.0246,0.0138,0.0397,0.0318,0.0132
1632,0.0757,0.0812,0.0843,0.0087,0.0256,0.0242,0.0200,0.0024
1633,0.0676,0.0833,0.0861,0.0101,0.0209,0.0239,0.0190,0.0054
1634,0.0603,0.0852,0.0876,0.0105,0.0208,0.0201,0.0210,0.0058
1635,0.0536,0.0878,0.0893,0.0097,0.0200,0.0182,0.0231,0.0038
1636,0.0475,0.0912,0.0913,0.0094,0.0182,0.0184,0.0229,0.0033
1637,0.0421,0.0959,0.0938,0.0102,0.0148,0.0197,0.0207,0.0044
1638,0.0375,0.1022,0.0973,0.0120,0.0096,0.0219,0.0184,0.0048
1639,0.0347,0.1105,0.1019,0.0146,0.0053,0.0222,0.0194,0.0057
1640,0.0339,0.1214,0.1078,0.0177,0.0061,0.0248,0.0211,0.0078
1641,0.0352,0.1352,0.1154,0.0202,0.0095,0.0328,0.0235,0.0087
1642,0.0381,0.1518,0.1249,0.0225,0.0139,0.0375,0.0304,0.0106
1643,0.0770,0.0791,0.0828,0.0083,0.0250,0.0231,0.0217,0.0023
1644,0.0689,0.0811,0.0845,0.0096,0.0214,0.0230,0.0195,0.0053
1645,0.0615,0.0830,0.0860,0.0100,0.0214,0.0192,0.0215,0.0059
1646,0.0548,0.0855,0.0877,0.0091,0.0206,0.0178,0.0237,0.0039
1647,0.0487,0.0889,0.0897,0.0086,0.0192,0.0182,0.0236,0.0029
1648,0.0433,0.0936,0.0921,0.0095,0.0165,0.0183,0.0212,0.0044
1649,0.0387,0.0999,0.0955,0.0113,0.0120,0.0208,0.0184,0.0049
1650,0.0356,0.1083,0.1001,0.0137,0.0069,0.0217,0.0190,0.0056
1651,0.0345,0.1191,0.1061,0.0165,0.0063,0.0240,0.0210,0.0071
1652,0.0355,0.1329,0.1137,0.0191,0.0101,0.0314,0.0227,0.0083
1653,0.0383,0.1496,0.1232,0.0211,0.0148,0.0364,0.0282,0.0090
1654,0.0784,0.0763,0.0808,0.0079,0.0244,0.0215,0.0230,0.0031
1655,0.0702,0.0785,0.0825,0.0090,0.0222,0.0221,0.0198,0.0049
1656,0.0628,0.0805,0.0841,0.0094,0.0221,0.0185,0.0214,0.0058
1657,0.0560,0.0831,0.0859,0.0085,0.0212,0.0172,0.0238,0.0040
1658,0.0498,0.0867,0.0880,0.0079,0.0198,0.0179,0.0239,0.0024
1659,0.0445,0.0914,0.0905,0.0087,0.0175,0.0172,0.0216,0.0041
1660,0.0398,0.0979,0.0940,0.0105,0.0134,0.0199,0.0184,0.0048
1661,0.0364,0.1065,0.0987,0.0128,0.0083,0.0215,0.0189,0.0052
1662,0.0351,0.1175,0.1049,0.0155,0.0068,0.0238,0.0213,0.0061
1663,0.0358,0.1315,0.1126,0.0180,0.0101,0.0295,0.0231,0.0072
1664,0.0384,0.1485,0.1223,0.0201,0.0145,0.0359,0.0257,0.0083
1665,0.0797,0.0735,0.0788,0.0078,0.0238,0.0196,0.0239,0.0040
1666,0.0715,0.0760,0.0806,0.0083,0.0228,0.0212,0.0196,0.0044
1667,0.0640,0.0783,0.0824,0.0089,0.0226,0.0180,0.0209,0.0056
1668,0.0570,0.0811,0.0844,0.0080,0.0214,0.0167,0.0233,0.0040
1669,0.0507,0.0849,0.0867,0.0072,0.0197,0.0175,0.0237,0.0018
1670,0.0452,0.0899,0.0894,0.0080,0.0173,0.0167,0.0214,0.0036
1671,0.0406,0.0967,0.0931,0.0098,0.0133,0.0197,0.0179,0.0043
1672,0.0371,0.1057,0.0980,0.0120,0.0080,0.0219,0.0194,0.0045
1673,0.0356,0.1171,0.1045,0.0146,0.0076,0.0245,0.0223,0.0049
1674,0.0361,0.1313,0.1125,0.0171,0.0107,0.0289,0.0244,0.0058
1675,0.0384,0.1487,0.1224,0.0194,0.0147,0.0364,0.0261,0.0080
1676,0.0809,0.0712,0.0772,0.0080,0.0236,0.0181,0.0242,0.0050
1677,0.0726,0.0741,0.0792,0.0077,0.0232,0.0204,0.0190,0.0038
1678,0.0650,0.0766,0.0812,0.0085,0.0226,0.0176,0.0199,0.0054
1679,0.0578,0.0797,0.0834,0.0076,0.0209,0.0164,0.0222,0.0041
1680,0.0513,0.0838,0.0859,0.0067,0.0186,0.0172,0.0226,0.0018
1681,0.0457,0.0893,0.0889,0.0074,0.0157,0.0168,0.0202,0.0030
1682,0.0409,0.0965,0.0929,0.0092,0.0114,0.0203,0.0175,0.0037
1683,0.0376,0.1059,0.0982,0.0114,0.0079,0.0232,0.0209,0.0038
1684,0.0364,0.1178,0.1050,0.0140,0.0099,0.0261,0.0242,0.0042
1685,0.0368,0.1325,0.1134,0.0164,0.0132,0.0305,0.0267,0.0050
1686,0.0388,0.1503,0.1235,0.0188,0.0171,0.0385,0.0283,0.0079
1687,0.0819,0.0697,0.0760,0.0083,0.0237,0.0170,0.0234,0.0060
1688,0.0735,0.0729,0.0784,0.0072,0.0230,0.0198,0.0181,0.0031
1689,0.0657,0.0758,0.0806,0.0080,0.0219,0.0173,0.0183,0.0050
1690,0.0583,0.0792,0.0829,0.0072,0.0195,0.0161,0.0203,0.0040
1691,0.0517,0.0837,0.0857,0.0064,0.0165,0.0167,0.0205,0.0018
1692,0.0458,0.0895,0.0890,0.0070,0.0127,0.0176,0.0179,0.0027
1693,0.0413,0.0973,0.0934,0.0088,0.0094,0.0218,0.0192,0.0033
1694,0.0385,0.1072,0.0992,0.0110,0.0108,0.0255,0.0236,0.0032
1695,0.0380,0.1196,0.1064,0.0135,0.0142,0.0290,0.0274,0.0040
1696,0.0387,0.1347,0.1151,0.0159,0.0181,0.0337,0.0301,0.0048
1697,0.0407,0.1529,0.1254,0.0184,0.0221,0.0424,0.0318,0.0078
Total Error Summary
Vdc  MAE=  0.0131 RMSE=  0.0455
Idc  MAE=  0.0329 RMSE=  0.0992
Id   MAE=  0.0328 RMSE=  0.0968
Iq   MAE=  0.0053 RMSE=  0.0112
