Read Model from: ./ucf2/
Export Model to: ./ucf2/ucf2_fhf.json
idx_in [0, 1, 2, 3, 4, 5, 6, 7, 8]
idx_out [9, 10, 11, 12]
make_mimo_block iir
H1s[0][0]  Real Poles: [-587.08372156 -522.35197299 -452.71235226 -452.71235226] Freqs [Hz]: [18.183176056858013]
H1s[0][1]  Real Poles: [-705.72960108 -705.72960108 -306.13093161 -306.13093161] Freqs [Hz]: [29.5729853716291, 38.87415244901333]
H1s[0][2]  Real Poles: [-703.07179432 -703.07179432 -286.80811652 -286.80811652] Freqs [Hz]: [30.045512889685718, 38.06130993020939]
H1s[0][3]  Real Poles: [-672.43308187 -672.43308187 -325.1169961  -325.1169961 ] Freqs [Hz]: [24.129319402943015, 32.5697009295732]
H1s[1][0]  Real Poles: [-783.93822997 -533.51424642 -533.51424642  -87.24833922] Freqs [Hz]: [48.127733654916575]
H1s[1][1]  Real Poles: [-724.1851058  -724.1851058  -271.81954876 -271.81954876] Freqs [Hz]: [31.621887170117933, 42.649698268223595]
H1s[1][2]  Real Poles: [-747.08880574 -747.08880574 -298.32581714 -298.32581714] Freqs [Hz]: [33.016370010941515, 50.80349923104373]
H1s[1][3]  Real Poles: [-703.65179834 -703.65179834 -311.03405784 -311.03405784] Freqs [Hz]: [28.143929937546748, 41.40209596219826]
H1s[2][0]  Real Poles: [-677.4066965  -514.67814942 -514.67814942 -291.26462712] Freqs [Hz]: [31.040566518328863]
H1s[2][1]  Real Poles: [-765.09172734 -533.83527765 -533.83527765  -93.41189609] Freqs [Hz]: [45.018887015652666]
H1s[2][2]  Real Poles: [-748.20849896 -748.20849896 -285.21370291 -285.21370291] Freqs [Hz]: [34.069986459282035, 50.63386674735963]
H1s[2][3]  Real Poles: [-680.38618124 -518.91139702 -518.91139702 -282.39348933] Freqs [Hz]: [30.614437307011055]
H1s[3][0]  Real Poles: [-653.21855593 -653.21855593 -351.12821338 -351.12821338] Freqs [Hz]: [22.08631632463798, 28.483270014590726]
H1s[3][1]  Real Poles: [-715.74541274 -715.74541274 -275.46161413 -275.46161413] Freqs [Hz]: [31.32752760272863, 40.490806534018624]
H1s[3][2]  Real Poles: [-732.4682837 -732.4682837 -266.9516836 -266.9516836] Freqs [Hz]: [32.61775165732853, 46.15714340884263]
H1s[3][3]  Real Poles: [-666.93798964 -666.93798964 -337.62308816 -337.62308816] Freqs [Hz]: [24.221937631849485, 30.657040073324968]
model_folder = ./ucf2/
model_root = ucf2
data_path = d:/data/ucf2.hdf5
idx_in [0, 1, 2, 3, 4, 5, 6, 7, 8]
idx_out [9, 10, 11, 12]
read 1500 dataframes
dt=0.002000 data_len=2500 n_io=13 n_case=1500
['T', 'G', 'Fc', 'Md1', 'Mq1', 'Vod', 'Voq', 'GVrms', 'Ctl'] ['Vdc', 'Idc', 'Id', 'Iq'] (1500, 2500, 13)
make_mimo_block iir
prepending initial conditions (1500, 500, 13) (1500, 2500, 13) float32 float32
results in (1500, 3000, 13)
Idx,Vdc,Idc,Id,Iq
#,RMSE,RMSE,RMSE,RMSE
Total,0.0069,0.0057,0.0060,0.0031
0,0.0068,0.0053,0.0059,0.0030
1,0.0068,0.0052,0.0059,0.0030
2,0.0068,0.0052,0.0059,0.0030
3,0.0069,0.0053,0.0059,0.0030
4,0.0068,0.0054,0.0059,0.0030
5,0.0070,0.0056,0.0059,0.0030
6,0.0073,0.0061,0.0060,0.0030
7,0.0073,0.0060,0.0060,0.0030
8,0.0071,0.0058,0.0060,0.0030
9,0.0069,0.0055,0.0060,0.0030
10,0.0068,0.0054,0.0060,0.0031
11,0.0068,0.0053,0.0060,0.0031
12,0.0069,0.0054,0.0060,0.0032
13,0.0071,0.0055,0.0061,0.0032
14,0.0070,0.0055,0.0059,0.0030
15,0.0075,0.0054,0.0068,0.0036
16,0.0068,0.0053,0.0065,0.0033
17,0.0070,0.0053,0.0063,0.0031
18,0.0072,0.0053,0.0061,0.0031
19,0.0071,0.0052,0.0061,0.0031
20,0.0069,0.0052,0.0060,0.0031
21,0.0068,0.0052,0.0060,0.0031
22,0.0068,0.0052,0.0060,0.0031
23,0.0068,0.0052,0.0059,0.0031
24,0.0068,0.0053,0.0059,0.0030
25,0.0070,0.0055,0.0059,0.0030
26,0.0068,0.0053,0.0059,0.0030
27,0.0068,0.0053,0.0060,0.0030
28,0.0068,0.0053,0.0060,0.0030
29,0.0069,0.0053,0.0060,0.0030
30,0.0070,0.0054,0.0061,0.0030
31,0.0071,0.0055,0.0061,0.0031
32,0.0071,0.0057,0.0062,0.0031
33,0.0070,0.0059,0.0062,0.0031
34,0.0068,0.0060,0.0062,0.0031
35,0.0069,0.0061,0.0061,0.0032
36,0.0070,0.0054,0.0059,0.0030
37,0.0068,0.0053,0.0059,0.0030
38,0.0068,0.0053,0.0059,0.0030
39,0.0068,0.0053,0.0059,0.0030
40,0.0068,0.0053,0.0059,0.0030
41,0.0068,0.0053,0.0059,0.0030
42,0.0068,0.0053,0.0059,0.0030
43,0.0068,0.0053,0.0059,0.0030
44,0.0068,0.0053,0.0059,0.0030
45,0.0068,0.0053,0.0059,0.0030
46,0.0068,0.0053,0.0059,0.0030
47,0.0069,0.0054,0.0059,0.0031
48,0.0068,0.0053,0.0059,0.0030
49,0.0068,0.0053,0.0059,0.0030
50,0.0068,0.0053,0.0059,0.0030
51,0.0068,0.0053,0.0059,0.0030
52,0.0068,0.0053,0.0059,0.0030
53,0.0068,0.0053,0.0059,0.0030
54,0.0068,0.0053,0.0059,0.0030
55,0.0068,0.0053,0.0059,0.0030
56,0.0068,0.0053,0.0059,0.0030
57,0.0068,0.0053,0.0059,0.0030
58,0.0068,0.0053,0.0059,0.0032
59,0.0068,0.0054,0.0060,0.0030
60,0.0068,0.0053,0.0059,0.0030
61,0.0068,0.0054,0.0059,0.0030
62,0.0068,0.0053,0.0059,0.0030
63,0.0068,0.0055,0.0059,0.0030
64,0.0068,0.0056,0.0059,0.0030
65,0.0068,0.0055,0.0059,0.0030
66,0.0068,0.0055,0.0059,0.0030
67,0.0068,0.0054,0.0059,0.0030
68,0.0068,0.0054,0.0059,0.0030
69,0.0068,0.0053,0.0059,0.0032
70,0.0068,0.0054,0.0059,0.0030
71,0.0068,0.0054,0.0059,0.0030
72,0.0068,0.0054,0.0059,0.0030
73,0.0068,0.0055,0.0059,0.0030
74,0.0068,0.0056,0.0059,0.0030
75,0.0081,0.0055,0.0061,0.0031
76,0.0071,0.0056,0.0061,0.0031
77,0.0070,0.0060,0.0061,0.0031
78,0.0072,0.0065,0.0060,0.0031
79,0.0069,0.0059,0.0060,0.0030
80,0.0068,0.0053,0.0059,0.0033
81,0.0075,0.0068,0.0060,0.0030
82,0.0074,0.0067,0.0060,0.0030
83,0.0072,0.0064,0.0059,0.0030
84,0.0070,0.0060,0.0059,0.0030
85,0.0068,0.0057,0.0059,0.0030
86,0.0068,0.0053,0.0059,0.0030
87,0.0068,0.0056,0.0059,0.0030
88,0.0071,0.0063,0.0059,0.0030
89,0.0072,0.0064,0.0059,0.0030
90,0.0070,0.0063,0.0060,0.0030
91,0.0069,0.0054,0.0059,0.0033
92,0.0069,0.0059,0.0060,0.0030
93,0.0068,0.0056,0.0060,0.0031
94,0.0068,0.0054,0.0060,0.0031
95,0.0069,0.0054,0.0060,0.0032
96,0.0071,0.0054,0.0061,0.0033
97,0.0073,0.0055,0.0065,0.0034
98,0.0068,0.0055,0.0063,0.0033
99,0.0071,0.0054,0.0061,0.0032
100,0.0072,0.0053,0.0061,0.0032
101,0.0069,0.0053,0.0060,0.0031
102,0.0070,0.0055,0.0060,0.0034
103,0.0068,0.0053,0.0060,0.0031
104,0.0068,0.0053,0.0060,0.0030
105,0.0068,0.0052,0.0060,0.0030
106,0.0068,0.0052,0.0059,0.0030
107,0.0068,0.0053,0.0059,0.0030
108,0.0068,0.0054,0.0059,0.0030
109,0.0068,0.0053,0.0059,0.0030
110,0.0068,0.0053,0.0060,0.0030
111,0.0068,0.0053,0.0060,0.0031
112,0.0068,0.0053,0.0061,0.0031
113,0.0068,0.0052,0.0059,0.0030
114,0.0073,0.0052,0.0060,0.0030
115,0.0069,0.0054,0.0061,0.0032
116,0.0070,0.0058,0.0062,0.0032
117,0.0069,0.0060,0.0063,0.0032
118,0.0068,0.0065,0.0063,0.0032
119,0.0072,0.0069,0.0063,0.0033
120,0.0068,0.0054,0.0059,0.0030
121,0.0068,0.0054,0.0059,0.0030
122,0.0068,0.0054,0.0059,0.0030
123,0.0068,0.0054,0.0059,0.0030
124,0.0068,0.0054,0.0059,0.0030
125,0.0068,0.0053,0.0060,0.0031
126,0.0068,0.0054,0.0059,0.0030
127,0.0068,0.0054,0.0059,0.0030
128,0.0068,0.0054,0.0059,0.0030
129,0.0068,0.0054,0.0059,0.0030
130,0.0068,0.0054,0.0059,0.0030
131,0.0068,0.0054,0.0059,0.0030
132,0.0068,0.0054,0.0059,0.0030
133,0.0068,0.0054,0.0059,0.0030
134,0.0068,0.0054,0.0059,0.0030
135,0.0068,0.0054,0.0059,0.0030
136,0.0068,0.0053,0.0060,0.0034
137,0.0068,0.0054,0.0059,0.0030
138,0.0068,0.0054,0.0059,0.0030
139,0.0068,0.0054,0.0059,0.0030
140,0.0068,0.0054,0.0059,0.0030
141,0.0068,0.0054,0.0059,0.0030
142,0.0068,0.0054,0.0060,0.0030
143,0.0068,0.0054,0.0060,0.0030
144,0.0068,0.0054,0.0059,0.0030
145,0.0068,0.0054,0.0059,0.0030
146,0.0068,0.0058,0.0060,0.0030
147,0.0070,0.0054,0.0059,0.0036
148,0.0068,0.0056,0.0059,0.0030
149,0.0068,0.0055,0.0059,0.0030
150,0.0068,0.0054,0.0059,0.0030
151,0.0068,0.0054,0.0059,0.0030
152,0.0068,0.0054,0.0059,0.0030
153,0.0068,0.0054,0.0059,0.0030
154,0.0068,0.0054,0.0059,0.0030
155,0.0068,0.0054,0.0059,0.0030
156,0.0068,0.0055,0.0059,0.0030
157,0.0068,0.0055,0.0059,0.0030
158,0.0071,0.0054,0.0059,0.0037
159,0.0079,0.0054,0.0061,0.0031
160,0.0071,0.0054,0.0061,0.0031
161,0.0071,0.0059,0.0060,0.0031
162,0.0074,0.0064,0.0060,0.0031
163,0.0070,0.0059,0.0060,0.0030
164,0.0078,0.0069,0.0060,0.0031
165,0.0077,0.0067,0.0059,0.0030
166,0.0075,0.0064,0.0059,0.0030
167,0.0072,0.0060,0.0059,0.0030
168,0.0069,0.0056,0.0059,0.0030
169,0.0070,0.0054,0.0059,0.0038
170,0.0068,0.0053,0.0060,0.0030
171,0.0068,0.0055,0.0060,0.0030
172,0.0072,0.0061,0.0060,0.0030
173,0.0073,0.0063,0.0060,0.0030
174,0.0072,0.0062,0.0060,0.0030
175,0.0070,0.0059,0.0060,0.0030
176,0.0069,0.0056,0.0061,0.0031
177,0.0068,0.0054,0.0061,0.0031
178,0.0069,0.0055,0.0061,0.0032
179,0.0070,0.0056,0.0061,0.0034
180,0.0069,0.0053,0.0059,0.0037
181,0.0071,0.0056,0.0065,0.0035
182,0.0069,0.0055,0.0062,0.0034
183,0.0072,0.0055,0.0061,0.0034
184,0.0073,0.0054,0.0061,0.0033
185,0.0070,0.0055,0.0060,0.0032
186,0.0068,0.0057,0.0060,0.0031
187,0.0068,0.0055,0.0060,0.0031
188,0.0068,0.0054,0.0060,0.0030
189,0.0068,0.0053,0.0060,0.0030
190,0.0068,0.0053,0.0060,0.0030
191,0.0068,0.0052,0.0059,0.0035
192,0.0068,0.0054,0.0059,0.0030
193,0.0068,0.0053,0.0059,0.0030
194,0.0068,0.0053,0.0059,0.0031
195,0.0068,0.0054,0.0059,0.0032
196,0.0068,0.0054,0.0060,0.0033
197,0.0069,0.0054,0.0060,0.0033
198,0.0070,0.0056,0.0061,0.0034
199,0.0069,0.0059,0.0062,0.0034
200,0.0068,0.0063,0.0062,0.0034
201,0.0072,0.0069,0.0062,0.0035
202,0.0068,0.0052,0.0059,0.0033
203,0.0068,0.0054,0.0059,0.0030
204,0.0068,0.0054,0.0059,0.0030
205,0.0068,0.0054,0.0059,0.0030
206,0.0068,0.0054,0.0059,0.0030
207,0.0068,0.0054,0.0059,0.0030
208,0.0068,0.0054,0.0059,0.0030
209,0.0068,0.0054,0.0059,0.0030
210,0.0068,0.0054,0.0059,0.0030
211,0.0068,0.0054,0.0059,0.0030
212,0.0068,0.0054,0.0059,0.0030
213,0.0068,0.0052,0.0059,0.0031
214,0.0068,0.0054,0.0059,0.0030
215,0.0068,0.0054,0.0059,0.0030
216,0.0068,0.0054,0.0059,0.0030
217,0.0068,0.0054,0.0059,0.0030
218,0.0068,0.0054,0.0059,0.0030
219,0.0068,0.0054,0.0059,0.0030
220,0.0068,0.0054,0.0059,0.0030
221,0.0068,0.0054,0.0059,0.0030
222,0.0068,0.0054,0.0059,0.0030
223,0.0068,0.0054,0.0059,0.0030
224,0.0068,0.0052,0.0059,0.0029
225,0.0068,0.0052,0.0059,0.0030
226,0.0069,0.0064,0.0061,0.0030
227,0.0069,0.0063,0.0060,0.0030
228,0.0068,0.0054,0.0060,0.0030
229,0.0068,0.0054,0.0059,0.0030
230,0.0069,0.0058,0.0060,0.0030
231,0.0068,0.0056,0.0059,0.0030
232,0.0068,0.0055,0.0059,0.0030
233,0.0068,0.0054,0.0059,0.0030
234,0.0068,0.0054,0.0060,0.0030
235,0.0068,0.0054,0.0060,0.0030
236,0.0068,0.0052,0.0059,0.0030
237,0.0068,0.0054,0.0060,0.0030
238,0.0068,0.0054,0.0060,0.0030
239,0.0068,0.0054,0.0060,0.0030
240,0.0068,0.0055,0.0060,0.0030
241,0.0069,0.0055,0.0059,0.0030
242,0.0090,0.0056,0.0062,0.0031
243,0.0071,0.0055,0.0061,0.0031
244,0.0072,0.0059,0.0061,0.0031
245,0.0077,0.0065,0.0060,0.0031
246,0.0071,0.0057,0.0061,0.0030
247,0.0068,0.0052,0.0060,0.0031
248,0.0081,0.0069,0.0060,0.0031
249,0.0080,0.0068,0.0059,0.0030
250,0.0077,0.0064,0.0059,0.0030
251,0.0073,0.0060,0.0059,0.0030
252,0.0070,0.0056,0.0059,0.0030
253,0.0068,0.0054,0.0060,0.0030
254,0.0069,0.0054,0.0060,0.0030
255,0.0073,0.0059,0.0060,0.0030
256,0.0074,0.0062,0.0061,0.0030
257,0.0073,0.0060,0.0061,0.0030
258,0.0068,0.0053,0.0060,0.0032
259,0.0071,0.0057,0.0061,0.0030
260,0.0069,0.0055,0.0062,0.0031
261,0.0068,0.0055,0.0062,0.0031
262,0.0068,0.0057,0.0062,0.0032
263,0.0069,0.0059,0.0062,0.0033
264,0.0070,0.0056,0.0066,0.0038
265,0.0069,0.0056,0.0063,0.0036
266,0.0074,0.0055,0.0062,0.0035
267,0.0074,0.0055,0.0061,0.0034
268,0.0070,0.0057,0.0061,0.0033
269,0.0068,0.0053,0.0060,0.0033
270,0.0068,0.0060,0.0061,0.0032
271,0.0068,0.0057,0.0060,0.0031
272,0.0068,0.0055,0.0060,0.0031
273,0.0068,0.0054,0.0060,0.0030
274,0.0068,0.0054,0.0060,0.0030
275,0.0068,0.0054,0.0060,0.0030
276,0.0068,0.0054,0.0059,0.0030
277,0.0068,0.0054,0.0059,0.0031
278,0.0069,0.0055,0.0059,0.0033
279,0.0069,0.0056,0.0059,0.0034
280,0.0068,0.0053,0.0060,0.0033
281,0.0070,0.0055,0.0060,0.0035
282,0.0071,0.0055,0.0060,0.0035
283,0.0069,0.0057,0.0060,0.0035
284,0.0068,0.0061,0.0061,0.0035
285,0.0071,0.0066,0.0060,0.0036
286,0.0068,0.0054,0.0060,0.0030
287,0.0068,0.0054,0.0060,0.0030
288,0.0068,0.0054,0.0060,0.0030
289,0.0068,0.0054,0.0060,0.0030
290,0.0068,0.0054,0.0060,0.0030
291,0.0068,0.0053,0.0061,0.0032
292,0.0068,0.0054,0.0060,0.0030
293,0.0068,0.0054,0.0060,0.0030
294,0.0068,0.0054,0.0060,0.0030
295,0.0068,0.0054,0.0060,0.0030
296,0.0068,0.0054,0.0060,0.0030
297,0.0068,0.0054,0.0060,0.0030
298,0.0068,0.0054,0.0060,0.0030
299,0.0068,0.0054,0.0060,0.0030
300,0.0068,0.0054,0.0060,0.0030
301,0.0068,0.0054,0.0060,0.0030
302,0.0068,0.0052,0.0061,0.0031
303,0.0068,0.0054,0.0060,0.0030
304,0.0068,0.0054,0.0060,0.0030
305,0.0068,0.0054,0.0060,0.0030
306,0.0068,0.0054,0.0060,0.0030
307,0.0068,0.0054,0.0060,0.0030
308,0.0068,0.0061,0.0060,0.0030
309,0.0069,0.0060,0.0060,0.0030
310,0.0068,0.0060,0.0060,0.0030
311,0.0068,0.0061,0.0060,0.0030
312,0.0069,0.0058,0.0060,0.0030
313,0.0070,0.0052,0.0062,0.0030
314,0.0069,0.0062,0.0060,0.0030
315,0.0069,0.0062,0.0060,0.0030
316,0.0068,0.0061,0.0060,0.0030
317,0.0068,0.0060,0.0060,0.0030
318,0.0068,0.0060,0.0060,0.0030
319,0.0069,0.0060,0.0060,0.0030
320,0.0069,0.0060,0.0060,0.0030
321,0.0069,0.0061,0.0060,0.0030
322,0.0068,0.0061,0.0060,0.0030
323,0.0069,0.0063,0.0060,0.0030
324,0.0072,0.0052,0.0062,0.0033
325,0.0084,0.0059,0.0061,0.0031
326,0.0073,0.0058,0.0061,0.0031
327,0.0072,0.0063,0.0061,0.0031
328,0.0075,0.0069,0.0061,0.0031
329,0.0071,0.0072,0.0061,0.0030
330,0.0080,0.0075,0.0060,0.0030
331,0.0078,0.0074,0.0060,0.0030
332,0.0076,0.0071,0.0060,0.0030
333,0.0072,0.0067,0.0060,0.0030
334,0.0070,0.0063,0.0060,0.0030
335,0.0068,0.0052,0.0059,0.0029
336,0.0068,0.0052,0.0059,0.0030
337,0.0069,0.0059,0.0060,0.0030
338,0.0069,0.0061,0.0060,0.0030
339,0.0072,0.0070,0.0060,0.0030
340,0.0074,0.0076,0.0061,0.0030
341,0.0073,0.0075,0.0061,0.0030
342,0.0071,0.0072,0.0061,0.0030
343,0.0070,0.0068,0.0061,0.0031
344,0.0069,0.0064,0.0062,0.0031
345,0.0069,0.0062,0.0062,0.0032
346,0.0070,0.0062,0.0062,0.0033
347,0.0068,0.0052,0.0059,0.0030
348,0.0070,0.0067,0.0064,0.0043
349,0.0069,0.0065,0.0061,0.0040
350,0.0073,0.0063,0.0061,0.0037
351,0.0072,0.0060,0.0060,0.0036
352,0.0069,0.0060,0.0060,0.0034
353,0.0068,0.0061,0.0060,0.0033
354,0.0068,0.0060,0.0060,0.0032
355,0.0068,0.0059,0.0060,0.0031
356,0.0068,0.0059,0.0060,0.0030
357,0.0068,0.0059,0.0060,0.0030
358,0.0068,0.0052,0.0059,0.0030
359,0.0068,0.0060,0.0060,0.0030
360,0.0068,0.0059,0.0060,0.0030
361,0.0068,0.0058,0.0060,0.0032
362,0.0069,0.0059,0.0060,0.0033
363,0.0069,0.0059,0.0061,0.0034
364,0.0069,0.0059,0.0061,0.0035
365,0.0070,0.0060,0.0062,0.0035
366,0.0069,0.0063,0.0063,0.0036
367,0.0069,0.0068,0.0063,0.0038
368,0.0076,0.0076,0.0063,0.0042
369,0.0068,0.0052,0.0059,0.0030
370,0.0069,0.0060,0.0060,0.0030
371,0.0069,0.0060,0.0060,0.0030
372,0.0069,0.0060,0.0060,0.0030
373,0.0069,0.0060,0.0060,0.0030
374,0.0069,0.0060,0.0060,0.0030
375,0.0069,0.0060,0.0060,0.0030
376,0.0069,0.0060,0.0060,0.0030
377,0.0069,0.0060,0.0060,0.0030
378,0.0069,0.0060,0.0060,0.0030
379,0.0069,0.0060,0.0060,0.0030
380,0.0068,0.0052,0.0059,0.0030
381,0.0069,0.0060,0.0060,0.0030
382,0.0069,0.0060,0.0060,0.0030
383,0.0069,0.0060,0.0060,0.0030
384,0.0069,0.0060,0.0060,0.0030
385,0.0069,0.0060,0.0060,0.0030
386,0.0069,0.0060,0.0060,0.0030
387,0.0069,0.0060,0.0060,0.0030
388,0.0069,0.0060,0.0060,0.0030
389,0.0069,0.0060,0.0060,0.0030
390,0.0069,0.0060,0.0060,0.0030
391,0.0068,0.0052,0.0059,0.0030
392,0.0068,0.0058,0.0059,0.0030
393,0.0068,0.0058,0.0060,0.0030
394,0.0069,0.0058,0.0060,0.0030
395,0.0068,0.0058,0.0060,0.0030
396,0.0069,0.0057,0.0060,0.0030
397,0.0069,0.0060,0.0060,0.0030
398,0.0069,0.0059,0.0060,0.0030
399,0.0068,0.0059,0.0060,0.0030
400,0.0068,0.0058,0.0060,0.0030
401,0.0068,0.0058,0.0060,0.0030
402,0.0068,0.0052,0.0059,0.0030
403,0.0069,0.0058,0.0060,0.0030
404,0.0069,0.0058,0.0060,0.0030
405,0.0069,0.0059,0.0060,0.0030
406,0.0069,0.0059,0.0060,0.0030
407,0.0069,0.0060,0.0060,0.0030
408,0.0081,0.0058,0.0061,0.0032
409,0.0072,0.0057,0.0061,0.0031
410,0.0072,0.0062,0.0061,0.0031
411,0.0076,0.0068,0.0061,0.0031
412,0.0072,0.0066,0.0061,0.0030
413,0.0068,0.0052,0.0059,0.0030
414,0.0081,0.0073,0.0060,0.0030
415,0.0079,0.0072,0.0060,0.0030
416,0.0076,0.0069,0.0060,0.0030
417,0.0073,0.0065,0.0060,0.0030
418,0.0071,0.0061,0.0060,0.0030
419,0.0068,0.0057,0.0060,0.0030
420,0.0069,0.0059,0.0060,0.0030
421,0.0073,0.0066,0.0060,0.0030
422,0.0074,0.0070,0.0060,0.0030
423,0.0074,0.0069,0.0061,0.0030
424,0.0068,0.0052,0.0059,0.0030
425,0.0072,0.0066,0.0061,0.0030
426,0.0070,0.0062,0.0062,0.0030
427,0.0069,0.0059,0.0062,0.0031
428,0.0069,0.0059,0.0062,0.0031
429,0.0069,0.0060,0.0063,0.0032
430,0.0070,0.0061,0.0066,0.0041
431,0.0070,0.0060,0.0062,0.0038
432,0.0073,0.0059,0.0061,0.0036
433,0.0073,0.0058,0.0061,0.0035
434,0.0070,0.0060,0.0060,0.0034
435,0.0068,0.0052,0.0059,0.0030
436,0.0068,0.0061,0.0060,0.0032
437,0.0068,0.0060,0.0060,0.0032
438,0.0068,0.0058,0.0060,0.0031
439,0.0068,0.0057,0.0060,0.0030
440,0.0068,0.0057,0.0060,0.0030
441,0.0068,0.0058,0.0060,0.0030
442,0.0068,0.0057,0.0060,0.0030
443,0.0068,0.0057,0.0060,0.0031
444,0.0069,0.0058,0.0060,0.0033
445,0.0069,0.0058,0.0060,0.0034
446,0.0068,0.0052,0.0060,0.0029
447,0.0068,0.0052,0.0059,0.0030
448,0.0069,0.0058,0.0060,0.0034
449,0.0070,0.0058,0.0061,0.0035
450,0.0069,0.0061,0.0061,0.0036
451,0.0068,0.0066,0.0061,0.0038
452,0.0072,0.0073,0.0060,0.0042
453,0.0069,0.0058,0.0060,0.0030
454,0.0069,0.0058,0.0060,0.0030
455,0.0069,0.0058,0.0060,0.0030
456,0.0069,0.0058,0.0060,0.0030
457,0.0069,0.0058,0.0060,0.0030
458,0.0068,0.0052,0.0059,0.0030
459,0.0069,0.0058,0.0060,0.0030
460,0.0069,0.0058,0.0060,0.0030
461,0.0069,0.0058,0.0060,0.0030
462,0.0069,0.0058,0.0060,0.0030
463,0.0069,0.0058,0.0060,0.0030
464,0.0069,0.0058,0.0060,0.0030
465,0.0069,0.0058,0.0060,0.0030
466,0.0069,0.0058,0.0060,0.0030
467,0.0069,0.0058,0.0060,0.0030
468,0.0069,0.0058,0.0060,0.0030
469,0.0068,0.0052,0.0059,0.0030
470,0.0069,0.0058,0.0060,0.0030
471,0.0069,0.0058,0.0060,0.0030
472,0.0069,0.0058,0.0060,0.0030
473,0.0069,0.0058,0.0060,0.0030
474,0.0069,0.0058,0.0060,0.0030
475,0.0069,0.0056,0.0060,0.0030
476,0.0069,0.0056,0.0060,0.0030
477,0.0068,0.0057,0.0060,0.0030
478,0.0068,0.0058,0.0059,0.0030
479,0.0068,0.0057,0.0060,0.0030
480,0.0068,0.0052,0.0059,0.0030
481,0.0068,0.0059,0.0060,0.0030
482,0.0068,0.0058,0.0059,0.0030
483,0.0068,0.0057,0.0059,0.0030
484,0.0068,0.0057,0.0059,0.0030
485,0.0068,0.0057,0.0059,0.0030
486,0.0068,0.0057,0.0059,0.0030
487,0.0068,0.0057,0.0059,0.0030
488,0.0068,0.0057,0.0059,0.0030
489,0.0068,0.0058,0.0059,0.0030
490,0.0069,0.0059,0.0060,0.0030
491,0.0068,0.0052,0.0059,0.0030
492,0.0082,0.0057,0.0061,0.0032
493,0.0072,0.0056,0.0061,0.0031
494,0.0072,0.0060,0.0061,0.0031
495,0.0075,0.0066,0.0061,0.0031
496,0.0072,0.0066,0.0061,0.0030
497,0.0079,0.0072,0.0061,0.0030
498,0.0078,0.0071,0.0060,0.0030
499,0.0075,0.0068,0.0060,0.0030
500,0.0072,0.0064,0.0060,0.0030
501,0.0070,0.0060,0.0059,0.0030
502,0.0068,0.0052,0.0059,0.0030
503,0.0068,0.0056,0.0060,0.0030
504,0.0069,0.0058,0.0060,0.0030
505,0.0072,0.0066,0.0060,0.0030
506,0.0074,0.0070,0.0060,0.0030
507,0.0073,0.0070,0.0060,0.0030
508,0.0072,0.0066,0.0061,0.0030
509,0.0070,0.0061,0.0061,0.0030
510,0.0069,0.0058,0.0062,0.0031
511,0.0069,0.0058,0.0062,0.0031
512,0.0069,0.0059,0.0063,0.0032
513,0.0068,0.0052,0.0059,0.0030
514,0.0070,0.0059,0.0066,0.0040
515,0.0069,0.0058,0.0062,0.0038
516,0.0073,0.0057,0.0061,0.0036
517,0.0072,0.0057,0.0060,0.0034
518,0.0069,0.0058,0.0060,0.0033
519,0.0068,0.0060,0.0060,0.0032
520,0.0068,0.0058,0.0060,0.0031
521,0.0068,0.0056,0.0060,0.0031
522,0.0068,0.0056,0.0060,0.0030
523,0.0068,0.0056,0.0060,0.0030
524,0.0068,0.0052,0.0059,0.0030
525,0.0068,0.0057,0.0059,0.0030
526,0.0068,0.0056,0.0059,0.0030
527,0.0068,0.0056,0.0060,0.0031
528,0.0068,0.0056,0.0060,0.0032
529,0.0069,0.0056,0.0060,0.0033
530,0.0069,0.0056,0.0060,0.0033
531,0.0070,0.0057,0.0060,0.0034
532,0.0069,0.0061,0.0061,0.0036
533,0.0068,0.0067,0.0060,0.0041
534,0.0072,0.0074,0.0060,0.0047
535,0.0068,0.0052,0.0059,0.0030
536,0.0068,0.0057,0.0059,0.0030
537,0.0068,0.0057,0.0059,0.0030
538,0.0068,0.0057,0.0059,0.0030
539,0.0068,0.0057,0.0059,0.0030
540,0.0068,0.0057,0.0059,0.0030
541,0.0068,0.0057,0.0059,0.0030
542,0.0068,0.0057,0.0059,0.0030
543,0.0068,0.0057,0.0059,0.0030
544,0.0068,0.0057,0.0059,0.0030
545,0.0068,0.0057,0.0059,0.0030
546,0.0068,0.0052,0.0059,0.0030
547,0.0068,0.0057,0.0059,0.0030
548,0.0068,0.0057,0.0059,0.0030
549,0.0068,0.0057,0.0059,0.0030
550,0.0068,0.0057,0.0059,0.0030
551,0.0068,0.0057,0.0059,0.0030
552,0.0068,0.0057,0.0059,0.0030
553,0.0068,0.0057,0.0059,0.0030
554,0.0068,0.0057,0.0059,0.0030
555,0.0068,0.0057,0.0059,0.0030
556,0.0068,0.0057,0.0059,0.0030
557,0.0089,0.0055,0.0060,0.0031
558,0.0068,0.0054,0.0059,0.0030
559,0.0068,0.0053,0.0059,0.0030
560,0.0068,0.0052,0.0059,0.0030
561,0.0068,0.0052,0.0059,0.0030
562,0.0068,0.0052,0.0059,0.0030
563,0.0068,0.0052,0.0059,0.0030
564,0.0068,0.0052,0.0059,0.0030
565,0.0068,0.0052,0.0059,0.0030
566,0.0068,0.0052,0.0059,0.0030
567,0.0068,0.0052,0.0059,0.0030
568,0.0079,0.0054,0.0060,0.0030
569,0.0068,0.0052,0.0059,0.0030
570,0.0068,0.0052,0.0059,0.0030
571,0.0068,0.0052,0.0059,0.0030
572,0.0068,0.0052,0.0059,0.0030
573,0.0068,0.0053,0.0059,0.0030
574,0.0075,0.0053,0.0060,0.0031
575,0.0070,0.0054,0.0060,0.0031
576,0.0068,0.0056,0.0060,0.0030
577,0.0069,0.0058,0.0060,0.0030
578,0.0069,0.0052,0.0060,0.0030
579,0.0072,0.0054,0.0060,0.0030
580,0.0070,0.0057,0.0059,0.0030
581,0.0069,0.0056,0.0059,0.0030
582,0.0069,0.0054,0.0059,0.0030
583,0.0069,0.0053,0.0059,0.0030
584,0.0068,0.0052,0.0059,0.0030
585,0.0070,0.0052,0.0059,0.0030
586,0.0073,0.0054,0.0060,0.0030
587,0.0074,0.0054,0.0060,0.0030
588,0.0073,0.0054,0.0060,0.0030
589,0.0071,0.0053,0.0060,0.0030
590,0.0069,0.0054,0.0060,0.0030
591,0.0069,0.0052,0.0060,0.0030
592,0.0068,0.0052,0.0060,0.0031
593,0.0068,0.0052,0.0060,0.0031
594,0.0069,0.0052,0.0060,0.0032
595,0.0070,0.0052,0.0060,0.0033
596,0.0073,0.0054,0.0067,0.0034
597,0.0068,0.0052,0.0065,0.0031
598,0.0071,0.0052,0.0063,0.0030
599,0.0073,0.0052,0.0062,0.0031
600,0.0074,0.0052,0.0061,0.0032
601,0.0068,0.0053,0.0061,0.0033
602,0.0072,0.0052,0.0061,0.0034
603,0.0070,0.0053,0.0060,0.0034
604,0.0069,0.0053,0.0060,0.0033
605,0.0068,0.0052,0.0060,0.0032
606,0.0068,0.0052,0.0059,0.0031
607,0.0068,0.0052,0.0059,0.0030
608,0.0068,0.0052,0.0059,0.0030
609,0.0069,0.0052,0.0059,0.0030
610,0.0070,0.0053,0.0059,0.0031
611,0.0072,0.0053,0.0059,0.0031
612,0.0068,0.0052,0.0059,0.0030
613,0.0069,0.0053,0.0060,0.0030
614,0.0073,0.0054,0.0060,0.0032
615,0.0072,0.0054,0.0060,0.0031
616,0.0070,0.0054,0.0060,0.0031
617,0.0069,0.0054,0.0060,0.0030
618,0.0068,0.0053,0.0060,0.0031
619,0.0068,0.0052,0.0059,0.0030
620,0.0068,0.0052,0.0059,0.0030
621,0.0068,0.0052,0.0059,0.0030
622,0.0068,0.0052,0.0059,0.0030
623,0.0068,0.0052,0.0059,0.0030
624,0.0070,0.0052,0.0060,0.0030
625,0.0068,0.0052,0.0059,0.0030
626,0.0068,0.0052,0.0059,0.0030
627,0.0068,0.0052,0.0059,0.0030
628,0.0068,0.0052,0.0059,0.0030
629,0.0068,0.0052,0.0059,0.0030
630,0.0068,0.0052,0.0059,0.0030
631,0.0068,0.0052,0.0059,0.0030
632,0.0068,0.0052,0.0059,0.0030
633,0.0068,0.0052,0.0059,0.0030
634,0.0068,0.0052,0.0059,0.0030
635,0.0070,0.0052,0.0060,0.0030
636,0.0068,0.0052,0.0059,0.0030
637,0.0068,0.0052,0.0059,0.0030
638,0.0068,0.0052,0.0059,0.0030
639,0.0068,0.0052,0.0059,0.0030
640,0.0068,0.0052,0.0059,0.0030
641,0.0068,0.0055,0.0059,0.0030
642,0.0068,0.0054,0.0059,0.0030
643,0.0068,0.0052,0.0059,0.0030
644,0.0068,0.0052,0.0059,0.0030
645,0.0068,0.0053,0.0059,0.0030
646,0.0070,0.0052,0.0059,0.0030
647,0.0068,0.0054,0.0059,0.0030
648,0.0068,0.0054,0.0059,0.0030
649,0.0068,0.0053,0.0059,0.0030
650,0.0068,0.0053,0.0059,0.0030
651,0.0068,0.0053,0.0059,0.0030
652,0.0068,0.0053,0.0059,0.0030
653,0.0068,0.0053,0.0059,0.0030
654,0.0068,0.0054,0.0059,0.0030
655,0.0068,0.0055,0.0059,0.0030
656,0.0068,0.0056,0.0060,0.0030
657,0.0070,0.0052,0.0059,0.0030
658,0.0083,0.0055,0.0060,0.0031
659,0.0072,0.0056,0.0060,0.0031
660,0.0069,0.0061,0.0060,0.0031
661,0.0070,0.0065,0.0060,0.0030
662,0.0070,0.0053,0.0061,0.0030
663,0.0072,0.0068,0.0060,0.0030
664,0.0071,0.0066,0.0060,0.0030
665,0.0070,0.0062,0.0059,0.0030
666,0.0069,0.0059,0.0059,0.0030
667,0.0068,0.0055,0.0059,0.0030
668,0.0068,0.0052,0.0059,0.0030
669,0.0068,0.0053,0.0059,0.0030
670,0.0070,0.0054,0.0060,0.0030
671,0.0073,0.0056,0.0060,0.0030
672,0.0073,0.0056,0.0060,0.0030
673,0.0072,0.0054,0.0060,0.0030
674,0.0070,0.0053,0.0061,0.0030
675,0.0068,0.0053,0.0061,0.0030
676,0.0068,0.0055,0.0061,0.0031
677,0.0069,0.0056,0.0061,0.0031
678,0.0070,0.0056,0.0061,0.0032
679,0.0068,0.0052,0.0060,0.0030
680,0.0072,0.0056,0.0070,0.0039
681,0.0069,0.0054,0.0066,0.0035
682,0.0072,0.0053,0.0064,0.0032
683,0.0074,0.0053,0.0062,0.0031
684,0.0072,0.0053,0.0061,0.0031
685,0.0070,0.0054,0.0060,0.0031
686,0.0068,0.0054,0.0060,0.0031
687,0.0068,0.0053,0.0060,0.0030
688,0.0068,0.0052,0.0060,0.0030
689,0.0068,0.0053,0.0059,0.0030
690,0.0068,0.0052,0.0060,0.0031
691,0.0068,0.0053,0.0059,0.0030
692,0.0068,0.0053,0.0059,0.0030
693,0.0068,0.0053,0.0060,0.0030
694,0.0069,0.0053,0.0060,0.0030
695,0.0071,0.0053,0.0060,0.0030
696,0.0073,0.0054,0.0060,0.0031
697,0.0074,0.0056,0.0060,0.0031
698,0.0072,0.0057,0.0060,0.0031
699,0.0070,0.0058,0.0060,0.0031
700,0.0068,0.0059,0.0060,0.0032
701,0.0068,0.0053,0.0060,0.0031
702,0.0068,0.0053,0.0059,0.0030
703,0.0068,0.0053,0.0059,0.0030
704,0.0068,0.0053,0.0059,0.0030
705,0.0068,0.0053,0.0059,0.0030
706,0.0068,0.0053,0.0059,0.0030
707,0.0068,0.0053,0.0059,0.0030
708,0.0068,0.0053,0.0059,0.0030
709,0.0068,0.0053,0.0059,0.0030
710,0.0068,0.0053,0.0059,0.0030
711,0.0068,0.0053,0.0059,0.0030
712,0.0068,0.0053,0.0061,0.0032
713,0.0068,0.0053,0.0059,0.0030
714,0.0068,0.0053,0.0059,0.0030
715,0.0068,0.0053,0.0059,0.0030
716,0.0068,0.0053,0.0059,0.0030
717,0.0068,0.0053,0.0059,0.0030
718,0.0068,0.0053,0.0059,0.0030
719,0.0068,0.0053,0.0059,0.0030
720,0.0068,0.0053,0.0059,0.0030
721,0.0068,0.0053,0.0059,0.0030
722,0.0068,0.0053,0.0059,0.0030
723,0.0068,0.0052,0.0059,0.0030
724,0.0068,0.0053,0.0061,0.0033
725,0.0069,0.0061,0.0060,0.0030
726,0.0068,0.0057,0.0059,0.0030
727,0.0068,0.0054,0.0059,0.0030
728,0.0068,0.0052,0.0059,0.0030
729,0.0068,0.0053,0.0059,0.0030
730,0.0068,0.0058,0.0059,0.0030
731,0.0068,0.0057,0.0059,0.0030
732,0.0068,0.0056,0.0059,0.0030
733,0.0068,0.0055,0.0059,0.0030
734,0.0068,0.0054,0.0059,0.0030
735,0.0068,0.0054,0.0062,0.0034
736,0.0068,0.0055,0.0059,0.0030
737,0.0068,0.0055,0.0059,0.0030
738,0.0068,0.0056,0.0059,0.0030
739,0.0068,0.0057,0.0059,0.0030
740,0.0068,0.0059,0.0059,0.0030
741,0.0089,0.0056,0.0061,0.0031
742,0.0075,0.0058,0.0061,0.0031
743,0.0070,0.0064,0.0061,0.0031
744,0.0071,0.0070,0.0061,0.0031
745,0.0069,0.0060,0.0060,0.0030
746,0.0068,0.0054,0.0064,0.0035
747,0.0075,0.0073,0.0060,0.0031
748,0.0073,0.0071,0.0060,0.0030
749,0.0071,0.0067,0.0059,0.0030
750,0.0069,0.0063,0.0059,0.0030
751,0.0068,0.0059,0.0059,0.0030
752,0.0068,0.0054,0.0059,0.0030
753,0.0068,0.0056,0.0059,0.0030
754,0.0071,0.0063,0.0060,0.0030
755,0.0072,0.0066,0.0060,0.0030
756,0.0071,0.0064,0.0060,0.0030
757,0.0068,0.0054,0.0065,0.0036
758,0.0069,0.0060,0.0060,0.0030
759,0.0068,0.0057,0.0060,0.0030
760,0.0068,0.0056,0.0061,0.0031
761,0.0069,0.0055,0.0061,0.0031
762,0.0070,0.0056,0.0061,0.0032
763,0.0071,0.0057,0.0065,0.0037
764,0.0069,0.0056,0.0062,0.0035
765,0.0072,0.0054,0.0061,0.0033
766,0.0072,0.0053,0.0060,0.0032
767,0.0069,0.0053,0.0060,0.0031
768,0.0068,0.0054,0.0067,0.0036
769,0.0068,0.0054,0.0060,0.0031
770,0.0068,0.0053,0.0060,0.0030
771,0.0068,0.0052,0.0059,0.0030
772,0.0068,0.0052,0.0059,0.0030
773,0.0068,0.0053,0.0059,0.0030
774,0.0068,0.0055,0.0059,0.0030
775,0.0068,0.0054,0.0059,0.0030
776,0.0068,0.0053,0.0060,0.0030
777,0.0068,0.0053,0.0060,0.0031
778,0.0069,0.0053,0.0061,0.0031
779,0.0070,0.0075,0.0060,0.0034
780,0.0070,0.0054,0.0061,0.0032
781,0.0071,0.0058,0.0062,0.0032
782,0.0070,0.0062,0.0063,0.0032
783,0.0069,0.0067,0.0064,0.0032
784,0.0072,0.0072,0.0064,0.0033
785,0.0068,0.0055,0.0059,0.0030
786,0.0068,0.0055,0.0059,0.0030
787,0.0068,0.0055,0.0059,0.0030
788,0.0068,0.0055,0.0059,0.0030
789,0.0068,0.0055,0.0059,0.0030
790,0.0069,0.0067,0.0060,0.0031
791,0.0068,0.0055,0.0059,0.0030
792,0.0068,0.0055,0.0059,0.0030
793,0.0068,0.0055,0.0059,0.0030
794,0.0068,0.0055,0.0059,0.0030
795,0.0068,0.0055,0.0059,0.0030
796,0.0068,0.0055,0.0059,0.0030
797,0.0068,0.0055,0.0059,0.0030
798,0.0068,0.0055,0.0059,0.0030
799,0.0068,0.0055,0.0059,0.0030
800,0.0068,0.0055,0.0059,0.0030
801,0.0068,0.0061,0.0060,0.0031
802,0.0068,0.0055,0.0059,0.0030
803,0.0068,0.0055,0.0059,0.0030
804,0.0068,0.0055,0.0059,0.0030
805,0.0068,0.0055,0.0059,0.0030
806,0.0068,0.0055,0.0059,0.0030
807,0.0069,0.0061,0.0060,0.0030
808,0.0068,0.0059,0.0060,0.0030
809,0.0068,0.0055,0.0059,0.0030
810,0.0068,0.0055,0.0059,0.0030
811,0.0068,0.0053,0.0059,0.0030
812,0.0068,0.0057,0.0060,0.0031
813,0.0068,0.0062,0.0060,0.0030
814,0.0068,0.0060,0.0060,0.0030
815,0.0068,0.0059,0.0060,0.0030
816,0.0068,0.0058,0.0059,0.0030
817,0.0068,0.0058,0.0059,0.0030
818,0.0068,0.0058,0.0059,0.0030
819,0.0068,0.0058,0.0059,0.0030
820,0.0068,0.0059,0.0060,0.0030
821,0.0068,0.0061,0.0060,0.0030
822,0.0068,0.0063,0.0060,0.0030
823,0.0068,0.0055,0.0060,0.0032
824,0.0088,0.0057,0.0061,0.0031
825,0.0075,0.0057,0.0061,0.0031
826,0.0072,0.0062,0.0061,0.0031
827,0.0074,0.0068,0.0061,0.0031
828,0.0070,0.0067,0.0060,0.0030
829,0.0077,0.0075,0.0060,0.0031
830,0.0076,0.0074,0.0060,0.0031
831,0.0073,0.0071,0.0060,0.0030
832,0.0070,0.0066,0.0060,0.0030
833,0.0069,0.0062,0.0060,0.0030
834,0.0068,0.0052,0.0059,0.0030
835,0.0068,0.0054,0.0060,0.0032
836,0.0069,0.0056,0.0059,0.0030
837,0.0068,0.0059,0.0059,0.0030
838,0.0070,0.0070,0.0060,0.0030
839,0.0072,0.0075,0.0060,0.0030
840,0.0072,0.0071,0.0060,0.0030
841,0.0070,0.0067,0.0060,0.0030
842,0.0069,0.0062,0.0060,0.0030
843,0.0068,0.0058,0.0060,0.0031
844,0.0069,0.0056,0.0060,0.0032
845,0.0070,0.0056,0.0061,0.0033
846,0.0068,0.0053,0.0060,0.0032
847,0.0070,0.0062,0.0061,0.0037
848,0.0069,0.0060,0.0060,0.0035
849,0.0072,0.0059,0.0060,0.0034
850,0.0071,0.0055,0.0060,0.0033
851,0.0068,0.0054,0.0060,0.0032
852,0.0068,0.0054,0.0060,0.0031
853,0.0068,0.0054,0.0060,0.0031
854,0.0068,0.0054,0.0060,0.0030
855,0.0068,0.0055,0.0059,0.0030
856,0.0068,0.0056,0.0059,0.0030
857,0.0068,0.0053,0.0059,0.0031
858,0.0068,0.0057,0.0059,0.0030
859,0.0068,0.0056,0.0060,0.0030
860,0.0068,0.0055,0.0060,0.0031
861,0.0068,0.0054,0.0060,0.0032
862,0.0068,0.0054,0.0061,0.0033
863,0.0068,0.0055,0.0062,0.0033
864,0.0069,0.0058,0.0064,0.0033
865,0.0068,0.0064,0.0065,0.0034
866,0.0068,0.0070,0.0065,0.0034
867,0.0074,0.0078,0.0065,0.0035
868,0.0068,0.0052,0.0059,0.0031
869,0.0068,0.0057,0.0059,0.0030
870,0.0068,0.0057,0.0059,0.0030
871,0.0068,0.0057,0.0059,0.0030
872,0.0068,0.0057,0.0059,0.0030
873,0.0068,0.0057,0.0059,0.0030
874,0.0068,0.0057,0.0059,0.0030
875,0.0068,0.0057,0.0059,0.0030
876,0.0068,0.0057,0.0059,0.0030
877,0.0068,0.0057,0.0059,0.0030
878,0.0068,0.0057,0.0059,0.0030
879,0.0068,0.0052,0.0059,0.0030
880,0.0068,0.0057,0.0059,0.0030
881,0.0068,0.0057,0.0059,0.0030
882,0.0068,0.0057,0.0059,0.0030
883,0.0068,0.0057,0.0059,0.0030
884,0.0068,0.0057,0.0059,0.0030
885,0.0068,0.0057,0.0059,0.0030
886,0.0068,0.0057,0.0059,0.0030
887,0.0068,0.0057,0.0059,0.0030
888,0.0068,0.0057,0.0059,0.0030
889,0.0068,0.0057,0.0059,0.0030
890,0.0068,0.0052,0.0059,0.0030
891,0.0068,0.0060,0.0060,0.0030
892,0.0069,0.0059,0.0060,0.0030
893,0.0068,0.0058,0.0060,0.0030
894,0.0068,0.0059,0.0059,0.0030
895,0.0069,0.0054,0.0060,0.0030
896,0.0069,0.0062,0.0060,0.0030
897,0.0069,0.0060,0.0060,0.0030
898,0.0069,0.0059,0.0060,0.0030
899,0.0069,0.0059,0.0060,0.0030
900,0.0069,0.0059,0.0060,0.0030
901,0.0068,0.0052,0.0059,0.0030
902,0.0069,0.0059,0.0060,0.0030
903,0.0069,0.0059,0.0060,0.0030
904,0.0069,0.0059,0.0060,0.0030
905,0.0069,0.0060,0.0060,0.0030
906,0.0069,0.0062,0.0060,0.0030
907,0.0083,0.0057,0.0061,0.0032
908,0.0074,0.0056,0.0061,0.0032
909,0.0073,0.0060,0.0060,0.0031
910,0.0077,0.0066,0.0060,0.0031
911,0.0072,0.0072,0.0061,0.0030
912,0.0068,0.0052,0.0059,0.0030
913,0.0081,0.0072,0.0060,0.0031
914,0.0079,0.0071,0.0060,0.0031
915,0.0076,0.0069,0.0060,0.0030
916,0.0073,0.0065,0.0060,0.0030
917,0.0070,0.0061,0.0060,0.0030
918,0.0069,0.0058,0.0060,0.0030
919,0.0069,0.0060,0.0061,0.0030
920,0.0072,0.0068,0.0061,0.0030
921,0.0074,0.0074,0.0061,0.0030
922,0.0073,0.0074,0.0061,0.0030
923,0.0068,0.0052,0.0060,0.0030
924,0.0072,0.0072,0.0061,0.0030
925,0.0070,0.0068,0.0061,0.0030
926,0.0069,0.0064,0.0062,0.0031
927,0.0069,0.0063,0.0062,0.0032
928,0.0070,0.0062,0.0062,0.0033
929,0.0069,0.0068,0.0062,0.0042
930,0.0070,0.0065,0.0061,0.0039
931,0.0074,0.0062,0.0060,0.0037
932,0.0073,0.0060,0.0060,0.0035
933,0.0070,0.0060,0.0060,0.0034
934,0.0068,0.0052,0.0060,0.0030
935,0.0069,0.0061,0.0060,0.0033
936,0.0069,0.0060,0.0060,0.0032
937,0.0068,0.0058,0.0060,0.0031
938,0.0068,0.0058,0.0060,0.0031
939,0.0068,0.0058,0.0060,0.0030
940,0.0069,0.0058,0.0060,0.0030
941,0.0069,0.0057,0.0060,0.0030
942,0.0069,0.0057,0.0060,0.0032
943,0.0069,0.0058,0.0060,0.0033
944,0.0069,0.0058,0.0061,0.0035
945,0.0068,0.0052,0.0060,0.0030
946,0.0068,0.0052,0.0060,0.0032
947,0.0070,0.0058,0.0061,0.0036
948,0.0071,0.0059,0.0062,0.0036
949,0.0070,0.0063,0.0063,0.0036
950,0.0069,0.0069,0.0064,0.0037
951,0.0074,0.0078,0.0064,0.0040
952,0.0069,0.0058,0.0060,0.0030
953,0.0069,0.0058,0.0060,0.0030
954,0.0069,0.0058,0.0060,0.0030
955,0.0069,0.0058,0.0060,0.0030
956,0.0069,0.0058,0.0060,0.0030
957,0.0069,0.0053,0.0060,0.0035
958,0.0069,0.0058,0.0060,0.0030
959,0.0069,0.0058,0.0060,0.0030
960,0.0069,0.0058,0.0060,0.0030
961,0.0069,0.0058,0.0060,0.0030
962,0.0069,0.0058,0.0060,0.0030
963,0.0069,0.0058,0.0060,0.0030
964,0.0069,0.0058,0.0060,0.0030
965,0.0069,0.0058,0.0060,0.0030
966,0.0069,0.0058,0.0060,0.0030
967,0.0069,0.0058,0.0060,0.0030
968,0.0069,0.0054,0.0060,0.0041
969,0.0069,0.0058,0.0060,0.0030
970,0.0069,0.0058,0.0060,0.0030
971,0.0069,0.0058,0.0060,0.0030
972,0.0069,0.0058,0.0060,0.0030
973,0.0069,0.0058,0.0060,0.0030
974,0.0068,0.0060,0.0060,0.0030
975,0.0068,0.0058,0.0060,0.0030
976,0.0069,0.0057,0.0060,0.0030
977,0.0068,0.0057,0.0060,0.0030
978,0.0068,0.0059,0.0060,0.0030
979,0.0070,0.0057,0.0061,0.0050
980,0.0069,0.0060,0.0060,0.0030
981,0.0069,0.0059,0.0060,0.0030
982,0.0069,0.0058,0.0060,0.0030
983,0.0069,0.0058,0.0060,0.0030
984,0.0069,0.0058,0.0060,0.0030
985,0.0069,0.0058,0.0060,0.0030
986,0.0069,0.0058,0.0060,0.0030
987,0.0069,0.0058,0.0060,0.0030
988,0.0069,0.0059,0.0060,0.0030
989,0.0069,0.0060,0.0060,0.0030
990,0.0071,0.0062,0.0061,0.0062
991,0.0079,0.0059,0.0061,0.0032
992,0.0073,0.0057,0.0061,0.0032
993,0.0074,0.0061,0.0061,0.0032
994,0.0079,0.0066,0.0060,0.0032
995,0.0073,0.0064,0.0062,0.0030
996,0.0083,0.0071,0.0060,0.0031
997,0.0081,0.0070,0.0060,0.0031
998,0.0078,0.0067,0.0060,0.0030
999,0.0074,0.0063,0.0060,0.0030
1000,0.0071,0.0060,0.0060,0.0030
1001,0.0068,0.0052,0.0059,0.0030
1002,0.0068,0.0058,0.0060,0.0030
1003,0.0069,0.0058,0.0061,0.0030
1004,0.0073,0.0064,0.0061,0.0030
1005,0.0076,0.0068,0.0061,0.0030
1006,0.0075,0.0067,0.0062,0.0030
1007,0.0073,0.0064,0.0062,0.0030
1008,0.0071,0.0062,0.0063,0.0030
1009,0.0069,0.0060,0.0063,0.0031
1010,0.0069,0.0060,0.0063,0.0031
1011,0.0069,0.0061,0.0063,0.0032
1012,0.0068,0.0052,0.0059,0.0030
1013,0.0069,0.0062,0.0064,0.0041
1014,0.0071,0.0061,0.0061,0.0039
1015,0.0076,0.0060,0.0061,0.0037
1016,0.0074,0.0060,0.0060,0.0036
1017,0.0070,0.0063,0.0060,0.0035
1018,0.0069,0.0064,0.0060,0.0034
1019,0.0068,0.0062,0.0060,0.0033
1020,0.0068,0.0060,0.0060,0.0032
1021,0.0068,0.0058,0.0060,0.0031
1022,0.0069,0.0057,0.0060,0.0030
1023,0.0068,0.0052,0.0059,0.0030
1024,0.0069,0.0058,0.0060,0.0030
1025,0.0069,0.0057,0.0060,0.0031
1026,0.0069,0.0058,0.0060,0.0032
1027,0.0069,0.0059,0.0060,0.0034
1028,0.0070,0.0060,0.0060,0.0035
1029,0.0070,0.0059,0.0060,0.0036
1030,0.0072,0.0059,0.0060,0.0037
1031,0.0070,0.0061,0.0061,0.0037
1032,0.0068,0.0065,0.0061,0.0038
1033,0.0070,0.0073,0.0061,0.0040
1034,0.0068,0.0052,0.0059,0.0030
1035,0.0069,0.0058,0.0060,0.0030
1036,0.0069,0.0058,0.0060,0.0030
1037,0.0069,0.0058,0.0060,0.0030
1038,0.0069,0.0058,0.0060,0.0030
1039,0.0069,0.0058,0.0060,0.0030
1040,0.0069,0.0058,0.0060,0.0030
1041,0.0069,0.0058,0.0060,0.0030
1042,0.0069,0.0058,0.0060,0.0030
1043,0.0069,0.0058,0.0060,0.0030
1044,0.0069,0.0058,0.0060,0.0030
1045,0.0068,0.0052,0.0059,0.0030
1046,0.0069,0.0058,0.0060,0.0030
1047,0.0069,0.0058,0.0060,0.0030
1048,0.0069,0.0058,0.0060,0.0030
1049,0.0069,0.0058,0.0060,0.0030
1050,0.0069,0.0058,0.0060,0.0030
1051,0.0069,0.0058,0.0060,0.0030
1052,0.0069,0.0058,0.0060,0.0030
1053,0.0069,0.0058,0.0060,0.0030
1054,0.0069,0.0058,0.0060,0.0030
1055,0.0069,0.0058,0.0060,0.0030
1056,0.0068,0.0052,0.0059,0.0030
1057,0.0068,0.0052,0.0059,0.0030
1058,0.0068,0.0059,0.0059,0.0030
1059,0.0068,0.0058,0.0059,0.0030
1060,0.0069,0.0057,0.0060,0.0030
1061,0.0069,0.0057,0.0060,0.0030
1062,0.0069,0.0058,0.0060,0.0030
1063,0.0069,0.0060,0.0059,0.0030
1064,0.0069,0.0059,0.0059,0.0030
1065,0.0069,0.0058,0.0060,0.0030
1066,0.0069,0.0058,0.0060,0.0030
1067,0.0069,0.0057,0.0060,0.0030
1068,0.0068,0.0052,0.0059,0.0030
1069,0.0069,0.0057,0.0060,0.0030
1070,0.0069,0.0058,0.0060,0.0030
1071,0.0069,0.0058,0.0060,0.0030
1072,0.0069,0.0058,0.0060,0.0030
1073,0.0069,0.0059,0.0059,0.0030
1074,0.0078,0.0058,0.0061,0.0033
1075,0.0072,0.0057,0.0061,0.0033
1076,0.0073,0.0061,0.0061,0.0032
1077,0.0078,0.0067,0.0061,0.0032
1078,0.0073,0.0063,0.0062,0.0030
1079,0.0068,0.0052,0.0059,0.0030
1080,0.0082,0.0072,0.0060,0.0031
1081,0.0080,0.0070,0.0060,0.0031
1082,0.0077,0.0067,0.0060,0.0030
1083,0.0073,0.0063,0.0059,0.0030
1084,0.0071,0.0060,0.0059,0.0030
1085,0.0068,0.0057,0.0060,0.0030
1086,0.0069,0.0058,0.0060,0.0030
1087,0.0073,0.0064,0.0060,0.0030
1088,0.0075,0.0067,0.0061,0.0030
1089,0.0074,0.0066,0.0061,0.0030
1090,0.0068,0.0052,0.0059,0.0030
1091,0.0073,0.0063,0.0062,0.0030
1092,0.0071,0.0060,0.0062,0.0030
1093,0.0069,0.0059,0.0063,0.0031
1094,0.0069,0.0060,0.0063,0.0031
1095,0.0069,0.0061,0.0063,0.0032
1096,0.0069,0.0060,0.0064,0.0040
1097,0.0071,0.0059,0.0061,0.0038
1098,0.0075,0.0058,0.0061,0.0037
1099,0.0074,0.0059,0.0060,0.0036
1100,0.0070,0.0062,0.0060,0.0034
1101,0.0068,0.0052,0.0059,0.0030
1102,0.0069,0.0063,0.0060,0.0033
1103,0.0068,0.0061,0.0060,0.0032
1104,0.0068,0.0059,0.0060,0.0032
1105,0.0068,0.0057,0.0060,0.0031
1106,0.0068,0.0057,0.0060,0.0030
1107,0.0068,0.0057,0.0060,0.0030
1108,0.0068,0.0057,0.0060,0.0031
1109,0.0068,0.0057,0.0060,0.0032
1110,0.0069,0.0058,0.0060,0.0033
1111,0.0069,0.0058,0.0060,0.0035
1112,0.0068,0.0052,0.0059,0.0030
1113,0.0070,0.0058,0.0060,0.0035
1114,0.0071,0.0058,0.0060,0.0036
1115,0.0070,0.0061,0.0061,0.0036
1116,0.0068,0.0066,0.0061,0.0037
1117,0.0070,0.0073,0.0060,0.0040
1118,0.0069,0.0057,0.0060,0.0030
1119,0.0069,0.0057,0.0060,0.0030
1120,0.0069,0.0057,0.0060,0.0030
1121,0.0069,0.0057,0.0060,0.0030
1122,0.0069,0.0057,0.0060,0.0030
1123,0.0068,0.0052,0.0059,0.0030
1124,0.0069,0.0057,0.0060,0.0030
1125,0.0069,0.0057,0.0060,0.0030
1126,0.0069,0.0057,0.0060,0.0030
1127,0.0069,0.0057,0.0060,0.0030
1128,0.0069,0.0057,0.0060,0.0030
1129,0.0069,0.0057,0.0060,0.0030
1130,0.0069,0.0057,0.0060,0.0030
1131,0.0069,0.0057,0.0060,0.0030
1132,0.0069,0.0057,0.0060,0.0030
1133,0.0069,0.0057,0.0060,0.0030
1134,0.0068,0.0052,0.0059,0.0030
1135,0.0069,0.0057,0.0060,0.0030
1136,0.0069,0.0057,0.0060,0.0030
1137,0.0069,0.0057,0.0060,0.0030
1138,0.0069,0.0057,0.0060,0.0030
1139,0.0069,0.0057,0.0060,0.0030
1140,0.0069,0.0057,0.0060,0.0030
1141,0.0069,0.0056,0.0060,0.0030
1142,0.0069,0.0056,0.0060,0.0030
1143,0.0069,0.0056,0.0060,0.0030
1144,0.0068,0.0057,0.0060,0.0030
1145,0.0068,0.0052,0.0059,0.0030
1146,0.0069,0.0061,0.0060,0.0030
1147,0.0068,0.0060,0.0060,0.0030
1148,0.0068,0.0059,0.0060,0.0030
1149,0.0068,0.0058,0.0060,0.0030
1150,0.0068,0.0058,0.0060,0.0030
1151,0.0068,0.0058,0.0060,0.0030
1152,0.0068,0.0058,0.0060,0.0030
1153,0.0068,0.0059,0.0060,0.0030
1154,0.0068,0.0059,0.0060,0.0030
1155,0.0068,0.0061,0.0060,0.0030
1156,0.0068,0.0052,0.0059,0.0030
1157,0.0081,0.0058,0.0061,0.0033
1158,0.0072,0.0057,0.0061,0.0033
1159,0.0072,0.0061,0.0062,0.0032
1160,0.0074,0.0067,0.0062,0.0032
1161,0.0071,0.0067,0.0061,0.0031
1162,0.0077,0.0073,0.0061,0.0031
1163,0.0076,0.0072,0.0061,0.0031
1164,0.0073,0.0069,0.0061,0.0030
1165,0.0071,0.0065,0.0060,0.0030
1166,0.0069,0.0062,0.0060,0.0030
1167,0.0068,0.0052,0.0059,0.0030
1168,0.0068,0.0052,0.0059,0.0030
1169,0.0068,0.0057,0.0060,0.0030
1170,0.0069,0.0059,0.0060,0.0030
1171,0.0071,0.0068,0.0060,0.0030
1172,0.0073,0.0072,0.0060,0.0030
1173,0.0072,0.0071,0.0060,0.0030
1174,0.0071,0.0067,0.0061,0.0031
1175,0.0070,0.0062,0.0061,0.0031
1176,0.0069,0.0059,0.0061,0.0031
1177,0.0069,0.0059,0.0062,0.0031
1178,0.0069,0.0060,0.0062,0.0031
1179,0.0068,0.0052,0.0059,0.0030
1180,0.0070,0.0060,0.0063,0.0039
1181,0.0069,0.0059,0.0060,0.0037
1182,0.0072,0.0058,0.0060,0.0036
1183,0.0072,0.0057,0.0060,0.0035
1184,0.0069,0.0059,0.0060,0.0034
1185,0.0068,0.0060,0.0060,0.0033
1186,0.0068,0.0058,0.0060,0.0032
1187,0.0068,0.0057,0.0060,0.0031
1188,0.0068,0.0056,0.0060,0.0031
1189,0.0068,0.0057,0.0060,0.0030
1190,0.0068,0.0052,0.0059,0.0030
1191,0.0068,0.0058,0.0060,0.0030
1192,0.0068,0.0057,0.0060,0.0030
1193,0.0068,0.0056,0.0060,0.0031
1194,0.0068,0.0057,0.0060,0.0032
1195,0.0068,0.0057,0.0061,0.0033
1196,0.0069,0.0057,0.0061,0.0034
1197,0.0069,0.0059,0.0062,0.0034
1198,0.0069,0.0064,0.0062,0.0036
1199,0.0068,0.0070,0.0062,0.0039
1200,0.0072,0.0079,0.0061,0.0044
1201,0.0068,0.0052,0.0059,0.0030
1202,0.0068,0.0058,0.0060,0.0030
1203,0.0068,0.0058,0.0060,0.0030
1204,0.0068,0.0058,0.0060,0.0030
1205,0.0068,0.0058,0.0060,0.0030
1206,0.0068,0.0058,0.0060,0.0030
1207,0.0068,0.0058,0.0060,0.0030
1208,0.0068,0.0058,0.0060,0.0030
1209,0.0068,0.0058,0.0060,0.0030
1210,0.0068,0.0058,0.0060,0.0030
1211,0.0068,0.0058,0.0060,0.0030
1212,0.0068,0.0052,0.0059,0.0030
1213,0.0068,0.0058,0.0060,0.0030
1214,0.0068,0.0058,0.0060,0.0030
1215,0.0068,0.0058,0.0060,0.0030
1216,0.0068,0.0058,0.0060,0.0030
1217,0.0068,0.0058,0.0060,0.0030
1218,0.0068,0.0058,0.0060,0.0030
1219,0.0068,0.0058,0.0060,0.0030
1220,0.0068,0.0058,0.0060,0.0030
1221,0.0068,0.0058,0.0060,0.0030
1222,0.0068,0.0058,0.0060,0.0030
1223,0.0068,0.0052,0.0059,0.0030
1224,0.0068,0.0053,0.0059,0.0030
1225,0.0068,0.0052,0.0059,0.0030
1226,0.0068,0.0052,0.0059,0.0030
1227,0.0068,0.0052,0.0059,0.0030
1228,0.0068,0.0052,0.0059,0.0030
1229,0.0068,0.0053,0.0060,0.0030
1230,0.0068,0.0052,0.0059,0.0030
1231,0.0068,0.0052,0.0059,0.0030
1232,0.0068,0.0052,0.0059,0.0030
1233,0.0068,0.0052,0.0059,0.0030
1234,0.0068,0.0052,0.0059,0.0030
1235,0.0068,0.0052,0.0059,0.0030
1236,0.0068,0.0052,0.0059,0.0030
1237,0.0068,0.0052,0.0059,0.0030
1238,0.0068,0.0053,0.0059,0.0030
1239,0.0068,0.0053,0.0059,0.0030
1240,0.0086,0.0054,0.0059,0.0031
1241,0.0077,0.0054,0.0059,0.0030
1242,0.0072,0.0054,0.0059,0.0030
1243,0.0069,0.0053,0.0060,0.0030
1244,0.0068,0.0054,0.0061,0.0032
1245,0.0068,0.0052,0.0059,0.0030
1246,0.0069,0.0053,0.0059,0.0030
1247,0.0069,0.0052,0.0059,0.0030
1248,0.0070,0.0052,0.0059,0.0030
1249,0.0070,0.0053,0.0059,0.0030
1250,0.0070,0.0053,0.0059,0.0030
1251,0.0068,0.0052,0.0059,0.0030
1252,0.0068,0.0052,0.0059,0.0030
1253,0.0068,0.0052,0.0060,0.0031
1254,0.0068,0.0053,0.0060,0.0031
1255,0.0068,0.0053,0.0060,0.0032
1256,0.0068,0.0052,0.0059,0.0030
1257,0.0068,0.0054,0.0061,0.0032
1258,0.0068,0.0054,0.0062,0.0033
1259,0.0068,0.0055,0.0063,0.0033
1260,0.0068,0.0055,0.0065,0.0033
1261,0.0068,0.0055,0.0067,0.0033
1262,0.0071,0.0081,0.0060,0.0034
1263,0.0069,0.0072,0.0060,0.0031
1264,0.0068,0.0064,0.0060,0.0031
1265,0.0068,0.0060,0.0060,0.0031
1266,0.0068,0.0056,0.0060,0.0032
1267,0.0068,0.0052,0.0059,0.0030
1268,0.0068,0.0055,0.0059,0.0032
1269,0.0068,0.0054,0.0059,0.0032
1270,0.0068,0.0053,0.0059,0.0031
1271,0.0068,0.0053,0.0059,0.0031
1272,0.0068,0.0052,0.0059,0.0030
1273,0.0068,0.0052,0.0059,0.0030
1274,0.0068,0.0052,0.0059,0.0030
1275,0.0068,0.0052,0.0059,0.0030
1276,0.0068,0.0052,0.0059,0.0030
1277,0.0068,0.0052,0.0059,0.0031
1278,0.0068,0.0052,0.0059,0.0030
1279,0.0068,0.0052,0.0059,0.0030
1280,0.0068,0.0052,0.0060,0.0032
1281,0.0069,0.0053,0.0060,0.0036
1282,0.0069,0.0054,0.0060,0.0042
1283,0.0070,0.0057,0.0061,0.0052
1284,0.0072,0.0062,0.0061,0.0065
1285,0.0068,0.0052,0.0059,0.0030
1286,0.0068,0.0052,0.0059,0.0030
1287,0.0068,0.0052,0.0059,0.0030
1288,0.0068,0.0052,0.0059,0.0030
1289,0.0068,0.0052,0.0059,0.0030
1290,0.0068,0.0052,0.0059,0.0030
1291,0.0068,0.0052,0.0059,0.0030
1292,0.0068,0.0052,0.0059,0.0030
1293,0.0068,0.0052,0.0059,0.0030
1294,0.0068,0.0052,0.0059,0.0030
1295,0.0068,0.0052,0.0059,0.0030
1296,0.0068,0.0052,0.0059,0.0030
1297,0.0068,0.0052,0.0059,0.0030
1298,0.0068,0.0052,0.0059,0.0030
1299,0.0068,0.0052,0.0059,0.0030
1300,0.0068,0.0052,0.0059,0.0030
1301,0.0068,0.0052,0.0059,0.0030
1302,0.0068,0.0052,0.0059,0.0030
1303,0.0068,0.0052,0.0059,0.0030
1304,0.0068,0.0052,0.0059,0.0030
1305,0.0068,0.0052,0.0059,0.0030
1306,0.0068,0.0052,0.0059,0.0030
1307,0.0068,0.0052,0.0059,0.0030
1308,0.0068,0.0052,0.0059,0.0030
1309,0.0068,0.0052,0.0059,0.0030
1310,0.0068,0.0052,0.0059,0.0030
1311,0.0068,0.0052,0.0059,0.0030
1312,0.0068,0.0052,0.0059,0.0030
1313,0.0068,0.0052,0.0059,0.0030
1314,0.0068,0.0052,0.0059,0.0030
1315,0.0068,0.0052,0.0059,0.0030
1316,0.0068,0.0052,0.0059,0.0030
1317,0.0068,0.0052,0.0059,0.0030
1318,0.0068,0.0052,0.0059,0.0030
1319,0.0068,0.0052,0.0059,0.0030
1320,0.0068,0.0052,0.0059,0.0030
1321,0.0068,0.0052,0.0059,0.0030
1322,0.0068,0.0052,0.0059,0.0030
1323,0.0068,0.0052,0.0059,0.0030
1324,0.0071,0.0054,0.0059,0.0031
1325,0.0069,0.0053,0.0059,0.0031
1326,0.0068,0.0052,0.0059,0.0030
1327,0.0068,0.0052,0.0059,0.0030
1328,0.0069,0.0053,0.0059,0.0031
1329,0.0069,0.0052,0.0059,0.0030
1330,0.0069,0.0052,0.0059,0.0030
1331,0.0069,0.0052,0.0059,0.0030
1332,0.0069,0.0052,0.0059,0.0030
1333,0.0069,0.0052,0.0059,0.0030
1334,0.0068,0.0052,0.0059,0.0030
1335,0.0069,0.0053,0.0059,0.0030
1336,0.0071,0.0054,0.0059,0.0030
1337,0.0071,0.0054,0.0059,0.0030
1338,0.0070,0.0054,0.0059,0.0031
1339,0.0069,0.0053,0.0059,0.0031
1340,0.0069,0.0053,0.0059,0.0031
1341,0.0068,0.0053,0.0059,0.0032
1342,0.0068,0.0053,0.0060,0.0032
1343,0.0068,0.0053,0.0060,0.0032
1344,0.0069,0.0053,0.0060,0.0032
1345,0.0068,0.0052,0.0059,0.0030
1346,0.0073,0.0053,0.0060,0.0030
1347,0.0069,0.0052,0.0060,0.0031
1348,0.0069,0.0053,0.0060,0.0033
1349,0.0070,0.0053,0.0060,0.0035
1350,0.0071,0.0053,0.0060,0.0036
1351,0.0071,0.0053,0.0059,0.0037
1352,0.0070,0.0053,0.0059,0.0036
1353,0.0069,0.0052,0.0059,0.0035
1354,0.0068,0.0052,0.0059,0.0033
1355,0.0068,0.0052,0.0059,0.0031
1356,0.0068,0.0052,0.0059,0.0030
1357,0.0068,0.0052,0.0059,0.0030
1358,0.0068,0.0052,0.0059,0.0030
1359,0.0068,0.0052,0.0059,0.0031
1360,0.0068,0.0052,0.0059,0.0032
1361,0.0068,0.0053,0.0060,0.0032
1362,0.0068,0.0053,0.0060,0.0032
1363,0.0068,0.0053,0.0060,0.0031
1364,0.0068,0.0052,0.0061,0.0030
1365,0.0069,0.0052,0.0061,0.0031
1366,0.0072,0.0053,0.0062,0.0035
1367,0.0068,0.0052,0.0059,0.0030
1368,0.0068,0.0052,0.0059,0.0030
1369,0.0068,0.0052,0.0059,0.0030
1370,0.0068,0.0052,0.0059,0.0030
1371,0.0068,0.0052,0.0059,0.0030
1372,0.0068,0.0052,0.0059,0.0030
1373,0.0068,0.0052,0.0059,0.0030
1374,0.0068,0.0052,0.0059,0.0030
1375,0.0068,0.0052,0.0059,0.0030
1376,0.0068,0.0052,0.0059,0.0030
1377,0.0068,0.0052,0.0059,0.0030
1378,0.0068,0.0052,0.0059,0.0030
1379,0.0068,0.0052,0.0059,0.0030
1380,0.0068,0.0052,0.0059,0.0030
1381,0.0068,0.0052,0.0059,0.0030
1382,0.0068,0.0052,0.0059,0.0030
1383,0.0068,0.0052,0.0059,0.0030
1384,0.0068,0.0052,0.0059,0.0030
1385,0.0068,0.0052,0.0059,0.0030
1386,0.0068,0.0052,0.0059,0.0030
1387,0.0068,0.0052,0.0059,0.0030
1388,0.0068,0.0052,0.0059,0.0030
1389,0.0068,0.0052,0.0059,0.0030
1390,0.0071,0.0053,0.0059,0.0031
1391,0.0068,0.0053,0.0059,0.0030
1392,0.0068,0.0053,0.0059,0.0030
1393,0.0068,0.0052,0.0059,0.0030
1394,0.0068,0.0052,0.0059,0.0030
1395,0.0068,0.0052,0.0059,0.0030
1396,0.0068,0.0052,0.0059,0.0030
1397,0.0068,0.0052,0.0059,0.0030
1398,0.0068,0.0052,0.0059,0.0030
1399,0.0068,0.0052,0.0059,0.0030
1400,0.0068,0.0052,0.0059,0.0030
1401,0.0069,0.0053,0.0060,0.0031
1402,0.0068,0.0052,0.0059,0.0030
1403,0.0068,0.0052,0.0059,0.0030
1404,0.0068,0.0052,0.0059,0.0030
1405,0.0068,0.0053,0.0059,0.0030
1406,0.0068,0.0053,0.0059,0.0030
1407,0.0077,0.0053,0.0060,0.0031
1408,0.0071,0.0053,0.0060,0.0031
1409,0.0068,0.0055,0.0060,0.0031
1410,0.0068,0.0057,0.0060,0.0030
1411,0.0070,0.0052,0.0060,0.0031
1412,0.0068,0.0053,0.0060,0.0030
1413,0.0069,0.0057,0.0059,0.0030
1414,0.0069,0.0056,0.0059,0.0030
1415,0.0069,0.0054,0.0059,0.0030
1416,0.0068,0.0053,0.0059,0.0030
1417,0.0068,0.0052,0.0059,0.0030
1418,0.0070,0.0053,0.0059,0.0030
1419,0.0074,0.0054,0.0059,0.0030
1420,0.0075,0.0055,0.0060,0.0030
1421,0.0074,0.0054,0.0060,0.0030
1422,0.0072,0.0053,0.0060,0.0030
1423,0.0068,0.0053,0.0060,0.0030
1424,0.0070,0.0052,0.0060,0.0031
1425,0.0068,0.0052,0.0060,0.0031
1426,0.0068,0.0052,0.0060,0.0031
1427,0.0068,0.0053,0.0060,0.0032
1428,0.0070,0.0053,0.0060,0.0032
1429,0.0075,0.0053,0.0067,0.0033
1430,0.0068,0.0052,0.0064,0.0030
1431,0.0070,0.0052,0.0063,0.0030
1432,0.0073,0.0052,0.0062,0.0031
1433,0.0073,0.0052,0.0061,0.0033
1434,0.0068,0.0053,0.0059,0.0032
1435,0.0072,0.0052,0.0061,0.0034
1436,0.0070,0.0052,0.0060,0.0034
1437,0.0069,0.0052,0.0060,0.0033
1438,0.0068,0.0052,0.0060,0.0032
1439,0.0068,0.0052,0.0059,0.0031
1440,0.0068,0.0052,0.0059,0.0030
1441,0.0068,0.0052,0.0059,0.0030
1442,0.0069,0.0052,0.0059,0.0030
1443,0.0070,0.0053,0.0059,0.0031
1444,0.0071,0.0053,0.0059,0.0031
1445,0.0069,0.0052,0.0060,0.0030
1446,0.0072,0.0054,0.0060,0.0031
1447,0.0071,0.0054,0.0060,0.0031
1448,0.0070,0.0054,0.0060,0.0030
1449,0.0068,0.0053,0.0060,0.0030
1450,0.0069,0.0053,0.0060,0.0031
1451,0.0068,0.0052,0.0059,0.0030
1452,0.0068,0.0052,0.0059,0.0030
1453,0.0068,0.0052,0.0059,0.0030
1454,0.0068,0.0052,0.0059,0.0030
1455,0.0068,0.0052,0.0059,0.0030
1456,0.0069,0.0052,0.0060,0.0030
1457,0.0068,0.0052,0.0059,0.0030
1458,0.0068,0.0052,0.0059,0.0030
1459,0.0068,0.0052,0.0059,0.0030
1460,0.0068,0.0052,0.0059,0.0030
1461,0.0068,0.0052,0.0059,0.0030
1462,0.0068,0.0052,0.0059,0.0030
1463,0.0068,0.0052,0.0059,0.0030
1464,0.0068,0.0052,0.0059,0.0030
1465,0.0068,0.0052,0.0059,0.0030
1466,0.0068,0.0052,0.0059,0.0030
1467,0.0070,0.0052,0.0059,0.0030
1468,0.0068,0.0052,0.0059,0.0030
1469,0.0068,0.0052,0.0059,0.0030
1470,0.0068,0.0052,0.0059,0.0030
1471,0.0068,0.0052,0.0059,0.0030
1472,0.0068,0.0052,0.0059,0.0030
1473,0.0068,0.0053,0.0059,0.0030
1474,0.0068,0.0053,0.0059,0.0030
1475,0.0068,0.0052,0.0059,0.0031
1476,0.0068,0.0052,0.0059,0.0031
1477,0.0068,0.0053,0.0059,0.0030
1478,0.0070,0.0052,0.0059,0.0030
1479,0.0068,0.0055,0.0059,0.0030
1480,0.0068,0.0054,0.0059,0.0030
1481,0.0068,0.0054,0.0059,0.0030
1482,0.0068,0.0054,0.0059,0.0030
1483,0.0068,0.0053,0.0059,0.0030
1484,0.0068,0.0053,0.0059,0.0030
1485,0.0068,0.0054,0.0059,0.0030
1486,0.0068,0.0054,0.0059,0.0030
1487,0.0068,0.0055,0.0059,0.0030
1488,0.0068,0.0056,0.0060,0.0030
1489,0.0069,0.0052,0.0059,0.0030
1490,0.0081,0.0055,0.0060,0.0031
1491,0.0071,0.0055,0.0061,0.0031
1492,0.0069,0.0059,0.0060,0.0031
1493,0.0069,0.0062,0.0060,0.0031
1494,0.0069,0.0055,0.0060,0.0030
1495,0.0071,0.0065,0.0060,0.0030
1496,0.0071,0.0064,0.0060,0.0030
1497,0.0070,0.0061,0.0059,0.0030
1498,0.0069,0.0058,0.0059,0.0030
1499,0.0068,0.0055,0.0059,0.0030
Highest RMSE Cases
Vdc  Max RMSE=  0.0090 at Case 242; 0 > 0.05
Idc  Max RMSE=  0.0081 at Case 1262; 0 > 0.05
Id   Max RMSE=  0.0070 at Case 680; 0 > 0.05
Iq   Max RMSE=  0.0065 at Case 1284; 0 > 0.05
Total Error Summary
Vdc  RMSE=  0.0069
Idc  RMSE=  0.0057
Id   RMSE=  0.0060
Iq   RMSE=  0.0031
