Read Model from: ./unb3t/
Export Model to: ./unb3t/unb3t_fhf.json
idx_in [0, 1, 2, 3, 4, 5, 6, 7, 8, 9, 10, 11, 12, 13]
idx_out [14, 15, 16, 17, 18, 19, 20, 21]
make_mimo_block stable2ndx
H1s[0][0]  Real Poles: [-495.67479454 -495.67479454] Freqs [Hz]: [9.503983681259001]
H1s[0][1]  Real Poles: [-482.23023675 -482.23023675] Freqs [Hz]: [31.03658119047283]
H1s[0][2]  Real Poles: [-661.7706269 -661.7706269] Freqs [Hz]: [46.9600082564448]
H1s[0][3]  Real Poles: [-681.7022264 -681.7022264] Freqs [Hz]: [44.68517261772692]
H1s[0][4]  Real Poles: [-643.8485682 -643.8485682] Freqs [Hz]: [33.14696873073535]
H1s[0][5]  Real Poles: [-569.93597001 -569.93597001] Freqs [Hz]: [27.508999710487394]
H1s[0][6]  Real Poles: [-499.30465029 -499.30465029] Freqs [Hz]: [25.201761463572875]
H1s[0][7]  Real Poles: [-499.16381016 -499.16381016] Freqs [Hz]: [36.05001522667783]
H1s[1][0]  Real Poles: [-757.57655501 -757.57655501] Freqs [Hz]: [49.15215798148105]
H1s[1][1]  Real Poles: [-471.2096639 -471.2096639] Freqs [Hz]: [44.486875305639536]
H1s[1][2]  Real Poles: [-657.58885443 -657.58885443] Freqs [Hz]: [52.55462685432645]
H1s[1][3]  Real Poles: [-470.603358 -470.603358] Freqs [Hz]: [14.25949324733499]
H1s[1][4]  Real Poles: [-517.56143052 -389.64281004] Freqs [Hz]: []
H1s[1][5]  Real Poles: [-459.85869691 -459.85869691] Freqs [Hz]: [35.55410069179893]
H1s[1][6]  Real Poles: [-584.38324738 -420.24901001] Freqs [Hz]: []
H1s[1][7]  Real Poles: [-358.63286257 -358.63286257] Freqs [Hz]: [26.482078497146514]
H1s[2][0]  Real Poles: [-597.60531038 -597.60531038] Freqs [Hz]: [33.46525927836109]
H1s[2][1]  Real Poles: [-626.60089135 -626.60089135] Freqs [Hz]: [40.06565416018834]
H1s[2][2]  Real Poles: [-362.13082075 -362.13082075] Freqs [Hz]: [29.253578789781123]
H1s[2][3]  Real Poles: [-659.85949337 -659.85949337] Freqs [Hz]: [45.68845391721462]
H1s[2][4]  Real Poles: [-455.24493977 -455.24493977] Freqs [Hz]: [37.09668142662403]
H1s[2][5]  Real Poles: [-828.6536932 -828.6536932] Freqs [Hz]: [26.39782163819459]
H1s[2][6]  Real Poles: [-901.7855823 -901.7855823] Freqs [Hz]: [23.584946117887835]
H1s[2][7]  Real Poles: [-499.5639573 -499.5639573] Freqs [Hz]: [30.69132909912193]
H1s[3][0]  Real Poles: [-573.22735339 -573.22735339] Freqs [Hz]: [24.941327847838345]
H1s[3][1]  Real Poles: [-738.05692792 -738.05692792] Freqs [Hz]: [50.128678766045404]
H1s[3][2]  Real Poles: [-762.13729382 -762.13729382] Freqs [Hz]: [44.414261992107754]
H1s[3][3]  Real Poles: [-613.71493902 -315.9394059 ] Freqs [Hz]: []
H1s[3][4]  Real Poles: [-490.53905625 -490.53905625] Freqs [Hz]: [43.41737371849018]
H1s[3][5]  Real Poles: [-499.08204598 -499.08204598] Freqs [Hz]: [18.39648075758282]
H1s[3][6]  Real Poles: [-578.05266976 -578.05266976] Freqs [Hz]: [58.654904721733594]
H1s[3][7]  Real Poles: [-901.22044086 -901.22044086] Freqs [Hz]: [36.892481087804605]
H1s[4][0]  Real Poles: [-423.67377132 -423.67377132] Freqs [Hz]: [28.975295863688636]
H1s[4][1]  Real Poles: [-533.84000865 -455.77694046] Freqs [Hz]: []
H1s[4][2]  Real Poles: [-354.99878228 -354.99878228] Freqs [Hz]: [28.08964031529167]
H1s[4][3]  Real Poles: [-496.69069401 -496.69069401] Freqs [Hz]: [28.90463597226566]
H1s[4][4]  Real Poles: [-497.9539765 -497.9539765] Freqs [Hz]: [30.61633985002599]
H1s[4][5]  Real Poles: [-830.22138476 -830.22138476] Freqs [Hz]: [43.80421162301544]
H1s[4][6]  Real Poles: [-692.68554449 -692.68554449] Freqs [Hz]: [52.70462234308654]
H1s[4][7]  Real Poles: [-821.93830609 -821.93830609] Freqs [Hz]: [50.846578453198454]
H1s[5][0]  Real Poles: [-706.00812137 -706.00812137] Freqs [Hz]: [52.446374284260294]
H1s[5][1]  Real Poles: [-720.52459419 -720.52459419] Freqs [Hz]: [18.62028823150122]
H1s[5][2]  Real Poles: [-487.18256224 -487.18256224] Freqs [Hz]: [25.33164831972924]
H1s[5][3]  Real Poles: [-499.46148018 -499.46148018] Freqs [Hz]: [32.59793590338137]
H1s[5][4]  Real Poles: [-283.36183727 -283.36183727] Freqs [Hz]: [39.08984832251195]
H1s[5][5]  Real Poles: [-497.82961467 -497.82961467] Freqs [Hz]: [18.35748096471247]
H1s[5][6]  Real Poles: [-662.83088923 -662.83088923] Freqs [Hz]: [43.79968979073731]
H1s[5][7]  Real Poles: [-398.45243841 -398.45243841] Freqs [Hz]: [16.09490183268924]
H1s[6][0]  Real Poles: [-479.54500094 -479.54500094] Freqs [Hz]: [18.59120542985997]
H1s[6][1]  Real Poles: [-901.33079886 -901.33079886] Freqs [Hz]: [22.25749248438434]
H1s[6][2]  Real Poles: [-931.12927675 -931.12927675] Freqs [Hz]: [35.19536739660544]
H1s[6][3]  Real Poles: [-718.12042594 -718.12042594] Freqs [Hz]: [50.97097188787584]
H1s[6][4]  Real Poles: [-680.60063058 -310.9541    ] Freqs [Hz]: []
H1s[6][5]  Real Poles: [-463.41981739 -463.41981739] Freqs [Hz]: [25.516661552771204]
H1s[6][6]  Real Poles: [-579.28303629 -579.28303629] Freqs [Hz]: [35.33376399627575]
H1s[6][7]  Real Poles: [-498.77789535 -498.77789535] Freqs [Hz]: [54.69739459161816]
H1s[7][0]  Real Poles: [-428.21758986 -428.21758986] Freqs [Hz]: [17.880023949937133]
H1s[7][1]  Real Poles: [-497.53463012 -497.53463012] Freqs [Hz]: [22.378955411908557]
H1s[7][2]  Real Poles: [-753.37439775 -753.37439775] Freqs [Hz]: [51.12758139364185]
H1s[7][3]  Real Poles: [-654.97162202 -341.69905507] Freqs [Hz]: []
H1s[7][4]  Real Poles: [-821.99594378 -821.99594378] Freqs [Hz]: [51.97420606221176]
H1s[7][5]  Real Poles: [-838.25445175 -838.25445175] Freqs [Hz]: [34.790574865934346]
H1s[7][6]  Real Poles: [-636.42026484 -636.42026484] Freqs [Hz]: [37.78538584283543]
H1s[7][7]  Real Poles: [-497.25861405 -497.25861405] Freqs [Hz]: [26.218985545762457]
model_folder = ./unb3t/
model_root = unb3t
data_path = /Users/tom/Documents/data/unb3t.hdf5
idx_in [0, 1, 2, 3, 4, 5, 6, 7, 8, 9, 10, 11, 12, 13]
idx_out [14, 15, 16, 17, 18, 19, 20, 21]
read 2430 dataframes
dt=0.002000 data_len=3500 n_io=22 n_case=2430
['T', 'G', 'Fc', 'Md', 'Mq', 'Idlo', 'Iqlo', 'I0lo', 'Idhi', 'Iqhi', 'I0hi', 'GIlo', 'Ctl', 'Unb'] ['Vdc', 'Idc', 'Vdlo', 'Vqlo', 'V0lo', 'Vdhi', 'Vqhi', 'V0hi'] (2430, 3500, 22)
make_mimo_block stable2ndx
prepending initial conditions (2430, 500, 22) (2430, 3500, 22) float32 float32
results in (2430, 4000, 22)
Idx,Vdc,Idc,Vdlo,Vqlo,V0lo,Vdhi,Vqhi,V0hi
#,RMSE,RMSE,RMSE,RMSE,RMSE,RMSE,RMSE,RMSE
Total,0.0531,0.0102,0.0581,0.0305,0.0102,0.0115,0.0096,0.0053
0,0.0982,0.0135,0.0941,0.0548,0.0098,0.0077,0.0108,0.0033
1,0.0956,0.0127,0.0912,0.0498,0.0060,0.0064,0.0083,0.0037
2,0.0689,0.0131,0.0805,0.0479,0.0046,0.0089,0.0094,0.0052
3,0.0387,0.0058,0.0406,0.0149,0.0018,0.0106,0.0050,0.0035
4,0.0388,0.0060,0.0438,0.0092,0.0060,0.0100,0.0061,0.0062
5,0.0913,0.0090,0.0993,0.0439,0.0053,0.0093,0.0076,0.0036
6,0.0435,0.0043,0.0501,0.0157,0.0022,0.0066,0.0026,0.0027
7,0.0445,0.0063,0.0511,0.0097,0.0089,0.0095,0.0063,0.0047
8,0.0497,0.0069,0.0566,0.0137,0.0119,0.0100,0.0074,0.0073
9,0.0681,0.0086,0.0714,0.0460,0.0075,0.0143,0.0113,0.0110
10,0.0628,0.0057,0.0682,0.0609,0.0060,0.0138,0.0124,0.0049
11,0.0541,0.0058,0.0588,0.0534,0.0044,0.0100,0.0094,0.0052
12,0.0542,0.0057,0.0580,0.0473,0.0037,0.0098,0.0092,0.0057
13,0.0563,0.0057,0.0600,0.0482,0.0050,0.0107,0.0101,0.0051
14,0.0542,0.0060,0.0555,0.0148,0.0039,0.0101,0.0054,0.0041
15,0.0656,0.0060,0.0685,0.0479,0.0066,0.0146,0.0125,0.0051
16,0.0368,0.0121,0.0376,0.0296,0.0301,0.0186,0.0156,0.0060
17,0.0343,0.0108,0.0377,0.0351,0.0175,0.0135,0.0099,0.0031
18,0.0429,0.0042,0.0509,0.0156,0.0023,0.0071,0.0034,0.0027
19,0.0221,0.0052,0.0223,0.0314,0.0086,0.0102,0.0072,0.0039
20,0.0216,0.0048,0.0215,0.0281,0.0093,0.0102,0.0071,0.0033
21,0.0318,0.0077,0.0337,0.0296,0.0150,0.0134,0.0084,0.0054
22,0.0399,0.0090,0.0413,0.0285,0.0202,0.0162,0.0112,0.0032
23,0.0368,0.0090,0.0411,0.0117,0.0124,0.0127,0.0135,0.0087
24,0.0305,0.0063,0.0377,0.0145,0.0058,0.0104,0.0112,0.0054
25,0.0745,0.0101,0.0718,0.0469,0.0056,0.0086,0.0087,0.0043
26,0.0311,0.0069,0.0357,0.0093,0.0029,0.0111,0.0054,0.0035
27,0.0336,0.0067,0.0368,0.0092,0.0053,0.0113,0.0056,0.0039
28,0.0327,0.0056,0.0366,0.0108,0.0082,0.0103,0.0060,0.0034
29,0.0354,0.0058,0.0393,0.0145,0.0111,0.0101,0.0085,0.0060
30,0.0550,0.0053,0.0591,0.0370,0.0055,0.0088,0.0176,0.0047
31,0.0560,0.0067,0.0589,0.0432,0.0072,0.0172,0.0099,0.0066
32,0.0482,0.0056,0.0514,0.0539,0.0057,0.0151,0.0094,0.0047
33,0.0396,0.0053,0.0415,0.0478,0.0042,0.0112,0.0078,0.0047
34,0.0407,0.0054,0.0411,0.0430,0.0037,0.0112,0.0078,0.0050
35,0.0444,0.0055,0.0444,0.0430,0.0048,0.0121,0.0080,0.0048
36,0.0519,0.0076,0.0538,0.0135,0.0067,0.0109,0.0050,0.0031
37,0.0528,0.0058,0.0519,0.0449,0.0064,0.0166,0.0099,0.0051
38,0.0408,0.0152,0.0424,0.0225,0.0278,0.0196,0.0252,0.0040
39,0.0325,0.0125,0.0366,0.0284,0.0162,0.0143,0.0149,0.0052
40,0.0266,0.0058,0.0231,0.0220,0.0081,0.0116,0.0088,0.0054
41,0.0248,0.0051,0.0228,0.0191,0.0086,0.0115,0.0085,0.0046
42,0.0708,0.0069,0.0759,0.0351,0.0044,0.0071,0.0083,0.0044
43,0.0245,0.0085,0.0274,0.0217,0.0140,0.0146,0.0106,0.0076
44,0.0361,0.0105,0.0381,0.0223,0.0189,0.0172,0.0157,0.0055
45,0.0277,0.0078,0.0320,0.0141,0.0119,0.0161,0.0123,0.0084
46,0.0249,0.0062,0.0292,0.0154,0.0054,0.0103,0.0133,0.0048
47,0.0565,0.0095,0.0591,0.0126,0.0091,0.0117,0.0061,0.0036
48,0.0243,0.0070,0.0287,0.0123,0.0024,0.0113,0.0053,0.0035
49,0.0279,0.0066,0.0321,0.0114,0.0047,0.0114,0.0054,0.0037
50,0.0256,0.0059,0.0296,0.0144,0.0077,0.0105,0.0062,0.0040
51,0.0301,0.0058,0.0341,0.0152,0.0104,0.0105,0.0101,0.0049
52,0.0581,0.0087,0.0622,0.0405,0.0067,0.0220,0.0087,0.0058
53,0.0510,0.0072,0.0540,0.0500,0.0053,0.0155,0.0073,0.0049
54,0.0551,0.0108,0.0617,0.0327,0.0038,0.0083,0.0081,0.0039
55,0.0446,0.0078,0.0451,0.0453,0.0042,0.0122,0.0064,0.0052
56,0.0465,0.0085,0.0441,0.0416,0.0038,0.0123,0.0063,0.0055
57,0.0530,0.0077,0.0495,0.0406,0.0049,0.0131,0.0070,0.0053
58,0.0425,0.0127,0.0443,0.0355,0.0074,0.0155,0.0134,0.0078
59,0.0562,0.0073,0.0529,0.0444,0.0063,0.0174,0.0081,0.0051
60,0.0498,0.0129,0.0460,0.0353,0.0397,0.0133,0.0274,0.0059
61,0.0486,0.0126,0.0441,0.0400,0.0230,0.0092,0.0170,0.0067
62,0.0482,0.0124,0.0453,0.0349,0.0112,0.0079,0.0143,0.0038
63,0.0553,0.0117,0.0521,0.0418,0.0116,0.0082,0.0116,0.0053
64,0.0587,0.0130,0.0528,0.0486,0.0189,0.0110,0.0208,0.0039
65,0.0697,0.0110,0.0630,0.0603,0.0255,0.0108,0.0154,0.0091
66,0.0498,0.0112,0.0553,0.0313,0.0035,0.0086,0.0085,0.0038
67,0.0250,0.0190,0.0248,0.0141,0.0171,0.0148,0.0113,0.0058
68,0.0285,0.0210,0.0311,0.0130,0.0091,0.0128,0.0088,0.0039
69,0.0413,0.0125,0.0437,0.0301,0.0064,0.0129,0.0106,0.0053
70,0.0256,0.0189,0.0263,0.0106,0.0067,0.0129,0.0080,0.0032
71,0.0396,0.0184,0.0402,0.0106,0.0083,0.0125,0.0086,0.0046
72,0.0399,0.0211,0.0406,0.0112,0.0109,0.0147,0.0096,0.0045
73,0.0405,0.0210,0.0408,0.0128,0.0141,0.0134,0.0099,0.0060
74,0.0248,0.0214,0.0265,0.0276,0.0074,0.0148,0.0174,0.0038
75,0.0361,0.0124,0.0398,0.0284,0.0062,0.0136,0.0144,0.0054
76,0.0240,0.0110,0.0255,0.0257,0.0045,0.0121,0.0118,0.0040
77,0.0286,0.0114,0.0296,0.0332,0.0037,0.0121,0.0111,0.0043
78,0.0497,0.0084,0.0553,0.0328,0.0037,0.0071,0.0075,0.0041
79,0.0266,0.0108,0.0275,0.0305,0.0054,0.0123,0.0126,0.0043
80,0.0407,0.0101,0.0444,0.0348,0.0041,0.0107,0.0100,0.0049
81,0.0249,0.0126,0.0261,0.0265,0.0070,0.0146,0.0142,0.0064
82,0.0213,0.0118,0.0227,0.0244,0.0366,0.0177,0.0205,0.0051
83,0.0209,0.0115,0.0224,0.0227,0.0212,0.0099,0.0129,0.0061
84,0.0212,0.0107,0.0224,0.0236,0.0103,0.0081,0.0124,0.0039
85,0.0244,0.0099,0.0269,0.0304,0.0105,0.0083,0.0108,0.0052
86,0.0250,0.0111,0.0263,0.0333,0.0175,0.0112,0.0161,0.0042
87,0.0309,0.0096,0.0337,0.0379,0.0236,0.0118,0.0124,0.0084
88,0.0177,0.0145,0.0249,0.0135,0.0157,0.0213,0.0131,0.0048
89,0.0175,0.0160,0.0218,0.0126,0.0084,0.0136,0.0093,0.0039
90,0.0513,0.0061,0.0577,0.0363,0.0043,0.0071,0.0091,0.0045
91,0.0531,0.0102,0.0570,0.0464,0.0030,0.0104,0.0101,0.0051
92,0.0174,0.0152,0.0271,0.0097,0.0063,0.0110,0.0072,0.0027
93,0.0269,0.0148,0.0398,0.0097,0.0078,0.0110,0.0075,0.0033
94,0.0301,0.0163,0.0437,0.0105,0.0104,0.0137,0.0111,0.0049
95,0.0347,0.0156,0.0488,0.0126,0.0134,0.0152,0.0107,0.0061
96,0.0281,0.0125,0.0347,0.0267,0.0066,0.0188,0.0168,0.0074
97,0.0269,0.0091,0.0321,0.0261,0.0058,0.0123,0.0127,0.0073
98,0.0304,0.0092,0.0392,0.0255,0.0043,0.0096,0.0109,0.0040
99,0.0378,0.0096,0.0496,0.0314,0.0035,0.0093,0.0103,0.0040
100,0.0350,0.0087,0.0464,0.0298,0.0052,0.0101,0.0111,0.0052
101,0.0316,0.0090,0.0426,0.0254,0.0068,0.0137,0.0126,0.0087
102,0.0547,0.0129,0.0597,0.0477,0.0047,0.0101,0.0095,0.0052
103,0.0508,0.0077,0.0560,0.0248,0.0086,0.0120,0.0104,0.0054
104,0.0232,0.0152,0.0307,0.0303,0.0341,0.0267,0.0171,0.0069
105,0.0229,0.0154,0.0287,0.0227,0.0199,0.0113,0.0118,0.0051
106,0.0297,0.0131,0.0356,0.0271,0.0098,0.0089,0.0126,0.0037
107,0.0373,0.0121,0.0456,0.0343,0.0099,0.0089,0.0119,0.0046
108,0.0303,0.0137,0.0387,0.0329,0.0164,0.0118,0.0140,0.0047
109,0.0310,0.0129,0.0425,0.0334,0.0221,0.0134,0.0119,0.0068
110,0.0206,0.0152,0.0213,0.0142,0.0148,0.0335,0.0162,0.0050
111,0.0161,0.0157,0.0209,0.0143,0.0077,0.0162,0.0097,0.0041
112,0.0147,0.0155,0.0256,0.0113,0.0054,0.0115,0.0068,0.0033
113,0.0664,0.0136,0.0789,0.0500,0.0059,0.0102,0.0103,0.0047
114,0.0538,0.0142,0.0604,0.0535,0.0060,0.0134,0.0113,0.0057
115,0.0181,0.0153,0.0352,0.0108,0.0068,0.0116,0.0068,0.0032
116,0.0432,0.0082,0.0501,0.0329,0.0052,0.0116,0.0091,0.0037
117,0.0222,0.0158,0.0417,0.0128,0.0096,0.0146,0.0124,0.0055
118,0.0259,0.0152,0.0475,0.0142,0.0125,0.0190,0.0116,0.0060
119,0.0196,0.0119,0.0283,0.0252,0.0059,0.0282,0.0161,0.0099
120,0.0237,0.0112,0.0276,0.0246,0.0055,0.0140,0.0104,0.0080
121,0.0191,0.0115,0.0319,0.0223,0.0041,0.0118,0.0098,0.0039
122,0.0222,0.0120,0.0411,0.0255,0.0037,0.0116,0.0094,0.0039
123,0.0202,0.0109,0.0376,0.0254,0.0051,0.0119,0.0096,0.0054
124,0.0209,0.0117,0.0385,0.0226,0.0067,0.0157,0.0109,0.0096
125,0.0340,0.0090,0.0397,0.0235,0.0219,0.0234,0.0137,0.0085
126,0.0402,0.0121,0.0380,0.0309,0.0385,0.0163,0.0186,0.0066
127,0.0398,0.0110,0.0367,0.0379,0.0223,0.0108,0.0118,0.0044
128,0.0956,0.0120,0.0914,0.0517,0.0038,0.0077,0.0081,0.0052
129,0.0947,0.0087,0.1034,0.0464,0.0032,0.0075,0.0072,0.0045
130,0.0334,0.0084,0.0408,0.0283,0.0031,0.0088,0.0100,0.0039
131,0.0371,0.0111,0.0357,0.0334,0.0107,0.0101,0.0096,0.0029
132,0.0423,0.0105,0.0406,0.0406,0.0113,0.0109,0.0079,0.0030
133,0.0485,0.0114,0.0445,0.0469,0.0185,0.0097,0.0147,0.0041
134,0.0607,0.0099,0.0563,0.0574,0.0251,0.0125,0.0112,0.0062
135,0.0220,0.0198,0.0226,0.0148,0.0169,0.0144,0.0121,0.0116
136,0.0309,0.0099,0.0361,0.0226,0.0126,0.0149,0.0096,0.0032
137,0.0368,0.0211,0.0363,0.0143,0.0087,0.0110,0.0082,0.0046
138,0.0197,0.0188,0.0208,0.0117,0.0062,0.0116,0.0088,0.0031
139,0.0271,0.0183,0.0293,0.0116,0.0079,0.0116,0.0097,0.0038
140,0.0275,0.0208,0.0305,0.0123,0.0109,0.0131,0.0086,0.0054
141,0.0284,0.0212,0.0311,0.0140,0.0142,0.0117,0.0087,0.0055
142,0.0302,0.0083,0.0393,0.0233,0.0033,0.0088,0.0103,0.0039
143,0.0298,0.0222,0.0308,0.0257,0.0075,0.0153,0.0180,0.0085
144,0.0271,0.0134,0.0282,0.0256,0.0059,0.0117,0.0145,0.0047
145,0.0253,0.0108,0.0264,0.0298,0.0043,0.0116,0.0119,0.0053
146,0.0309,0.0111,0.0329,0.0385,0.0035,0.0112,0.0110,0.0058
147,0.1366,0.0052,0.1358,0.0120,0.0024,0.0084,0.0024,0.0039
148,0.0340,0.0111,0.0364,0.0378,0.0052,0.0109,0.0123,0.0047
149,0.0329,0.0137,0.0356,0.0333,0.0067,0.0125,0.0139,0.0050
150,0.0172,0.0103,0.0176,0.0206,0.0355,0.0147,0.0134,0.0071
151,0.0183,0.0093,0.0174,0.0209,0.0205,0.0110,0.0104,0.0045
152,0.0191,0.0089,0.0179,0.0221,0.0098,0.0101,0.0091,0.0032
153,0.0169,0.0084,0.0174,0.0289,0.0103,0.0106,0.0080,0.0032
154,0.0315,0.0082,0.0412,0.0232,0.0042,0.0104,0.0089,0.0037
155,0.0188,0.0090,0.0197,0.0314,0.0171,0.0103,0.0121,0.0044
156,0.0256,0.0080,0.0294,0.0354,0.0233,0.0125,0.0112,0.0062
157,0.0174,0.0146,0.0215,0.0136,0.0155,0.0153,0.0106,0.0087
158,0.0720,0.0088,0.0696,0.0481,0.0035,0.0096,0.0078,0.0027
159,0.0280,0.0154,0.0212,0.0132,0.0079,0.0119,0.0083,0.0049
160,0.0175,0.0146,0.0164,0.0101,0.0058,0.0104,0.0077,0.0039
161,0.0159,0.0143,0.0242,0.0101,0.0075,0.0106,0.0084,0.0038
162,0.0179,0.0156,0.0292,0.0109,0.0103,0.0125,0.0096,0.0061
163,0.0225,0.0152,0.0357,0.0132,0.0133,0.0131,0.0092,0.0059
164,0.0337,0.0126,0.0419,0.0253,0.0067,0.0144,0.0166,0.0044
165,0.0262,0.0091,0.0343,0.0247,0.0054,0.0110,0.0130,0.0067
166,0.0345,0.0079,0.0453,0.0250,0.0049,0.0116,0.0088,0.0039
167,0.0292,0.0088,0.0398,0.0292,0.0040,0.0101,0.0109,0.0053
168,0.0354,0.0092,0.0493,0.0358,0.0035,0.0095,0.0101,0.0055
169,0.0328,0.0062,0.0394,0.0262,0.0059,0.0100,0.0081,0.0036
170,0.0400,0.0084,0.0546,0.0366,0.0050,0.0096,0.0108,0.0058
171,0.0406,0.0088,0.0558,0.0313,0.0065,0.0116,0.0124,0.0074
172,0.0179,0.0127,0.0273,0.0264,0.0329,0.0185,0.0128,0.0106
173,0.0175,0.0123,0.0234,0.0217,0.0191,0.0122,0.0114,0.0050
174,0.0207,0.0108,0.0276,0.0258,0.0093,0.0108,0.0100,0.0038
175,0.0266,0.0101,0.0360,0.0329,0.0096,0.0108,0.0093,0.0035
176,0.0231,0.0110,0.0331,0.0314,0.0161,0.0114,0.0117,0.0056
177,0.0259,0.0102,0.0393,0.0318,0.0219,0.0133,0.0125,0.0057
178,0.0374,0.0077,0.0449,0.0189,0.0033,0.0103,0.0106,0.0047
179,0.0248,0.0145,0.0172,0.0137,0.0144,0.0243,0.0107,0.0088
180,0.0448,0.0056,0.0525,0.0350,0.0068,0.0099,0.0082,0.0034
181,0.0291,0.0145,0.0169,0.0146,0.0072,0.0141,0.0085,0.0051
182,0.0258,0.0145,0.0152,0.0112,0.0050,0.0109,0.0071,0.0044
183,0.0215,0.0144,0.0185,0.0108,0.0066,0.0112,0.0077,0.0039
184,0.0196,0.0146,0.0260,0.0127,0.0094,0.0135,0.0107,0.0065
185,0.0210,0.0140,0.0346,0.0145,0.0124,0.0163,0.0098,0.0061
186,0.0197,0.0114,0.0315,0.0229,0.0061,0.0214,0.0152,0.0064
187,0.0183,0.0106,0.0255,0.0221,0.0052,0.0130,0.0107,0.0077
188,0.0176,0.0109,0.0277,0.0237,0.0039,0.0120,0.0098,0.0051
189,0.0175,0.0114,0.0354,0.0278,0.0037,0.0116,0.0091,0.0051
190,0.0668,0.0092,0.0712,0.0193,0.0023,0.0083,0.0059,0.0040
191,0.0368,0.0079,0.0443,0.0341,0.0116,0.0127,0.0088,0.0039
192,0.0191,0.0102,0.0401,0.0302,0.0050,0.0115,0.0090,0.0061
193,0.0236,0.0107,0.0467,0.0257,0.0065,0.0137,0.0103,0.0087
194,0.0369,0.0186,0.0373,0.0390,0.0378,0.0287,0.0194,0.0120
195,0.0356,0.0154,0.0347,0.0327,0.0217,0.0176,0.0101,0.0057
196,0.0308,0.0123,0.0308,0.0292,0.0103,0.0105,0.0082,0.0054
197,0.0356,0.0116,0.0360,0.0364,0.0109,0.0096,0.0077,0.0047
198,0.0500,0.0142,0.0488,0.0432,0.0180,0.0184,0.0113,0.0077
199,0.0611,0.0144,0.0603,0.0564,0.0244,0.0207,0.0105,0.0060
200,0.0315,0.0223,0.0296,0.0153,0.0169,0.0213,0.0140,0.0129
201,0.0293,0.0217,0.0307,0.0146,0.0083,0.0114,0.0095,0.0045
202,0.0416,0.0085,0.0495,0.0356,0.0159,0.0165,0.0106,0.0035
203,0.0595,0.0092,0.0660,0.0188,0.0021,0.0086,0.0034,0.0039
204,0.0230,0.0196,0.0231,0.0125,0.0044,0.0102,0.0093,0.0033
205,0.0226,0.0192,0.0234,0.0125,0.0067,0.0103,0.0099,0.0041
206,0.0278,0.0219,0.0291,0.0126,0.0102,0.0107,0.0094,0.0044
207,0.0331,0.0229,0.0346,0.0149,0.0137,0.0117,0.0094,0.0060
208,0.0320,0.0172,0.0323,0.0316,0.0075,0.0159,0.0186,0.0198
209,0.0403,0.0119,0.0404,0.0290,0.0058,0.0145,0.0129,0.0043
210,0.0272,0.0103,0.0275,0.0302,0.0041,0.0111,0.0117,0.0053
211,0.0307,0.0106,0.0322,0.0388,0.0034,0.0107,0.0112,0.0059
212,0.0308,0.0105,0.0324,0.0358,0.0052,0.0120,0.0114,0.0048
213,0.0213,0.0086,0.0313,0.0138,0.0068,0.0155,0.0069,0.0051
214,0.0301,0.0122,0.0311,0.0306,0.0068,0.0157,0.0129,0.0050
215,0.0423,0.0091,0.0490,0.0186,0.0023,0.0085,0.0033,0.0040
216,0.0238,0.0161,0.0232,0.0251,0.0347,0.0336,0.0183,0.0081
217,0.0198,0.0125,0.0175,0.0188,0.0199,0.0206,0.0106,0.0044
218,0.0179,0.0095,0.0141,0.0189,0.0093,0.0119,0.0084,0.0041
219,0.0149,0.0089,0.0146,0.0253,0.0099,0.0107,0.0078,0.0031
220,0.0231,0.0109,0.0271,0.0293,0.0166,0.0210,0.0105,0.0067
221,0.0313,0.0114,0.0381,0.0375,0.0226,0.0245,0.0115,0.0050
222,0.0300,0.0161,0.0209,0.0129,0.0153,0.0179,0.0139,0.0111
223,0.0216,0.0151,0.0170,0.0137,0.0074,0.0116,0.0091,0.0052
224,0.0326,0.0076,0.0401,0.0363,0.0220,0.0163,0.0132,0.0038
225,0.0201,0.0073,0.0288,0.0122,0.0032,0.0122,0.0046,0.0040
226,0.0233,0.0148,0.0164,0.0101,0.0037,0.0102,0.0084,0.0041
227,0.0201,0.0147,0.0193,0.0103,0.0062,0.0106,0.0089,0.0043
228,0.0387,0.0093,0.0453,0.0189,0.0026,0.0086,0.0049,0.0039
229,0.0260,0.0156,0.0329,0.0107,0.0095,0.0105,0.0095,0.0051
230,0.0338,0.0157,0.0435,0.0142,0.0130,0.0118,0.0091,0.0067
231,0.0285,0.0100,0.0344,0.0315,0.0068,0.0214,0.0159,0.0112
232,0.0310,0.0086,0.0335,0.0279,0.0053,0.0165,0.0115,0.0057
233,0.0266,0.0084,0.0359,0.0288,0.0039,0.0112,0.0105,0.0055
234,0.0311,0.0087,0.0444,0.0354,0.0034,0.0109,0.0101,0.0057
235,0.0320,0.0081,0.0453,0.0334,0.0050,0.0125,0.0101,0.0062
236,0.0196,0.0054,0.0296,0.0116,0.0017,0.0108,0.0043,0.0031
237,0.0314,0.0085,0.0438,0.0272,0.0066,0.0186,0.0115,0.0072
238,0.0302,0.0179,0.0392,0.0272,0.0319,0.0373,0.0225,0.0088
239,0.0199,0.0139,0.0271,0.0212,0.0183,0.0224,0.0131,0.0057
240,0.0366,0.0090,0.0472,0.0188,0.0028,0.0082,0.0065,0.0042
241,0.0199,0.0106,0.0286,0.0235,0.0087,0.0140,0.0099,0.0049
242,0.0251,0.0099,0.0369,0.0304,0.0092,0.0130,0.0094,0.0038
243,0.0309,0.0116,0.0440,0.0317,0.0155,0.0230,0.0112,0.0080
244,0.0335,0.0125,0.0499,0.0356,0.0212,0.0273,0.0135,0.0068
245,0.0368,0.0150,0.0209,0.0129,0.0141,0.0231,0.0151,0.0120
246,0.0267,0.0138,0.0205,0.0151,0.0067,0.0132,0.0088,0.0055
247,0.0268,0.0055,0.0400,0.0115,0.0038,0.0104,0.0046,0.0032
248,0.0288,0.0140,0.0163,0.0104,0.0029,0.0107,0.0080,0.0046
249,0.0278,0.0141,0.0182,0.0101,0.0054,0.0110,0.0083,0.0045
250,0.0297,0.0139,0.0368,0.0133,0.0087,0.0112,0.0098,0.0055
251,0.0336,0.0139,0.0455,0.0155,0.0121,0.0139,0.0088,0.0067
252,0.1104,0.0086,0.1202,0.0560,0.0034,0.0077,0.0072,0.0046
253,0.0510,0.0070,0.0550,0.0350,0.0059,0.0083,0.0167,0.0070
254,0.0344,0.0134,0.0296,0.0307,0.0062,0.0335,0.0139,0.0073
255,0.0356,0.0121,0.0297,0.0279,0.0051,0.0196,0.0099,0.0070
256,0.0243,0.0102,0.0227,0.0226,0.0039,0.0132,0.0090,0.0053
257,0.0196,0.0107,0.0265,0.0262,0.0037,0.0131,0.0085,0.0055
258,0.0321,0.0071,0.0457,0.0112,0.0063,0.0115,0.0043,0.0043
259,0.0207,0.0105,0.0281,0.0258,0.0052,0.0146,0.0089,0.0068
260,0.0211,0.0130,0.0319,0.0228,0.0065,0.0228,0.0102,0.0091
261,0.0343,0.0143,0.0308,0.0196,0.0400,0.0113,0.0253,0.0056
262,0.0389,0.0139,0.0330,0.0223,0.0235,0.0084,0.0172,0.0057
263,0.0342,0.0128,0.0311,0.0191,0.0118,0.0072,0.0139,0.0034
264,0.0344,0.0119,0.0306,0.0187,0.0122,0.0077,0.0109,0.0044
265,0.0652,0.0087,0.0694,0.0339,0.0053,0.0064,0.0081,0.0076
266,0.0338,0.0138,0.0291,0.0222,0.0195,0.0094,0.0207,0.0040
267,0.0435,0.0117,0.0367,0.0340,0.0260,0.0096,0.0149,0.0082
268,0.0324,0.0183,0.0381,0.0145,0.0177,0.0115,0.0099,0.0052
269,0.0409,0.0087,0.0555,0.0124,0.0086,0.0120,0.0045,0.0038
270,0.0513,0.0204,0.0580,0.0137,0.0099,0.0110,0.0071,0.0036
271,0.0292,0.0182,0.0342,0.0115,0.0078,0.0115,0.0070,0.0030
272,0.0242,0.0177,0.0277,0.0113,0.0092,0.0113,0.0075,0.0043
273,0.0265,0.0205,0.0303,0.0119,0.0117,0.0133,0.0082,0.0047
274,0.0322,0.0203,0.0352,0.0133,0.0147,0.0116,0.0077,0.0054
275,0.0430,0.0230,0.0501,0.0287,0.0075,0.0126,0.0143,0.0038
276,0.0512,0.0126,0.0594,0.0379,0.0063,0.0124,0.0146,0.0049
277,0.0588,0.0115,0.0637,0.0309,0.0049,0.0079,0.0082,0.0078
278,0.0394,0.0100,0.0458,0.0245,0.0048,0.0104,0.0111,0.0039
279,0.0362,0.0103,0.0413,0.0194,0.0040,0.0104,0.0104,0.0042
280,0.0835,0.0086,0.0803,0.0579,0.0039,0.0102,0.0078,0.0026
281,0.0382,0.0103,0.0439,0.0209,0.0054,0.0106,0.0123,0.0039
282,0.0451,0.0128,0.0505,0.0254,0.0072,0.0132,0.0140,0.0058
283,0.0247,0.0139,0.0219,0.0151,0.0369,0.0140,0.0180,0.0048
284,0.0236,0.0138,0.0231,0.0151,0.0217,0.0087,0.0126,0.0050
285,0.0257,0.0117,0.0255,0.0167,0.0108,0.0076,0.0116,0.0035
286,0.0236,0.0107,0.0216,0.0146,0.0111,0.0079,0.0098,0.0042
287,0.0251,0.0126,0.0245,0.0149,0.0180,0.0095,0.0156,0.0043
288,0.0237,0.0111,0.0214,0.0181,0.0241,0.0103,0.0115,0.0072
289,0.0504,0.0118,0.0546,0.0277,0.0046,0.0084,0.0086,0.0079
290,0.0251,0.0141,0.0244,0.0136,0.0163,0.0174,0.0099,0.0044
291,0.0399,0.0096,0.0493,0.0308,0.0069,0.0190,0.0117,0.0052
292,0.0301,0.0155,0.0311,0.0133,0.0092,0.0119,0.0068,0.0036
293,0.0207,0.0143,0.0201,0.0104,0.0073,0.0100,0.0064,0.0027
294,0.0191,0.0139,0.0183,0.0101,0.0087,0.0102,0.0066,0.0030
295,0.0200,0.0158,0.0186,0.0112,0.0111,0.0126,0.0091,0.0052
296,0.0228,0.0150,0.0198,0.0129,0.0139,0.0135,0.0079,0.0054
297,0.0264,0.0138,0.0295,0.0227,0.0068,0.0176,0.0138,0.0074
298,0.0272,0.0085,0.0303,0.0274,0.0059,0.0121,0.0125,0.0068
299,0.0236,0.0080,0.0250,0.0186,0.0045,0.0091,0.0101,0.0041
300,0.0244,0.0083,0.0266,0.0158,0.0039,0.0090,0.0096,0.0042
301,0.0501,0.0097,0.0544,0.0283,0.0048,0.0065,0.0075,0.0077
302,0.0416,0.0132,0.0469,0.0293,0.0059,0.0131,0.0091,0.0053
303,0.0235,0.0077,0.0253,0.0162,0.0052,0.0097,0.0106,0.0049
304,0.0256,0.0082,0.0262,0.0208,0.0069,0.0134,0.0122,0.0080
305,0.0220,0.0180,0.0201,0.0160,0.0344,0.0221,0.0145,0.0070
306,0.0213,0.0187,0.0201,0.0156,0.0204,0.0100,0.0114,0.0047
307,0.0240,0.0149,0.0212,0.0139,0.0103,0.0085,0.0119,0.0035
308,0.0252,0.0136,0.0231,0.0142,0.0104,0.0086,0.0110,0.0036
309,0.0208,0.0161,0.0198,0.0138,0.0170,0.0102,0.0134,0.0053
310,0.0221,0.0154,0.0220,0.0147,0.0227,0.0117,0.0112,0.0056
311,0.0287,0.0150,0.0251,0.0140,0.0154,0.0288,0.0115,0.0048
312,0.0210,0.0153,0.0202,0.0149,0.0085,0.0144,0.0065,0.0042
313,0.0371,0.0119,0.0479,0.0319,0.0039,0.0103,0.0087,0.0045
314,0.0534,0.0081,0.0597,0.0303,0.0052,0.0065,0.0085,0.0076
315,0.0174,0.0144,0.0168,0.0126,0.0062,0.0109,0.0059,0.0034
316,0.0173,0.0142,0.0171,0.0117,0.0075,0.0111,0.0060,0.0032
317,0.0178,0.0152,0.0176,0.0136,0.0101,0.0137,0.0099,0.0059
318,0.0205,0.0146,0.0179,0.0142,0.0129,0.0172,0.0082,0.0055
319,0.0246,0.0115,0.0261,0.0212,0.0061,0.0273,0.0128,0.0099
320,0.0264,0.0098,0.0269,0.0240,0.0055,0.0148,0.0095,0.0077
321,0.0198,0.0100,0.0205,0.0194,0.0043,0.0126,0.0089,0.0043
322,0.0197,0.0105,0.0214,0.0168,0.0039,0.0126,0.0086,0.0043
323,0.0222,0.0095,0.0207,0.0164,0.0052,0.0129,0.0085,0.0053
324,0.0453,0.0121,0.0596,0.0404,0.0031,0.0102,0.0087,0.0046
325,0.0248,0.0100,0.0218,0.0212,0.0067,0.0164,0.0099,0.0090
326,0.0439,0.0120,0.0476,0.0246,0.0097,0.0077,0.0103,0.0044
327,0.0271,0.0132,0.0245,0.0194,0.0389,0.0160,0.0164,0.0062
328,0.0332,0.0121,0.0286,0.0221,0.0229,0.0112,0.0120,0.0038
329,0.0272,0.0113,0.0253,0.0183,0.0113,0.0106,0.0091,0.0037
330,0.0261,0.0106,0.0236,0.0186,0.0120,0.0114,0.0070,0.0028
331,0.0267,0.0119,0.0233,0.0222,0.0191,0.0093,0.0146,0.0050
332,0.0366,0.0103,0.0319,0.0327,0.0256,0.0127,0.0109,0.0054
333,0.0382,0.0189,0.0406,0.0153,0.0175,0.0132,0.0137,0.0109
334,0.0648,0.0203,0.0677,0.0152,0.0095,0.0098,0.0072,0.0047
335,0.0331,0.0118,0.0399,0.0239,0.0129,0.0107,0.0090,0.0035
336,0.0459,0.0147,0.0618,0.0428,0.0044,0.0101,0.0087,0.0054
337,0.0421,0.0180,0.0448,0.0128,0.0074,0.0105,0.0075,0.0031
338,0.0359,0.0175,0.0377,0.0125,0.0089,0.0106,0.0083,0.0036
339,0.0491,0.0112,0.0555,0.0320,0.0061,0.0073,0.0091,0.0024
340,0.0392,0.0202,0.0403,0.0132,0.0115,0.0119,0.0074,0.0057
341,0.0454,0.0204,0.0453,0.0147,0.0147,0.0104,0.0072,0.0053
342,0.0360,0.0236,0.0404,0.0219,0.0076,0.0122,0.0148,0.0085
343,0.0403,0.0135,0.0454,0.0290,0.0059,0.0101,0.0145,0.0045
344,0.0379,0.0097,0.0420,0.0210,0.0045,0.0099,0.0113,0.0052
345,0.0359,0.0100,0.0391,0.0191,0.0039,0.0097,0.0104,0.0056
346,0.0346,0.0106,0.0380,0.0191,0.0052,0.0091,0.0120,0.0044
347,0.0478,0.0146,0.0652,0.0461,0.0056,0.0139,0.0094,0.0055
348,0.0361,0.0139,0.0393,0.0202,0.0069,0.0107,0.0135,0.0047
349,0.0245,0.0120,0.0206,0.0162,0.0358,0.0126,0.0110,0.0071
350,0.0230,0.0112,0.0212,0.0151,0.0210,0.0114,0.0102,0.0041
351,0.0546,0.0105,0.0615,0.0314,0.0039,0.0070,0.0089,0.0030
352,0.0285,0.0098,0.0279,0.0166,0.0104,0.0108,0.0083,0.0040
353,0.0268,0.0090,0.0244,0.0147,0.0109,0.0113,0.0070,0.0031
354,0.0272,0.0102,0.0256,0.0149,0.0177,0.0099,0.0116,0.0055
355,0.0239,0.0090,0.0214,0.0175,0.0237,0.0125,0.0107,0.0052
356,0.0310,0.0139,0.0267,0.0138,0.0161,0.0123,0.0111,0.0082
357,0.0449,0.0148,0.0418,0.0142,0.0088,0.0108,0.0066,0.0049
358,0.0334,0.0087,0.0370,0.0219,0.0202,0.0268,0.0190,0.0062
359,0.0349,0.0137,0.0311,0.0110,0.0069,0.0097,0.0066,0.0039
360,0.0325,0.0134,0.0270,0.0107,0.0084,0.0101,0.0072,0.0036
361,0.0336,0.0149,0.0270,0.0118,0.0109,0.0118,0.0079,0.0065
362,0.0357,0.0144,0.0275,0.0137,0.0139,0.0120,0.0070,0.0056
363,0.0409,0.0103,0.0465,0.0242,0.0042,0.0076,0.0089,0.0031
364,0.0251,0.0139,0.0265,0.0180,0.0069,0.0121,0.0132,0.0046
365,0.0246,0.0086,0.0261,0.0198,0.0055,0.0107,0.0125,0.0064
366,0.0247,0.0075,0.0264,0.0165,0.0043,0.0098,0.0102,0.0054
367,0.0251,0.0079,0.0278,0.0165,0.0038,0.0095,0.0094,0.0056
368,0.0261,0.0074,0.0299,0.0169,0.0050,0.0094,0.0103,0.0055
369,0.0431,0.0086,0.0452,0.0214,0.0116,0.0169,0.0116,0.0036
370,0.0255,0.0083,0.0293,0.0166,0.0066,0.0114,0.0117,0.0069
371,0.0188,0.0153,0.0175,0.0142,0.0333,0.0148,0.0110,0.0110
372,0.0185,0.0154,0.0173,0.0151,0.0197,0.0128,0.0111,0.0057
373,0.0192,0.0126,0.0179,0.0137,0.0099,0.0117,0.0093,0.0049
374,0.0192,0.0115,0.0181,0.0139,0.0102,0.0116,0.0085,0.0037
375,0.1206,0.0088,0.1306,0.0597,0.0040,0.0085,0.0072,0.0040
376,0.0386,0.0107,0.0412,0.0241,0.0053,0.0067,0.0091,0.0024
377,0.0188,0.0131,0.0179,0.0135,0.0166,0.0113,0.0112,0.0070
378,0.0200,0.0124,0.0212,0.0144,0.0223,0.0133,0.0122,0.0053
379,0.0325,0.0140,0.0250,0.0137,0.0150,0.0202,0.0093,0.0085
380,0.0246,0.0053,0.0313,0.0240,0.0054,0.0118,0.0089,0.0040
381,0.0341,0.0138,0.0288,0.0155,0.0079,0.0127,0.0062,0.0053
382,0.0309,0.0133,0.0251,0.0126,0.0058,0.0105,0.0060,0.0043
383,0.0319,0.0132,0.0235,0.0117,0.0073,0.0109,0.0066,0.0038
384,0.0312,0.0137,0.0218,0.0137,0.0099,0.0128,0.0084,0.0069
385,0.0327,0.0133,0.0214,0.0147,0.0128,0.0149,0.0069,0.0058
386,0.0214,0.0109,0.0220,0.0174,0.0062,0.0199,0.0115,0.0067
387,0.0232,0.0093,0.0224,0.0175,0.0051,0.0137,0.0094,0.0075
388,0.0492,0.0110,0.0490,0.0297,0.0061,0.0074,0.0091,0.0026
389,0.0227,0.0094,0.0214,0.0166,0.0041,0.0129,0.0088,0.0055
390,0.0229,0.0098,0.0215,0.0156,0.0038,0.0128,0.0083,0.0055
391,0.0306,0.0049,0.0406,0.0323,0.0062,0.0116,0.0092,0.0037
392,0.0224,0.0089,0.0221,0.0157,0.0049,0.0126,0.0079,0.0060
393,0.0220,0.0092,0.0236,0.0162,0.0064,0.0145,0.0090,0.0082
394,0.0281,0.0197,0.0273,0.0252,0.0382,0.0238,0.0173,0.0115
395,0.0253,0.0166,0.0236,0.0193,0.0223,0.0149,0.0097,0.0063
396,0.0221,0.0126,0.0207,0.0208,0.0110,0.0094,0.0074,0.0060
397,0.0203,0.0117,0.0187,0.0188,0.0116,0.0088,0.0066,0.0050
398,0.0245,0.0149,0.0223,0.0201,0.0186,0.0163,0.0110,0.0088
399,0.0307,0.0153,0.0291,0.0293,0.0249,0.0182,0.0098,0.0065
400,0.0589,0.0056,0.0619,0.0155,0.0024,0.0097,0.0035,0.0027
401,0.0594,0.0202,0.0611,0.0159,0.0174,0.0188,0.0156,0.0122
402,0.1014,0.0093,0.0982,0.0651,0.0045,0.0083,0.0084,0.0034
403,0.0546,0.0199,0.0604,0.0154,0.0089,0.0096,0.0111,0.0047
404,0.0508,0.0184,0.0538,0.0132,0.0053,0.0090,0.0079,0.0035
405,0.0453,0.0181,0.0468,0.0133,0.0075,0.0094,0.0084,0.0041
406,0.0422,0.0205,0.0440,0.0134,0.0107,0.0092,0.0082,0.0045
407,0.0424,0.0210,0.0437,0.0154,0.0142,0.0099,0.0093,0.0060
408,0.0445,0.0167,0.0480,0.0356,0.0075,0.0144,0.0160,0.0195
409,0.0572,0.0114,0.0618,0.0379,0.0058,0.0136,0.0124,0.0044
410,0.0404,0.0092,0.0438,0.0226,0.0042,0.0097,0.0107,0.0053
411,0.0375,0.0095,0.0399,0.0201,0.0035,0.0095,0.0104,0.0059
412,0.0821,0.0051,0.0880,0.0124,0.0019,0.0070,0.0024,0.0027
413,0.0253,0.0065,0.0328,0.0298,0.0106,0.0146,0.0097,0.0046
414,0.0397,0.0097,0.0421,0.0210,0.0051,0.0109,0.0109,0.0048
415,0.0474,0.0117,0.0490,0.0252,0.0069,0.0147,0.0122,0.0050
416,0.0337,0.0177,0.0307,0.0185,0.0351,0.0270,0.0179,0.0077
417,0.0296,0.0143,0.0279,0.0197,0.0204,0.0169,0.0103,0.0052
418,0.0283,0.0103,0.0260,0.0207,0.0099,0.0104,0.0076,0.0051
419,0.0272,0.0095,0.0234,0.0169,0.0105,0.0095,0.0068,0.0038
420,0.0253,0.0120,0.0224,0.0162,0.0171,0.0184,0.0099,0.0082
421,0.0279,0.0128,0.0254,0.0183,0.0230,0.0212,0.0110,0.0058
422,0.0464,0.0145,0.0418,0.0132,0.0159,0.0145,0.0142,0.0111
423,0.0348,0.0136,0.0336,0.0142,0.0079,0.0099,0.0112,0.0054
424,0.0274,0.0073,0.0355,0.0305,0.0147,0.0185,0.0132,0.0038
425,0.0636,0.0051,0.0724,0.0122,0.0018,0.0075,0.0038,0.0032
426,0.0392,0.0135,0.0361,0.0106,0.0045,0.0097,0.0071,0.0041
427,0.0391,0.0135,0.0338,0.0107,0.0069,0.0103,0.0075,0.0042
428,0.0332,0.0142,0.0288,0.0116,0.0100,0.0095,0.0077,0.0050
429,0.0332,0.0140,0.0287,0.0142,0.0133,0.0102,0.0091,0.0065
430,0.0405,0.0091,0.0409,0.0317,0.0068,0.0196,0.0133,0.0111
431,0.0380,0.0075,0.0390,0.0311,0.0053,0.0162,0.0109,0.0056
432,0.0262,0.0071,0.0269,0.0182,0.0040,0.0116,0.0095,0.0056
433,0.0259,0.0073,0.0270,0.0173,0.0035,0.0116,0.0093,0.0059
434,0.0276,0.0070,0.0279,0.0177,0.0049,0.0128,0.0095,0.0062
435,0.0250,0.0113,0.0384,0.0160,0.0065,0.0158,0.0073,0.0090
436,0.0326,0.0073,0.0307,0.0237,0.0066,0.0183,0.0109,0.0071
437,0.0505,0.0052,0.0576,0.0123,0.0021,0.0078,0.0041,0.0033
438,0.0362,0.0204,0.0383,0.0170,0.0323,0.0288,0.0255,0.0087
439,0.0237,0.0165,0.0243,0.0179,0.0188,0.0178,0.0146,0.0071
440,0.0196,0.0120,0.0196,0.0152,0.0093,0.0121,0.0093,0.0061
441,0.0188,0.0111,0.0202,0.0138,0.0098,0.0115,0.0087,0.0048
442,0.0203,0.0134,0.0224,0.0141,0.0160,0.0197,0.0110,0.0097
443,0.0246,0.0146,0.0272,0.0159,0.0215,0.0229,0.0147,0.0082
444,0.0403,0.0137,0.0333,0.0130,0.0147,0.0206,0.0143,0.0122
445,0.0294,0.0125,0.0248,0.0147,0.0070,0.0118,0.0116,0.0056
446,0.1044,0.0093,0.1292,0.0174,0.0026,0.0095,0.0061,0.0056
447,0.0231,0.0084,0.0349,0.0143,0.0031,0.0126,0.0052,0.0068
448,0.0306,0.0125,0.0259,0.0116,0.0033,0.0103,0.0066,0.0043
449,0.0339,0.0127,0.0268,0.0108,0.0058,0.0109,0.0069,0.0043
450,0.0503,0.0051,0.0566,0.0120,0.0023,0.0067,0.0028,0.0029
451,0.0293,0.0125,0.0258,0.0142,0.0090,0.0105,0.0073,0.0053
452,0.0297,0.0125,0.0257,0.0146,0.0123,0.0127,0.0091,0.0064
453,0.0560,0.0118,0.0536,0.0315,0.0062,0.0311,0.0109,0.0074
454,0.0439,0.0106,0.0419,0.0317,0.0049,0.0196,0.0088,0.0069
455,0.0310,0.0088,0.0269,0.0188,0.0038,0.0147,0.0077,0.0056
456,0.0308,0.0091,0.0246,0.0167,0.0036,0.0148,0.0074,0.0058
457,0.0356,0.0092,0.0281,0.0176,0.0049,0.0157,0.0079,0.0069
458,0.0230,0.0063,0.0364,0.0132,0.0020,0.0112,0.0039,0.0048
459,0.0384,0.0115,0.0308,0.0277,0.0064,0.0228,0.0094,0.0091
460,0.0447,0.0161,0.0405,0.0221,0.0403,0.0103,0.0247,0.0053
461,0.0599,0.0158,0.0526,0.0228,0.0240,0.0084,0.0183,0.0050
462,0.0508,0.0051,0.0562,0.0122,0.0024,0.0071,0.0026,0.0027
463,0.0463,0.0135,0.0415,0.0255,0.0124,0.0072,0.0142,0.0036
464,0.0439,0.0122,0.0394,0.0235,0.0129,0.0078,0.0108,0.0039
465,0.0423,0.0149,0.0380,0.0209,0.0200,0.0085,0.0212,0.0047
466,0.0506,0.0129,0.0440,0.0273,0.0266,0.0092,0.0151,0.0073
467,0.0451,0.0177,0.0546,0.0152,0.0182,0.0104,0.0113,0.0049
468,0.0604,0.0199,0.0708,0.0151,0.0107,0.0099,0.0079,0.0036
469,0.0285,0.0063,0.0462,0.0136,0.0038,0.0107,0.0040,0.0047
470,0.0401,0.0174,0.0483,0.0132,0.0088,0.0106,0.0075,0.0029
471,0.0384,0.0168,0.0455,0.0128,0.0102,0.0106,0.0078,0.0041
472,0.0450,0.0200,0.0525,0.0133,0.0125,0.0124,0.0082,0.0051
473,0.0563,0.0197,0.0633,0.0143,0.0153,0.0107,0.0078,0.0049
474,0.0572,0.0054,0.0620,0.0404,0.0065,0.0076,0.0179,0.0051
475,0.0559,0.0252,0.0669,0.0362,0.0080,0.0116,0.0126,0.0039
476,0.0548,0.0131,0.0668,0.0495,0.0066,0.0119,0.0153,0.0046
477,0.0482,0.0090,0.0583,0.0414,0.0054,0.0093,0.0109,0.0039
478,0.0487,0.0093,0.0578,0.0375,0.0047,0.0094,0.0101,0.0042
479,0.0513,0.0099,0.0610,0.0392,0.0057,0.0096,0.0126,0.0037
480,0.0367,0.0082,0.0553,0.0132,0.0061,0.0122,0.0038,0.0066
481,0.0600,0.0132,0.0694,0.0439,0.0075,0.0125,0.0144,0.0053
482,0.0341,0.0164,0.0303,0.0214,0.0371,0.0112,0.0171,0.0047
483,0.0368,0.0166,0.0308,0.0212,0.0222,0.0086,0.0132,0.0045
484,0.0345,0.0131,0.0321,0.0272,0.0114,0.0078,0.0115,0.0039
485,0.0342,0.0117,0.0318,0.0248,0.0118,0.0082,0.0094,0.0037
486,0.0673,0.0073,0.0743,0.0386,0.0046,0.0068,0.0092,0.0045
487,0.0367,0.0144,0.0366,0.0227,0.0185,0.0086,0.0157,0.0053
488,0.0343,0.0131,0.0309,0.0206,0.0247,0.0097,0.0115,0.0061
489,0.0262,0.0139,0.0315,0.0141,0.0169,0.0144,0.0097,0.0042
490,0.0274,0.0151,0.0350,0.0148,0.0100,0.0109,0.0073,0.0036
491,0.0424,0.0100,0.0629,0.0147,0.0082,0.0125,0.0044,0.0065
492,0.0197,0.0133,0.0240,0.0124,0.0082,0.0095,0.0071,0.0028
493,0.0206,0.0129,0.0239,0.0116,0.0095,0.0099,0.0073,0.0030
494,0.0244,0.0152,0.0274,0.0126,0.0118,0.0120,0.0085,0.0056
495,0.0323,0.0145,0.0338,0.0138,0.0144,0.0126,0.0074,0.0049
496,0.0306,0.0163,0.0382,0.0252,0.0074,0.0174,0.0121,0.0072
497,0.0275,0.0084,0.0340,0.0324,0.0064,0.0127,0.0128,0.0065
498,0.1324,0.0087,0.1433,0.0683,0.0043,0.0094,0.0075,0.0036
499,0.0537,0.0112,0.0617,0.0356,0.0036,0.0079,0.0088,0.0045
500,0.0280,0.0069,0.0300,0.0284,0.0051,0.0096,0.0099,0.0044
501,0.0271,0.0071,0.0298,0.0264,0.0045,0.0097,0.0093,0.0045
502,0.0476,0.0082,0.0613,0.0361,0.0064,0.0213,0.0115,0.0050
503,0.0268,0.0069,0.0309,0.0266,0.0056,0.0104,0.0107,0.0048
504,0.0319,0.0080,0.0363,0.0320,0.0072,0.0139,0.0123,0.0074
505,0.0361,0.0212,0.0302,0.0171,0.0346,0.0182,0.0136,0.0077
506,0.0436,0.0225,0.0337,0.0193,0.0210,0.0100,0.0117,0.0054
507,0.0413,0.0170,0.0318,0.0207,0.0109,0.0090,0.0116,0.0044
508,0.0394,0.0153,0.0311,0.0183,0.0111,0.0090,0.0106,0.0034
509,0.0355,0.0188,0.0312,0.0191,0.0176,0.0096,0.0133,0.0068
510,0.0370,0.0184,0.0313,0.0172,0.0233,0.0110,0.0112,0.0050
511,0.0516,0.0115,0.0567,0.0362,0.0032,0.0081,0.0092,0.0043
512,0.0232,0.0151,0.0259,0.0145,0.0159,0.0247,0.0093,0.0049
513,0.0461,0.0124,0.0542,0.0347,0.0056,0.0123,0.0115,0.0058
514,0.0161,0.0150,0.0188,0.0164,0.0092,0.0132,0.0067,0.0046
515,0.0188,0.0131,0.0174,0.0155,0.0070,0.0106,0.0066,0.0037
516,0.0159,0.0129,0.0166,0.0139,0.0082,0.0110,0.0067,0.0034
517,0.0166,0.0145,0.0174,0.0154,0.0107,0.0132,0.0087,0.0066
518,0.0234,0.0142,0.0218,0.0149,0.0133,0.0159,0.0071,0.0054
519,0.0242,0.0128,0.0311,0.0215,0.0066,0.0272,0.0108,0.0099
520,0.0229,0.0089,0.0290,0.0253,0.0059,0.0162,0.0091,0.0076
521,0.0219,0.0087,0.0245,0.0256,0.0048,0.0141,0.0085,0.0050
522,0.0213,0.0091,0.0244,0.0248,0.0044,0.0143,0.0083,0.0050
523,0.0521,0.0088,0.0572,0.0377,0.0036,0.0064,0.0083,0.0041
524,0.1227,0.0100,0.1203,0.0763,0.0048,0.0090,0.0087,0.0048
525,0.0239,0.0084,0.0267,0.0230,0.0054,0.0146,0.0080,0.0056
526,0.0291,0.0087,0.0310,0.0279,0.0069,0.0177,0.0094,0.0085
527,0.0396,0.0148,0.0364,0.0235,0.0392,0.0167,0.0159,0.0064
528,0.0586,0.0137,0.0534,0.0237,0.0234,0.0122,0.0131,0.0038
529,0.0411,0.0119,0.0373,0.0242,0.0120,0.0114,0.0093,0.0048
530,0.0385,0.0108,0.0351,0.0228,0.0127,0.0122,0.0067,0.0033
531,0.0380,0.0129,0.0345,0.0211,0.0197,0.0095,0.0151,0.0062
532,0.0463,0.0111,0.0414,0.0273,0.0262,0.0133,0.0112,0.0047
533,0.0492,0.0181,0.0552,0.0161,0.0180,0.0142,0.0169,0.0105
534,0.0719,0.0195,0.0787,0.0170,0.0104,0.0096,0.0087,0.0049
535,0.0427,0.0126,0.0553,0.0369,0.0040,0.0099,0.0083,0.0057
536,0.0558,0.0064,0.0608,0.0416,0.0047,0.0062,0.0100,0.0042
537,0.0512,0.0170,0.0573,0.0148,0.0085,0.0098,0.0077,0.0031
538,0.0501,0.0166,0.0552,0.0142,0.0100,0.0101,0.0083,0.0034
539,0.0573,0.0195,0.0618,0.0148,0.0123,0.0114,0.0079,0.0062
540,0.0691,0.0196,0.0724,0.0159,0.0152,0.0103,0.0082,0.0053
541,0.0465,0.0256,0.0548,0.0307,0.0081,0.0111,0.0123,0.0089
542,0.0457,0.0138,0.0543,0.0402,0.0063,0.0094,0.0149,0.0044
543,0.0457,0.0088,0.0536,0.0356,0.0052,0.0089,0.0111,0.0052
544,0.0470,0.0090,0.0540,0.0330,0.0045,0.0089,0.0102,0.0057
545,0.0455,0.0102,0.0525,0.0326,0.0055,0.0081,0.0122,0.0043
546,0.0472,0.0129,0.0656,0.0433,0.0034,0.0101,0.0080,0.0058
547,0.0484,0.0143,0.0553,0.0358,0.0071,0.0099,0.0136,0.0046
548,0.0426,0.0077,0.0485,0.0251,0.0088,0.0114,0.0098,0.0050
549,0.0327,0.0143,0.0290,0.0230,0.0361,0.0125,0.0103,0.0076
550,0.0365,0.0138,0.0313,0.0210,0.0216,0.0126,0.0106,0.0047
551,0.0337,0.0111,0.0319,0.0264,0.0110,0.0119,0.0081,0.0054
552,0.0347,0.0099,0.0329,0.0243,0.0115,0.0123,0.0065,0.0038
553,0.0367,0.0119,0.0360,0.0226,0.0182,0.0103,0.0116,0.0070
554,0.0334,0.0107,0.0304,0.0208,0.0243,0.0133,0.0105,0.0046
555,0.0298,0.0134,0.0319,0.0144,0.0166,0.0113,0.0142,0.0080
556,0.0392,0.0141,0.0435,0.0161,0.0096,0.0105,0.0080,0.0051
557,0.0348,0.0085,0.0425,0.0267,0.0062,0.0096,0.0096,0.0031
558,0.0477,0.0148,0.0679,0.0465,0.0044,0.0095,0.0108,0.0064
559,0.0305,0.0126,0.0335,0.0132,0.0079,0.0095,0.0071,0.0039
560,0.0332,0.0124,0.0344,0.0123,0.0093,0.0100,0.0075,0.0034
561,0.0439,0.0075,0.0509,0.0326,0.0053,0.0117,0.0086,0.0029
562,0.0378,0.0141,0.0377,0.0135,0.0116,0.0116,0.0077,0.0068
563,0.0453,0.0137,0.0433,0.0149,0.0143,0.0117,0.0076,0.0054
564,0.0280,0.0162,0.0316,0.0219,0.0075,0.0122,0.0108,0.0049
565,0.0286,0.0085,0.0309,0.0246,0.0060,0.0116,0.0124,0.0063
566,0.0294,0.0064,0.0310,0.0237,0.0049,0.0105,0.0098,0.0057
567,0.0280,0.0067,0.0306,0.0228,0.0044,0.0105,0.0092,0.0059
568,0.0281,0.0067,0.0310,0.0216,0.0053,0.0105,0.0102,0.0055
569,0.0539,0.0133,0.0767,0.0475,0.0055,0.0132,0.0115,0.0058
570,0.0280,0.0082,0.0312,0.0244,0.0069,0.0122,0.0116,0.0065
571,0.0355,0.0183,0.0309,0.0165,0.0336,0.0129,0.0102,0.0121
572,0.0455,0.0190,0.0370,0.0182,0.0204,0.0142,0.0110,0.0072
573,0.0442,0.0072,0.0508,0.0303,0.0033,0.0087,0.0082,0.0028
574,0.0391,0.0146,0.0310,0.0199,0.0106,0.0130,0.0091,0.0065
575,0.0367,0.0132,0.0299,0.0178,0.0109,0.0128,0.0081,0.0047
576,0.0349,0.0157,0.0308,0.0187,0.0173,0.0121,0.0110,0.0089
577,0.0368,0.0151,0.0324,0.0169,0.0229,0.0142,0.0119,0.0058
578,0.0231,0.0137,0.0234,0.0143,0.0156,0.0169,0.0116,0.0086
579,0.0206,0.0132,0.0238,0.0174,0.0087,0.0119,0.0075,0.0058
580,0.0283,0.0140,0.0265,0.0222,0.0260,0.0100,0.0181,0.0099
581,0.0181,0.0120,0.0202,0.0155,0.0066,0.0104,0.0065,0.0043
582,0.0226,0.0119,0.0229,0.0140,0.0080,0.0109,0.0069,0.0037
583,0.0255,0.0128,0.0242,0.0157,0.0105,0.0125,0.0076,0.0073
584,0.0332,0.0126,0.0285,0.0157,0.0132,0.0141,0.0070,0.0060
585,0.0378,0.0071,0.0446,0.0244,0.0036,0.0086,0.0082,0.0029
586,0.0222,0.0121,0.0263,0.0195,0.0067,0.0200,0.0093,0.0069
587,0.0220,0.0084,0.0262,0.0195,0.0055,0.0153,0.0088,0.0076
588,0.0220,0.0080,0.0255,0.0214,0.0046,0.0145,0.0083,0.0061
589,0.0225,0.0084,0.0256,0.0213,0.0043,0.0146,0.0080,0.0061
590,0.0234,0.0078,0.0262,0.0188,0.0051,0.0145,0.0073,0.0062
591,0.0227,0.0192,0.0226,0.0223,0.0152,0.0085,0.0178,0.0054
592,0.0245,0.0080,0.0269,0.0210,0.0066,0.0161,0.0083,0.0079
593,0.0409,0.0211,0.0393,0.0263,0.0386,0.0192,0.0163,0.0116
594,0.0407,0.0180,0.0377,0.0249,0.0228,0.0128,0.0100,0.0073
595,0.0367,0.0129,0.0342,0.0308,0.0118,0.0090,0.0073,0.0069
596,0.0342,0.0119,0.0317,0.0277,0.0124,0.0086,0.0061,0.0056
597,0.0412,0.0072,0.0480,0.0243,0.0046,0.0106,0.0083,0.0026
598,0.0349,0.0157,0.0323,0.0250,0.0192,0.0145,0.0113,0.0101
599,0.0372,0.0164,0.0350,0.0242,0.0254,0.0160,0.0095,0.0075
600,0.0657,0.0183,0.0715,0.0168,0.0179,0.0181,0.0182,0.0117
601,0.0585,0.0181,0.0690,0.0168,0.0093,0.0091,0.0152,0.0052
602,0.0284,0.0156,0.0250,0.0201,0.0073,0.0068,0.0107,0.0050
603,0.0574,0.0171,0.0643,0.0145,0.0063,0.0085,0.0080,0.0036
604,0.0578,0.0169,0.0632,0.0145,0.0083,0.0090,0.0083,0.0041
605,0.0560,0.0190,0.0624,0.0149,0.0112,0.0086,0.0090,0.0045
606,0.0597,0.0192,0.0661,0.0165,0.0146,0.0091,0.0126,0.0060
607,0.0618,0.0166,0.0697,0.0433,0.0078,0.0151,0.0149,0.0196
608,0.0615,0.0112,0.0706,0.0498,0.0061,0.0134,0.0126,0.0047
609,0.0511,0.0073,0.0579,0.0279,0.0053,0.0117,0.0086,0.0031
610,0.0467,0.0081,0.0541,0.0369,0.0047,0.0093,0.0102,0.0054
611,0.0476,0.0084,0.0540,0.0336,0.0041,0.0092,0.0100,0.0060
612,0.0517,0.0090,0.0582,0.0365,0.0053,0.0107,0.0109,0.0049
613,0.0368,0.0146,0.0325,0.0170,0.0079,0.0070,0.0100,0.0054
614,0.0638,0.0115,0.0696,0.0430,0.0072,0.0145,0.0121,0.0052
615,0.0414,0.0198,0.0397,0.0236,0.0355,0.0208,0.0197,0.0078
616,0.0351,0.0163,0.0334,0.0295,0.0209,0.0138,0.0111,0.0066
617,0.0320,0.0112,0.0300,0.0323,0.0106,0.0095,0.0074,0.0064
618,0.0332,0.0102,0.0310,0.0290,0.0112,0.0089,0.0064,0.0048
619,0.0348,0.0134,0.0330,0.0276,0.0177,0.0159,0.0099,0.0098
620,0.0387,0.0144,0.0364,0.0238,0.0235,0.0180,0.0115,0.0071
621,0.0916,0.0036,0.1041,0.0167,0.0025,0.0111,0.0062,0.0028
622,0.0491,0.0042,0.0531,0.0165,0.0026,0.0096,0.0052,0.0035
623,0.0409,0.0132,0.0434,0.0140,0.0164,0.0133,0.0159,0.0113
624,0.0238,0.0178,0.0207,0.0169,0.0131,0.0080,0.0155,0.0046
625,0.0293,0.0123,0.0341,0.0152,0.0083,0.0096,0.0159,0.0057
626,0.0317,0.0121,0.0358,0.0121,0.0053,0.0098,0.0073,0.0039
627,0.0363,0.0122,0.0387,0.0119,0.0076,0.0105,0.0076,0.0040
628,0.0310,0.0127,0.0335,0.0133,0.0104,0.0095,0.0083,0.0049
629,0.0343,0.0125,0.0365,0.0148,0.0136,0.0098,0.0129,0.0062
630,0.0521,0.0087,0.0578,0.0344,0.0071,0.0195,0.0125,0.0115
631,0.0378,0.0067,0.0439,0.0368,0.0057,0.0168,0.0109,0.0056
632,0.0290,0.0061,0.0311,0.0255,0.0045,0.0131,0.0090,0.0059
633,0.0288,0.0062,0.0311,0.0239,0.0040,0.0132,0.0090,0.0063
634,0.0769,0.0050,0.0801,0.0155,0.0018,0.0071,0.0028,0.0032
635,0.0281,0.0170,0.0239,0.0177,0.0178,0.0091,0.0168,0.0070
636,0.0319,0.0061,0.0344,0.0259,0.0052,0.0141,0.0096,0.0063
637,0.0421,0.0064,0.0438,0.0354,0.0069,0.0188,0.0109,0.0071
638,0.0525,0.0233,0.0516,0.0190,0.0327,0.0216,0.0293,0.0091
639,0.0436,0.0194,0.0393,0.0252,0.0194,0.0144,0.0168,0.0088
640,0.0416,0.0136,0.0348,0.0233,0.0099,0.0110,0.0094,0.0076
641,0.0378,0.0125,0.0325,0.0202,0.0104,0.0106,0.0086,0.0061
642,0.0365,0.0155,0.0327,0.0210,0.0166,0.0167,0.0116,0.0116
643,0.0408,0.0170,0.0379,0.0196,0.0220,0.0190,0.0169,0.0100
644,0.0269,0.0125,0.0285,0.0139,0.0152,0.0198,0.0151,0.0125
645,0.0273,0.0113,0.0218,0.0150,0.0073,0.0115,0.0169,0.0057
646,0.0987,0.0076,0.1007,0.0147,0.0028,0.0087,0.0050,0.0030
647,0.0631,0.0049,0.0693,0.0153,0.0017,0.0071,0.0028,0.0031
648,0.0219,0.0110,0.0203,0.0142,0.0039,0.0105,0.0068,0.0041
649,0.0205,0.0111,0.0225,0.0128,0.0063,0.0112,0.0071,0.0040
650,0.0222,0.0110,0.0214,0.0158,0.0094,0.0106,0.0078,0.0052
651,0.0218,0.0112,0.0229,0.0145,0.0126,0.0125,0.0133,0.0061
652,0.0623,0.0102,0.0679,0.0321,0.0064,0.0299,0.0102,0.0079
653,0.0387,0.0093,0.0453,0.0341,0.0051,0.0204,0.0084,0.0069
654,0.0250,0.0076,0.0293,0.0242,0.0041,0.0168,0.0069,0.0062
655,0.0277,0.0077,0.0298,0.0234,0.0038,0.0171,0.0069,0.0064
656,0.0366,0.0082,0.0372,0.0245,0.0050,0.0176,0.0076,0.0071
657,0.0247,0.0087,0.0285,0.0148,0.0085,0.0100,0.0049,0.0092
658,0.0451,0.0101,0.0449,0.0365,0.0065,0.0233,0.0093,0.0091
659,0.0466,0.0047,0.0534,0.0152,0.0020,0.0071,0.0031,0.0032
660,0.0450,0.0050,0.0512,0.0151,0.0023,0.0070,0.0027,0.0032
661,0.0432,0.0048,0.0514,0.0151,0.0024,0.0072,0.0033,0.0033
662,0.0540,0.0052,0.0579,0.0379,0.0054,0.0078,0.0157,0.0055
663,0.0698,0.0066,0.0742,0.0357,0.0043,0.0067,0.0080,0.0052
664,0.0545,0.0103,0.0608,0.0330,0.0037,0.0088,0.0088,0.0048
665,0.0485,0.0107,0.0543,0.0307,0.0035,0.0092,0.0094,0.0047
666,0.0809,0.0042,0.0898,0.0156,0.0017,0.0070,0.0029,0.0026
667,0.0484,0.0080,0.0544,0.0318,0.0036,0.0068,0.0076,0.0049
668,0.0454,0.0076,0.0547,0.0344,0.0064,0.0094,0.0102,0.0035
669,0.0349,0.0078,0.0430,0.0138,0.0044,0.0096,0.0037,0.0044
670,0.0501,0.0058,0.0572,0.0349,0.0042,0.0064,0.0086,0.0051
671,0.0479,0.0066,0.0523,0.0250,0.0082,0.0142,0.0105,0.0063
672,0.0443,0.0069,0.0501,0.0328,0.0050,0.0141,0.0091,0.0039
673,0.0366,0.0070,0.0426,0.0291,0.0029,0.0105,0.0098,0.0030
674,0.0283,0.0069,0.0363,0.0238,0.0032,0.0102,0.0101,0.0030
675,0.0289,0.0068,0.0380,0.0236,0.0041,0.0127,0.0088,0.0033
676,0.0324,0.0067,0.0431,0.0257,0.0048,0.0140,0.0088,0.0042
677,0.0389,0.0082,0.0462,0.0182,0.0034,0.0102,0.0091,0.0060
678,0.0695,0.0097,0.0730,0.0183,0.0023,0.0098,0.0055,0.0055
679,0.0844,0.0040,0.0937,0.0153,0.0018,0.0066,0.0027,0.0027
680,0.0218,0.0064,0.0257,0.0144,0.0030,0.0094,0.0038,0.0059
681,0.0636,0.0099,0.0693,0.0178,0.0020,0.0099,0.0037,0.0055
682,0.0457,0.0098,0.0516,0.0177,0.0023,0.0097,0.0037,0.0056
683,0.0410,0.0099,0.0469,0.0179,0.0026,0.0101,0.0048,0.0054
684,0.0373,0.0095,0.0477,0.0179,0.0028,0.0096,0.0060,0.0056
685,0.0503,0.0067,0.0544,0.0363,0.0058,0.0078,0.0152,0.0078
686,0.0648,0.0080,0.0685,0.0347,0.0052,0.0062,0.0083,0.0084
687,0.0589,0.0108,0.0635,0.0315,0.0048,0.0088,0.0092,0.0088
688,0.0499,0.0111,0.0543,0.0276,0.0046,0.0094,0.0098,0.0089
689,0.0494,0.0091,0.0539,0.0277,0.0047,0.0066,0.0080,0.0087
690,0.0526,0.0075,0.0598,0.0293,0.0051,0.0061,0.0085,0.0084
691,0.0285,0.0068,0.0278,0.0145,0.0045,0.0093,0.0040,0.0066
692,0.1001,0.0039,0.1103,0.0152,0.0019,0.0067,0.0030,0.0027
693,0.0414,0.0122,0.0459,0.0256,0.0093,0.0128,0.0095,0.0067
694,0.0503,0.0105,0.0572,0.0324,0.0058,0.0085,0.0085,0.0043
695,0.0581,0.0091,0.0657,0.0314,0.0037,0.0095,0.0078,0.0027
696,0.0406,0.0089,0.0480,0.0239,0.0041,0.0101,0.0077,0.0026
697,0.0319,0.0097,0.0374,0.0235,0.0052,0.0082,0.0082,0.0034
698,0.0412,0.0104,0.0436,0.0289,0.0059,0.0089,0.0085,0.0048
699,0.0583,0.0074,0.0618,0.0144,0.0029,0.0085,0.0051,0.0030
700,0.0813,0.0058,0.0874,0.0112,0.0022,0.0068,0.0023,0.0020
701,0.0650,0.0055,0.0740,0.0114,0.0019,0.0068,0.0030,0.0019
702,0.0234,0.0067,0.0254,0.0134,0.0070,0.0096,0.0036,0.0037
703,0.0493,0.0055,0.0574,0.0116,0.0021,0.0072,0.0033,0.0021
704,0.1035,0.0042,0.1157,0.0152,0.0020,0.0065,0.0026,0.0027
705,0.0484,0.0057,0.0554,0.0109,0.0025,0.0060,0.0023,0.0020
706,0.0481,0.0061,0.0543,0.0110,0.0027,0.0064,0.0027,0.0023
707,0.0500,0.0056,0.0557,0.0390,0.0065,0.0090,0.0160,0.0063
708,0.0658,0.0072,0.0723,0.0374,0.0047,0.0079,0.0077,0.0047
709,0.0522,0.0109,0.0605,0.0350,0.0034,0.0087,0.0080,0.0037
710,0.0477,0.0112,0.0538,0.0349,0.0031,0.0088,0.0084,0.0036
711,0.0482,0.0086,0.0543,0.0368,0.0035,0.0071,0.0070,0.0039
712,0.0528,0.0063,0.0587,0.0413,0.0047,0.0070,0.0082,0.0047
713,0.0235,0.0093,0.0257,0.0138,0.0092,0.0095,0.0037,0.0044
714,0.0407,0.0082,0.0457,0.0275,0.0084,0.0119,0.0098,0.0070
715,0.0445,0.0071,0.0504,0.0337,0.0051,0.0088,0.0084,0.0050
716,0.1159,0.0040,0.1307,0.0152,0.0022,0.0071,0.0034,0.0028
717,0.0450,0.0061,0.0508,0.0305,0.0031,0.0086,0.0078,0.0033
718,0.0327,0.0059,0.0395,0.0243,0.0036,0.0089,0.0078,0.0032
719,0.0321,0.0064,0.0398,0.0240,0.0045,0.0085,0.0079,0.0042
720,0.0410,0.0070,0.0492,0.0269,0.0052,0.0090,0.0084,0.0055
721,0.0496,0.0049,0.0536,0.0154,0.0023,0.0097,0.0071,0.0049
722,0.0771,0.0048,0.0801,0.0142,0.0017,0.0084,0.0037,0.0041
723,0.0656,0.0052,0.0713,0.0142,0.0017,0.0070,0.0026,0.0038
724,0.0428,0.0122,0.0436,0.0170,0.0076,0.0102,0.0125,0.0055
725,0.0478,0.0051,0.0543,0.0142,0.0020,0.0069,0.0027,0.0039
726,0.0452,0.0049,0.0511,0.0139,0.0023,0.0077,0.0030,0.0039
727,0.0425,0.0046,0.0506,0.0139,0.0023,0.0082,0.0042,0.0041
728,0.1097,0.0118,0.1049,0.0616,0.0040,0.0085,0.0081,0.0054
729,0.0918,0.0054,0.1021,0.0572,0.0057,0.0090,0.0183,0.0048
730,0.0484,0.0057,0.0537,0.0370,0.0054,0.0096,0.0143,0.0073
731,0.0684,0.0063,0.0721,0.0351,0.0042,0.0078,0.0067,0.0067
732,0.0549,0.0100,0.0609,0.0328,0.0036,0.0095,0.0079,0.0059
733,0.0464,0.0104,0.0527,0.0299,0.0034,0.0100,0.0085,0.0058
734,0.0464,0.0076,0.0527,0.0311,0.0035,0.0076,0.0065,0.0063
735,0.0402,0.0099,0.0451,0.0297,0.0067,0.0103,0.0107,0.0035
736,0.0486,0.0055,0.0567,0.0344,0.0041,0.0074,0.0071,0.0067
737,0.0557,0.0075,0.0570,0.0289,0.0080,0.0136,0.0106,0.0081
738,0.0523,0.0069,0.0550,0.0343,0.0048,0.0108,0.0090,0.0061
739,0.0428,0.0062,0.0458,0.0291,0.0028,0.0103,0.0097,0.0043
740,0.0296,0.0060,0.0341,0.0237,0.0031,0.0103,0.0100,0.0042
741,0.0844,0.0067,0.0927,0.0580,0.0046,0.0073,0.0086,0.0045
742,0.0275,0.0065,0.0337,0.0235,0.0040,0.0105,0.0088,0.0054
743,0.0283,0.0068,0.0371,0.0248,0.0047,0.0109,0.0088,0.0067
744,0.0402,0.0069,0.0472,0.0171,0.0028,0.0127,0.0110,0.0079
745,0.0709,0.0089,0.0739,0.0169,0.0019,0.0125,0.0068,0.0071
746,0.0233,0.0071,0.0280,0.0210,0.0047,0.0097,0.0101,0.0034
747,0.0670,0.0100,0.0719,0.0165,0.0019,0.0110,0.0044,0.0070
748,0.0485,0.0100,0.0535,0.0165,0.0022,0.0107,0.0043,0.0071
749,0.0426,0.0094,0.0475,0.0165,0.0024,0.0120,0.0058,0.0069
750,0.0373,0.0085,0.0471,0.0165,0.0025,0.0123,0.0073,0.0070
751,0.0486,0.0068,0.0538,0.0352,0.0057,0.0096,0.0143,0.0102
752,0.0622,0.0075,0.0652,0.0348,0.0052,0.0075,0.0077,0.0106
753,0.0931,0.0107,0.1009,0.0605,0.0039,0.0084,0.0082,0.0039
754,0.0601,0.0103,0.0642,0.0317,0.0048,0.0096,0.0086,0.0107
755,0.0495,0.0106,0.0537,0.0272,0.0046,0.0102,0.0092,0.0108
756,0.0482,0.0085,0.0530,0.0271,0.0046,0.0076,0.0076,0.0107
757,0.0254,0.0073,0.0271,0.0143,0.0038,0.0097,0.0102,0.0036
758,0.0529,0.0070,0.0616,0.0286,0.0050,0.0073,0.0079,0.0105
759,0.0720,0.0144,0.0815,0.0460,0.0101,0.0072,0.0110,0.0032
760,0.0819,0.0135,0.0932,0.0591,0.0063,0.0063,0.0083,0.0037
761,0.0887,0.0127,0.0996,0.0582,0.0039,0.0075,0.0080,0.0051
762,0.0717,0.0124,0.0827,0.0473,0.0044,0.0083,0.0081,0.0053
763,0.0565,0.0129,0.0678,0.0424,0.0057,0.0063,0.0081,0.0044
764,0.0453,0.0133,0.0560,0.0355,0.0068,0.0066,0.0084,0.0035
765,0.1113,0.0111,0.1197,0.0694,0.0035,0.0087,0.0086,0.0038
766,0.0989,0.0057,0.1041,0.0155,0.0026,0.0119,0.0039,0.0038
767,0.1293,0.0052,0.1388,0.0128,0.0020,0.0081,0.0022,0.0041
768,0.0902,0.0059,0.0904,0.0111,0.0022,0.0068,0.0023,0.0021
769,0.1071,0.0053,0.1202,0.0125,0.0018,0.0081,0.0039,0.0048
770,0.0861,0.0053,0.0994,0.0124,0.0022,0.0083,0.0043,0.0048
771,0.0877,0.0052,0.0991,0.0123,0.0026,0.0075,0.0027,0.0044
772,0.0800,0.0053,0.0898,0.0124,0.0029,0.0083,0.0024,0.0039
773,0.0940,0.0056,0.0995,0.0532,0.0065,0.0085,0.0194,0.0050
774,0.1109,0.0079,0.1202,0.0518,0.0047,0.0068,0.0096,0.0046
775,0.0899,0.0120,0.1015,0.0459,0.0036,0.0073,0.0081,0.0050
776,0.0713,0.0123,0.0826,0.0368,0.0032,0.0073,0.0083,0.0049
777,0.1107,0.0083,0.1208,0.0743,0.0040,0.0073,0.0076,0.0042
778,0.0719,0.0095,0.0823,0.0349,0.0035,0.0064,0.0082,0.0045
779,0.0321,0.0100,0.0415,0.0342,0.0110,0.0104,0.0088,0.0034
780,0.0232,0.0101,0.0262,0.0144,0.0049,0.0090,0.0100,0.0040
781,0.0670,0.0070,0.0761,0.0322,0.0043,0.0066,0.0106,0.0044
782,0.0679,0.0096,0.0759,0.0452,0.0091,0.0096,0.0093,0.0040
783,0.0710,0.0095,0.0803,0.0578,0.0056,0.0098,0.0076,0.0035
784,0.0710,0.0092,0.0794,0.0550,0.0034,0.0076,0.0073,0.0044
785,0.0567,0.0090,0.0641,0.0452,0.0037,0.0078,0.0074,0.0045
786,0.0485,0.0092,0.0560,0.0425,0.0050,0.0088,0.0072,0.0039
787,0.0427,0.0092,0.0498,0.0368,0.0060,0.0098,0.0076,0.0035
788,0.0869,0.0038,0.0902,0.0170,0.0027,0.0109,0.0061,0.0027
789,0.1227,0.0046,0.1294,0.0165,0.0018,0.0070,0.0028,0.0026
790,0.1200,0.0059,0.1323,0.0808,0.0052,0.0074,0.0094,0.0046
791,0.0240,0.0122,0.0277,0.0150,0.0062,0.0104,0.0114,0.0040
792,0.1077,0.0044,0.1170,0.0161,0.0017,0.0067,0.0028,0.0027
793,0.0881,0.0043,0.0966,0.0160,0.0021,0.0068,0.0031,0.0027
794,0.0869,0.0045,0.0931,0.0161,0.0025,0.0066,0.0026,0.0027
795,0.0765,0.0043,0.0810,0.0160,0.0027,0.0072,0.0034,0.0026
796,0.0901,0.0053,0.0944,0.0522,0.0055,0.0087,0.0168,0.0047
797,0.1131,0.0072,0.1205,0.0507,0.0043,0.0069,0.0081,0.0044
798,0.0932,0.0110,0.1022,0.0470,0.0038,0.0081,0.0080,0.0039
799,0.0759,0.0114,0.0838,0.0381,0.0035,0.0084,0.0084,0.0038
800,0.0785,0.0086,0.0850,0.0347,0.0035,0.0069,0.0074,0.0041
801,0.0725,0.0063,0.0774,0.0313,0.0040,0.0070,0.0088,0.0044
802,0.0247,0.0106,0.0261,0.0154,0.0240,0.0112,0.0093,0.0053
803,0.0603,0.0076,0.0770,0.0425,0.0084,0.0119,0.0106,0.0054
804,0.0871,0.0079,0.0937,0.0447,0.0087,0.0121,0.0103,0.0054
805,0.0820,0.0083,0.0897,0.0569,0.0053,0.0119,0.0091,0.0037
806,0.0724,0.0085,0.0789,0.0525,0.0032,0.0089,0.0101,0.0039
807,0.0595,0.0084,0.0640,0.0436,0.0034,0.0088,0.0104,0.0039
808,0.0572,0.0083,0.0613,0.0425,0.0045,0.0106,0.0090,0.0036
809,0.0537,0.0081,0.0571,0.0376,0.0055,0.0118,0.0088,0.0039
810,0.0671,0.0078,0.0721,0.0192,0.0033,0.0102,0.0105,0.0047
811,0.1101,0.0093,0.1178,0.0198,0.0023,0.0084,0.0058,0.0040
812,0.1044,0.0094,0.1142,0.0192,0.0020,0.0087,0.0034,0.0039
813,0.0212,0.0153,0.0235,0.0161,0.0142,0.0088,0.0108,0.0040
814,0.0859,0.0093,0.0937,0.0190,0.0024,0.0086,0.0033,0.0040
815,0.0616,0.0080,0.0792,0.0382,0.0051,0.0113,0.0091,0.0038
816,0.0804,0.0094,0.0855,0.0194,0.0027,0.0087,0.0048,0.0039
817,0.0653,0.0091,0.0685,0.0193,0.0031,0.0083,0.0065,0.0041
818,0.0785,0.0071,0.0849,0.0512,0.0059,0.0080,0.0160,0.0069
819,0.1038,0.0089,0.1125,0.0509,0.0053,0.0062,0.0080,0.0075
820,0.0966,0.0117,0.1061,0.0470,0.0048,0.0078,0.0083,0.0077
821,0.0811,0.0120,0.0886,0.0385,0.0046,0.0083,0.0087,0.0078
822,0.0791,0.0099,0.0849,0.0348,0.0047,0.0063,0.0075,0.0077
823,0.0690,0.0083,0.0734,0.0316,0.0049,0.0063,0.0084,0.0076
824,0.0241,0.0109,0.0244,0.0157,0.0069,0.0088,0.0089,0.0038
825,0.0733,0.0125,0.0823,0.0458,0.0098,0.0076,0.0103,0.0044
826,0.0862,0.0116,0.0970,0.0590,0.0062,0.0073,0.0090,0.0024
827,0.0701,0.0082,0.0886,0.0410,0.0031,0.0087,0.0099,0.0039
828,0.0977,0.0108,0.1084,0.0597,0.0039,0.0069,0.0089,0.0030
829,0.0812,0.0106,0.0919,0.0490,0.0044,0.0076,0.0089,0.0031
830,0.0630,0.0110,0.0740,0.0432,0.0057,0.0068,0.0091,0.0024
831,0.0497,0.0113,0.0603,0.0361,0.0068,0.0075,0.0091,0.0025
832,0.0994,0.0055,0.1038,0.0154,0.0025,0.0096,0.0034,0.0027
833,0.1323,0.0052,0.1409,0.0126,0.0018,0.0070,0.0024,0.0028
834,0.1129,0.0052,0.1251,0.0124,0.0018,0.0075,0.0038,0.0033
835,0.0305,0.0098,0.0306,0.0144,0.0074,0.0087,0.0090,0.0042
836,0.0914,0.0052,0.1040,0.0125,0.0022,0.0079,0.0041,0.0033
837,0.0916,0.0052,0.1022,0.0122,0.0026,0.0067,0.0028,0.0030
838,0.0822,0.0052,0.0912,0.0123,0.0029,0.0071,0.0026,0.0027
839,0.0875,0.0082,0.1078,0.0502,0.0031,0.0087,0.0102,0.0040
840,0.0943,0.0054,0.0986,0.0549,0.0064,0.0075,0.0172,0.0050
841,0.1105,0.0076,0.1187,0.0537,0.0046,0.0067,0.0090,0.0045
842,0.0909,0.0114,0.1015,0.0476,0.0035,0.0078,0.0087,0.0045
843,0.0722,0.0117,0.0827,0.0382,0.0032,0.0080,0.0090,0.0044
844,0.0720,0.0090,0.0815,0.0362,0.0034,0.0063,0.0081,0.0041
845,0.0667,0.0066,0.0750,0.0331,0.0042,0.0061,0.0098,0.0042
846,0.0208,0.0131,0.0224,0.0148,0.0122,0.0089,0.0103,0.0039
847,0.0676,0.0080,0.0750,0.0453,0.0088,0.0116,0.0097,0.0050
848,0.0743,0.0077,0.0831,0.0579,0.0054,0.0120,0.0085,0.0029
849,0.0787,0.0074,0.0867,0.0564,0.0033,0.0089,0.0082,0.0027
850,0.0643,0.0073,0.0713,0.0468,0.0038,0.0087,0.0083,0.0028
851,0.1235,0.0122,0.1184,0.0673,0.0047,0.0064,0.0082,0.0045
852,0.0916,0.0081,0.1126,0.0522,0.0036,0.0102,0.0089,0.0037
853,0.0532,0.0075,0.0603,0.0434,0.0050,0.0108,0.0083,0.0026
854,0.0453,0.0075,0.0523,0.0374,0.0060,0.0120,0.0086,0.0031
855,0.0875,0.0044,0.0900,0.0166,0.0026,0.0095,0.0052,0.0035
856,0.1249,0.0052,0.1307,0.0159,0.0018,0.0072,0.0027,0.0032
857,0.0247,0.0128,0.0261,0.0176,0.0165,0.0096,0.0101,0.0048
858,0.1121,0.0051,0.1207,0.0156,0.0017,0.0072,0.0029,0.0031
859,0.0924,0.0050,0.1002,0.0156,0.0021,0.0072,0.0031,0.0032
860,0.0900,0.0052,0.0955,0.0155,0.0025,0.0071,0.0027,0.0031
861,0.0784,0.0050,0.0821,0.0155,0.0029,0.0072,0.0032,0.0032
862,0.0904,0.0051,0.0936,0.0542,0.0053,0.0076,0.0150,0.0054
863,0.1131,0.0068,0.1194,0.0527,0.0042,0.0066,0.0078,0.0051
864,0.0978,0.0078,0.1202,0.0595,0.0039,0.0113,0.0088,0.0039
865,0.0942,0.0105,0.1023,0.0488,0.0037,0.0087,0.0088,0.0047
866,0.0769,0.0108,0.0840,0.0397,0.0035,0.0092,0.0093,0.0047
867,0.0790,0.0082,0.0845,0.0362,0.0034,0.0067,0.0075,0.0048
868,0.0210,0.0100,0.0252,0.0157,0.0086,0.0107,0.0058,0.0048
869,0.0727,0.0060,0.0768,0.0325,0.0039,0.0063,0.0084,0.0051
870,0.0859,0.0068,0.0919,0.0449,0.0083,0.0144,0.0103,0.0063
871,0.0852,0.0070,0.0924,0.0570,0.0050,0.0144,0.0091,0.0038
872,0.0794,0.0071,0.0857,0.0536,0.0030,0.0107,0.0099,0.0029
873,0.0663,0.0070,0.0705,0.0449,0.0033,0.0103,0.0102,0.0030
874,0.0617,0.0070,0.0654,0.0432,0.0045,0.0130,0.0089,0.0032
875,0.0564,0.0068,0.0594,0.0382,0.0054,0.0143,0.0089,0.0041
876,0.0899,0.0076,0.1091,0.0186,0.0032,0.0104,0.0106,0.0048
877,0.0694,0.0083,0.0736,0.0185,0.0034,0.0101,0.0091,0.0060
878,0.1131,0.0099,0.1200,0.0188,0.0023,0.0099,0.0054,0.0055
879,0.0290,0.0073,0.0358,0.0133,0.0044,0.0089,0.0045,0.0031
880,0.1091,0.0101,0.1182,0.0182,0.0020,0.0100,0.0037,0.0054
881,0.0907,0.0099,0.0979,0.0181,0.0023,0.0099,0.0036,0.0055
882,0.0844,0.0100,0.0887,0.0183,0.0028,0.0102,0.0048,0.0054
883,0.0684,0.0096,0.0709,0.0183,0.0032,0.0098,0.0060,0.0055
884,0.0783,0.0067,0.0836,0.0537,0.0057,0.0075,0.0145,0.0077
885,0.1042,0.0082,0.1117,0.0528,0.0052,0.0061,0.0082,0.0083
886,0.0977,0.0110,0.1063,0.0489,0.0048,0.0087,0.0093,0.0088
887,0.0822,0.0112,0.0889,0.0403,0.0046,0.0094,0.0098,0.0089
888,0.0741,0.0091,0.0894,0.0188,0.0022,0.0082,0.0059,0.0040
889,0.0797,0.0092,0.0846,0.0366,0.0047,0.0065,0.0081,0.0086
890,0.0351,0.0094,0.0462,0.0397,0.0151,0.0113,0.0098,0.0042
891,0.0944,0.0055,0.0933,0.0114,0.0018,0.0069,0.0030,0.0019
892,0.0693,0.0077,0.0730,0.0332,0.0048,0.0060,0.0085,0.0083
893,0.0833,0.0126,0.0908,0.0507,0.0094,0.0125,0.0093,0.0067
894,0.0979,0.0109,0.1073,0.0612,0.0059,0.0084,0.0083,0.0043
895,0.1094,0.0094,0.1192,0.0612,0.0037,0.0094,0.0077,0.0027
896,0.0928,0.0092,0.1027,0.0507,0.0043,0.0101,0.0077,0.0026
897,0.0735,0.0100,0.0835,0.0448,0.0055,0.0081,0.0081,0.0034
898,0.0586,0.0108,0.0682,0.0380,0.0066,0.0088,0.0084,0.0048
899,0.0989,0.0073,0.1036,0.0142,0.0029,0.0083,0.0053,0.0029
900,0.1327,0.0058,0.1410,0.0113,0.0023,0.0067,0.0024,0.0019
901,0.0749,0.0091,0.0908,0.0183,0.0021,0.0084,0.0035,0.0039
902,0.0196,0.0052,0.0251,0.0112,0.0029,0.0086,0.0035,0.0032
903,0.1174,0.0055,0.1291,0.0114,0.0018,0.0068,0.0030,0.0020
904,0.0961,0.0055,0.1081,0.0116,0.0022,0.0072,0.0033,0.0022
905,0.0942,0.0057,0.1044,0.0110,0.0028,0.0059,0.0023,0.0020
906,0.0836,0.0061,0.0924,0.0111,0.0031,0.0063,0.0028,0.0022
907,0.0843,0.0056,0.0876,0.0539,0.0064,0.0089,0.0154,0.0062
908,0.1113,0.0074,0.1182,0.0531,0.0046,0.0077,0.0074,0.0046
909,0.0935,0.0111,0.1031,0.0487,0.0034,0.0085,0.0078,0.0037
910,0.0739,0.0114,0.0837,0.0392,0.0031,0.0087,0.0083,0.0036
911,0.0734,0.0088,0.0819,0.0364,0.0034,0.0069,0.0068,0.0039
912,0.0660,0.0065,0.0733,0.0329,0.0043,0.0068,0.0079,0.0046
913,0.0185,0.0054,0.0236,0.0111,0.0043,0.0087,0.0037,0.0036
914,0.0857,0.0090,0.1040,0.0181,0.0022,0.0084,0.0034,0.0040
915,0.0781,0.0086,0.0838,0.0515,0.0085,0.0118,0.0096,0.0070
916,0.0863,0.0074,0.0934,0.0605,0.0052,0.0089,0.0083,0.0049
917,0.0896,0.0062,0.0965,0.0577,0.0032,0.0087,0.0078,0.0033
918,0.0745,0.0060,0.0805,0.0482,0.0037,0.0089,0.0079,0.0032
919,0.0623,0.0067,0.0681,0.0449,0.0049,0.0086,0.0079,0.0042
920,0.0524,0.0072,0.0581,0.0395,0.0059,0.0091,0.0083,0.0055
921,0.0872,0.0049,0.0897,0.0155,0.0024,0.0096,0.0073,0.0049
922,0.1255,0.0050,0.1309,0.0146,0.0018,0.0085,0.0037,0.0040
923,0.1163,0.0054,0.1243,0.0144,0.0016,0.0071,0.0025,0.0037
924,0.0181,0.0062,0.0233,0.0113,0.0067,0.0088,0.0033,0.0037
925,0.0970,0.0054,0.1041,0.0145,0.0021,0.0070,0.0027,0.0038
926,0.0914,0.0092,0.1121,0.0184,0.0023,0.0085,0.0050,0.0039
927,0.0929,0.0051,0.0979,0.0142,0.0025,0.0077,0.0030,0.0038
928,0.0805,0.0048,0.0838,0.0142,0.0028,0.0083,0.0042,0.0040
929,0.0813,0.0056,0.0834,0.0539,0.0053,0.0095,0.0138,0.0072
930,0.1130,0.0064,0.1179,0.0527,0.0042,0.0076,0.0066,0.0066
931,0.0974,0.0102,0.1046,0.0500,0.0036,0.0094,0.0078,0.0058
932,0.0795,0.0105,0.0858,0.0409,0.0033,0.0098,0.0085,0.0057
933,0.0807,0.0078,0.0852,0.0367,0.0033,0.0074,0.0065,0.0062
934,0.0716,0.0057,0.0748,0.0328,0.0037,0.0072,0.0070,0.0066
935,0.0186,0.0092,0.0240,0.0134,0.0089,0.0093,0.0038,0.0036
936,0.0990,0.0077,0.1032,0.0525,0.0081,0.0134,0.0104,0.0081
937,0.0981,0.0071,0.1037,0.0597,0.0048,0.0109,0.0091,0.0061
938,0.1068,0.0089,0.1308,0.0183,0.0026,0.0081,0.0066,0.0042
939,0.0907,0.0062,0.0958,0.0544,0.0028,0.0104,0.0098,0.0043
940,0.0769,0.0061,0.0800,0.0458,0.0032,0.0105,0.0101,0.0042
941,0.0719,0.0066,0.0741,0.0445,0.0044,0.0106,0.0088,0.0054
942,0.0662,0.0069,0.0675,0.0403,0.0053,0.0110,0.0088,0.0067
943,0.0706,0.0071,0.0746,0.0174,0.0028,0.0127,0.0112,0.0079
944,0.1150,0.0091,0.1213,0.0174,0.0020,0.0127,0.0068,0.0071
945,0.1141,0.0102,0.1226,0.0169,0.0019,0.0111,0.0044,0.0070
946,0.0266,0.0077,0.0277,0.0199,0.0070,0.0110,0.0102,0.0076
947,0.0961,0.0102,0.1027,0.0168,0.0023,0.0108,0.0042,0.0071
948,0.0886,0.0096,0.0924,0.0169,0.0026,0.0122,0.0058,0.0069
949,0.0723,0.0087,0.0743,0.0169,0.0030,0.0125,0.0074,0.0070
950,0.0888,0.0069,0.1018,0.0499,0.0060,0.0085,0.0175,0.0072
951,0.0731,0.0068,0.0771,0.0530,0.0056,0.0095,0.0138,0.0101
952,0.1020,0.0076,0.1080,0.0539,0.0051,0.0073,0.0078,0.0105
953,0.1009,0.0104,0.1084,0.0503,0.0048,0.0095,0.0087,0.0107
954,0.0851,0.0107,0.0909,0.0418,0.0046,0.0101,0.0092,0.0107
955,0.0805,0.0086,0.0844,0.0377,0.0046,0.0074,0.0077,0.0106
956,0.0677,0.0071,0.0707,0.0342,0.0048,0.0071,0.0080,0.0104
957,0.0369,0.0097,0.0381,0.0269,0.0062,0.0093,0.0086,0.0036
958,0.0763,0.0163,0.0730,0.0410,0.0173,0.0113,0.0171,0.0042
959,0.0675,0.0192,0.0656,0.0399,0.0105,0.0079,0.0134,0.0035
960,0.0756,0.0198,0.0727,0.0407,0.0056,0.0072,0.0105,0.0039
961,0.0919,0.0195,0.0884,0.0478,0.0063,0.0076,0.0106,0.0041
962,0.0769,0.0085,0.0881,0.0502,0.0054,0.0066,0.0082,0.0077
963,0.0901,0.0191,0.0864,0.0533,0.0096,0.0074,0.0111,0.0036
964,0.0976,0.0178,0.0935,0.0600,0.0125,0.0084,0.0131,0.0039
965,0.0823,0.0118,0.0830,0.0175,0.0044,0.0124,0.0076,0.0030
966,0.0732,0.0107,0.0722,0.0177,0.0031,0.0107,0.0041,0.0024
967,0.0831,0.0087,0.0807,0.0170,0.0029,0.0099,0.0032,0.0039
968,0.0226,0.0080,0.0248,0.0211,0.0044,0.0089,0.0082,0.0033
969,0.1027,0.0087,0.0999,0.0167,0.0039,0.0100,0.0032,0.0042
970,0.1056,0.0108,0.1039,0.0173,0.0054,0.0099,0.0037,0.0024
971,0.1131,0.0118,0.1126,0.0171,0.0064,0.0106,0.0045,0.0028
972,0.0759,0.0070,0.0792,0.0504,0.0091,0.0122,0.0182,0.0053
973,0.0757,0.0082,0.0780,0.0503,0.0062,0.0102,0.0135,0.0041
974,0.1393,0.0126,0.1346,0.0775,0.0050,0.0067,0.0083,0.0036
975,0.0805,0.0114,0.0919,0.0523,0.0049,0.0080,0.0082,0.0079
976,0.0858,0.0054,0.0867,0.0524,0.0042,0.0099,0.0105,0.0034
977,0.1090,0.0053,0.1089,0.0622,0.0034,0.0101,0.0104,0.0034
978,0.0937,0.0079,0.0961,0.0694,0.0042,0.0093,0.0120,0.0036
979,0.0229,0.0083,0.0258,0.0165,0.0037,0.0090,0.0084,0.0034
980,0.0951,0.0089,0.0992,0.0764,0.0053,0.0104,0.0142,0.0040
981,0.0700,0.0084,0.0743,0.0385,0.0159,0.0115,0.0103,0.0028
982,0.0590,0.0105,0.0653,0.0361,0.0095,0.0096,0.0093,0.0026
983,0.0658,0.0118,0.0721,0.0369,0.0049,0.0082,0.0101,0.0030
984,0.0806,0.0115,0.0876,0.0436,0.0056,0.0081,0.0106,0.0032
985,0.0784,0.0105,0.0855,0.0485,0.0086,0.0095,0.0088,0.0027
986,0.0870,0.0092,0.0941,0.0556,0.0114,0.0099,0.0089,0.0030
987,0.0946,0.0117,0.1081,0.0596,0.0046,0.0085,0.0086,0.0079
988,0.0727,0.0107,0.0819,0.0138,0.0043,0.0131,0.0064,0.0033
989,0.0665,0.0086,0.0740,0.0131,0.0029,0.0095,0.0029,0.0030
990,0.0214,0.0109,0.0242,0.0165,0.0047,0.0084,0.0085,0.0045
991,0.0741,0.0073,0.0822,0.0134,0.0028,0.0088,0.0028,0.0032
992,0.0903,0.0073,0.0999,0.0137,0.0037,0.0090,0.0028,0.0034
993,0.0939,0.0088,0.1047,0.0125,0.0050,0.0087,0.0029,0.0027
994,0.0988,0.0097,0.1112,0.0128,0.0062,0.0097,0.0031,0.0037
995,0.0766,0.0079,0.0874,0.0469,0.0087,0.0110,0.0144,0.0072
996,0.0730,0.0054,0.0828,0.0453,0.0058,0.0086,0.0095,0.0041
997,0.0865,0.0051,0.0972,0.0468,0.0042,0.0086,0.0084,0.0035
998,0.1081,0.0053,0.1199,0.0539,0.0036,0.0088,0.0085,0.0035
999,0.0985,0.0096,0.1140,0.0641,0.0050,0.0067,0.0075,0.0078
1000,0.0985,0.0051,0.1121,0.0578,0.0040,0.0082,0.0088,0.0039
1001,0.0414,0.0147,0.0537,0.0203,0.0086,0.0150,0.0050,0.0057
1002,0.0219,0.0116,0.0242,0.0169,0.0060,0.0098,0.0093,0.0042
1003,0.1046,0.0052,0.1194,0.0618,0.0050,0.0090,0.0102,0.0040
1004,0.0484,0.0057,0.0552,0.0364,0.0147,0.0139,0.0124,0.0049
1005,0.0393,0.0054,0.0489,0.0328,0.0087,0.0127,0.0089,0.0042
1006,0.0429,0.0069,0.0526,0.0343,0.0043,0.0103,0.0111,0.0047
1007,0.0562,0.0067,0.0671,0.0413,0.0048,0.0100,0.0121,0.0050
1008,0.0514,0.0055,0.0630,0.0444,0.0077,0.0123,0.0084,0.0044
1009,0.0598,0.0051,0.0718,0.0511,0.0103,0.0129,0.0093,0.0045
1010,0.0709,0.0095,0.0821,0.0125,0.0047,0.0139,0.0085,0.0064
1011,0.0664,0.0066,0.0764,0.0117,0.0029,0.0093,0.0031,0.0043
1012,0.1140,0.0080,0.1323,0.0692,0.0058,0.0068,0.0087,0.0077
1013,0.1118,0.0055,0.1096,0.0116,0.0020,0.0073,0.0033,0.0021
1014,0.0750,0.0058,0.0863,0.0181,0.0028,0.0087,0.0033,0.0037
1015,0.0897,0.0058,0.1037,0.0196,0.0037,0.0087,0.0033,0.0038
1016,0.0922,0.0066,0.1076,0.0127,0.0049,0.0088,0.0033,0.0038
1017,0.0934,0.0075,0.1108,0.0115,0.0058,0.0094,0.0034,0.0051
1018,0.0629,0.0155,0.0752,0.0583,0.0080,0.0108,0.0115,0.0079
1019,0.0645,0.0114,0.0771,0.0523,0.0055,0.0095,0.0077,0.0043
1020,0.0739,0.0105,0.0882,0.0546,0.0043,0.0085,0.0071,0.0043
1021,0.0924,0.0105,0.1091,0.0616,0.0039,0.0085,0.0072,0.0044
1022,0.0927,0.0100,0.1104,0.0629,0.0041,0.0092,0.0073,0.0042
1023,0.1005,0.0112,0.1189,0.0670,0.0048,0.0100,0.0080,0.0043
1024,0.0235,0.0103,0.0237,0.0202,0.0225,0.0148,0.0115,0.0042
1025,0.0921,0.0116,0.0887,0.0548,0.0094,0.0077,0.0103,0.0044
1026,0.0707,0.0142,0.0686,0.0398,0.0167,0.0099,0.0139,0.0040
1027,0.0607,0.0165,0.0593,0.0392,0.0101,0.0075,0.0108,0.0041
1028,0.0655,0.0173,0.0636,0.0402,0.0056,0.0067,0.0091,0.0041
1029,0.0806,0.0170,0.0782,0.0478,0.0064,0.0067,0.0093,0.0040
1030,0.0826,0.0164,0.0802,0.0541,0.0096,0.0074,0.0093,0.0040
1031,0.0935,0.0153,0.0909,0.0613,0.0124,0.0079,0.0105,0.0040
1032,0.0747,0.0109,0.0771,0.0179,0.0041,0.0105,0.0057,0.0027
1033,0.0639,0.0106,0.0642,0.0179,0.0029,0.0093,0.0036,0.0026
1034,0.0696,0.0090,0.0690,0.0173,0.0029,0.0091,0.0032,0.0029
1035,0.0242,0.0146,0.0282,0.0146,0.0134,0.0100,0.0086,0.0039
1036,0.0871,0.0089,0.0860,0.0170,0.0039,0.0092,0.0032,0.0032
1037,0.0879,0.0108,0.0842,0.0492,0.0059,0.0072,0.0092,0.0025
1038,0.0921,0.0109,0.0923,0.0175,0.0054,0.0087,0.0034,0.0027
1039,0.1025,0.0117,0.1042,0.0173,0.0066,0.0091,0.0038,0.0032
1040,0.0717,0.0074,0.0767,0.0489,0.0092,0.0112,0.0176,0.0058
1041,0.0701,0.0092,0.0730,0.0479,0.0060,0.0098,0.0132,0.0046
1042,0.0807,0.0057,0.0829,0.0489,0.0040,0.0107,0.0109,0.0044
1043,0.1039,0.0054,0.1052,0.0582,0.0032,0.0110,0.0109,0.0045
1044,0.0909,0.0087,0.0950,0.0665,0.0040,0.0091,0.0119,0.0039
1045,0.0935,0.0100,0.0996,0.0749,0.0052,0.0097,0.0139,0.0041
1046,0.0169,0.0099,0.0193,0.0146,0.0065,0.0092,0.0092,0.0029
1047,0.0667,0.0069,0.0722,0.0379,0.0153,0.0122,0.0105,0.0037
1048,0.0530,0.0082,0.0599,0.0359,0.0091,0.0118,0.0092,0.0035
1049,0.0862,0.0101,0.0828,0.0503,0.0037,0.0070,0.0090,0.0031
1050,0.0566,0.0094,0.0639,0.0365,0.0049,0.0102,0.0093,0.0030
1051,0.0703,0.0092,0.0783,0.0437,0.0057,0.0097,0.0097,0.0030
1052,0.0719,0.0082,0.0802,0.0494,0.0087,0.0118,0.0088,0.0032
1053,0.0843,0.0071,0.0929,0.0572,0.0114,0.0120,0.0093,0.0034
1054,0.0692,0.0094,0.0799,0.0140,0.0041,0.0115,0.0045,0.0035
1055,0.0606,0.0082,0.0689,0.0133,0.0027,0.0089,0.0030,0.0034
1056,0.0643,0.0071,0.0735,0.0138,0.0028,0.0086,0.0029,0.0029
1057,0.0177,0.0087,0.0183,0.0138,0.0067,0.0090,0.0098,0.0031
1058,0.0782,0.0072,0.0892,0.0142,0.0038,0.0088,0.0029,0.0030
1059,0.0842,0.0086,0.0966,0.0127,0.0052,0.0085,0.0029,0.0033
1060,0.0927,0.0092,0.1069,0.0129,0.0062,0.0089,0.0030,0.0040
1061,0.0987,0.0100,0.0945,0.0600,0.0040,0.0077,0.0090,0.0032
1062,0.0758,0.0070,0.0886,0.0449,0.0087,0.0107,0.0137,0.0078
1063,0.0700,0.0056,0.0813,0.0433,0.0056,0.0085,0.0093,0.0049
1064,0.0832,0.0048,0.0954,0.0439,0.0040,0.0093,0.0087,0.0042
1065,0.1048,0.0048,0.1182,0.0501,0.0035,0.0096,0.0089,0.0042
1066,0.0968,0.0054,0.1124,0.0549,0.0039,0.0080,0.0087,0.0043
1067,0.1043,0.0056,0.1215,0.0598,0.0050,0.0086,0.0100,0.0046
1068,0.0224,0.0120,0.0239,0.0142,0.0113,0.0099,0.0085,0.0036
1069,0.0472,0.0059,0.0545,0.0364,0.0141,0.0153,0.0144,0.0053
1070,0.0339,0.0048,0.0436,0.0330,0.0083,0.0155,0.0104,0.0037
1071,0.0356,0.0056,0.0459,0.0342,0.0042,0.0131,0.0103,0.0032
1072,0.0474,0.0054,0.0591,0.0414,0.0049,0.0125,0.0110,0.0033
1073,0.1144,0.0103,0.1100,0.0666,0.0047,0.0067,0.0092,0.0025
1074,0.0462,0.0048,0.0588,0.0454,0.0077,0.0153,0.0094,0.0033
1075,0.0586,0.0053,0.0718,0.0528,0.0102,0.0156,0.0113,0.0038
1076,0.0708,0.0082,0.0834,0.0125,0.0044,0.0127,0.0058,0.0059
1077,0.0638,0.0061,0.0745,0.0118,0.0028,0.0098,0.0033,0.0043
1078,0.0687,0.0055,0.0808,0.0191,0.0029,0.0094,0.0034,0.0035
1079,0.0194,0.0118,0.0205,0.0180,0.0153,0.0106,0.0092,0.0039
1080,0.0815,0.0055,0.0966,0.0207,0.0038,0.0094,0.0034,0.0036
1081,0.0869,0.0062,0.1036,0.0134,0.0050,0.0097,0.0033,0.0039
1082,0.0917,0.0069,0.1106,0.0114,0.0060,0.0098,0.0034,0.0050
1083,0.0634,0.0143,0.0775,0.0548,0.0080,0.0114,0.0106,0.0090
1084,0.0637,0.0103,0.0780,0.0499,0.0053,0.0096,0.0072,0.0053
1085,0.1327,0.0106,0.1289,0.0778,0.0050,0.0073,0.0092,0.0026
1086,0.0723,0.0097,0.0882,0.0513,0.0042,0.0088,0.0070,0.0048
1087,0.0908,0.0098,0.1094,0.0574,0.0039,0.0089,0.0074,0.0048
1088,0.0926,0.0092,0.1126,0.0593,0.0040,0.0089,0.0068,0.0046
1089,0.1028,0.0101,0.1239,0.0634,0.0048,0.0098,0.0074,0.0051
1090,0.0229,0.0142,0.0256,0.0200,0.0092,0.0128,0.0062,0.0054
1091,0.0600,0.0156,0.0590,0.0357,0.0162,0.0213,0.0112,0.0037
1092,0.0499,0.0167,0.0492,0.0356,0.0097,0.0129,0.0086,0.0044
1093,0.0529,0.0164,0.0517,0.0369,0.0053,0.0093,0.0083,0.0041
1094,0.0677,0.0160,0.0661,0.0450,0.0063,0.0095,0.0086,0.0039
1095,0.0734,0.0161,0.0719,0.0513,0.0093,0.0105,0.0079,0.0046
1096,0.0876,0.0157,0.0863,0.0581,0.0121,0.0138,0.0084,0.0042
1097,0.1054,0.0059,0.1060,0.0157,0.0025,0.0121,0.0041,0.0036
1098,0.1038,0.0056,0.1053,0.0157,0.0023,0.0098,0.0035,0.0027
1099,0.0618,0.0137,0.0642,0.0176,0.0050,0.0130,0.0100,0.0046
1100,0.0565,0.0126,0.0579,0.0179,0.0027,0.0100,0.0056,0.0036
1101,0.0240,0.0091,0.0295,0.0164,0.0047,0.0086,0.0066,0.0059
1102,0.0599,0.0101,0.0606,0.0167,0.0024,0.0087,0.0035,0.0021
1103,0.0755,0.0100,0.0756,0.0162,0.0036,0.0086,0.0033,0.0024
1104,0.0810,0.0127,0.0822,0.0172,0.0051,0.0088,0.0047,0.0034
1105,0.0904,0.0141,0.0930,0.0171,0.0064,0.0095,0.0061,0.0040
1106,0.0693,0.0078,0.0764,0.0467,0.0097,0.0163,0.0166,0.0062
1107,0.0672,0.0099,0.0702,0.0456,0.0060,0.0117,0.0112,0.0053
1108,0.0724,0.0065,0.0761,0.0462,0.0038,0.0114,0.0099,0.0042
1109,0.0943,0.0061,0.0971,0.0553,0.0030,0.0116,0.0099,0.0042
1110,0.0949,0.0051,0.0943,0.0122,0.0019,0.0070,0.0024,0.0027
1111,0.0820,0.0096,0.0876,0.0645,0.0039,0.0100,0.0099,0.0044
1112,0.1261,0.0052,0.1234,0.0118,0.0021,0.0076,0.0027,0.0043
1113,0.0402,0.0107,0.0515,0.0161,0.0044,0.0094,0.0052,0.0066
1114,0.0199,0.0054,0.0235,0.0158,0.0030,0.0083,0.0035,0.0034
1115,0.0870,0.0105,0.0949,0.0734,0.0053,0.0117,0.0117,0.0051
1116,0.0514,0.0082,0.0579,0.0323,0.0147,0.0201,0.0115,0.0032
1117,0.0404,0.0088,0.0478,0.0319,0.0087,0.0120,0.0091,0.0043
1118,0.0426,0.0087,0.0505,0.0333,0.0046,0.0096,0.0091,0.0039
1119,0.0559,0.0083,0.0646,0.0406,0.0056,0.0096,0.0096,0.0037
1120,0.0592,0.0081,0.0684,0.0453,0.0085,0.0104,0.0086,0.0044
1121,0.0728,0.0077,0.0823,0.0516,0.0111,0.0127,0.0095,0.0043
1122,0.0590,0.0119,0.0691,0.0141,0.0042,0.0142,0.0089,0.0058
1123,0.0550,0.0098,0.0635,0.0130,0.0024,0.0111,0.0042,0.0044
1124,0.1005,0.0051,0.0984,0.0120,0.0019,0.0075,0.0037,0.0031
1125,0.0223,0.0054,0.0267,0.0159,0.0043,0.0084,0.0035,0.0035
1126,0.0568,0.0080,0.0666,0.0130,0.0023,0.0089,0.0033,0.0029
1127,0.0686,0.0080,0.0805,0.0135,0.0034,0.0087,0.0031,0.0030
1128,0.0750,0.0100,0.0881,0.0119,0.0048,0.0099,0.0039,0.0040
1129,0.0821,0.0113,0.0969,0.0125,0.0060,0.0108,0.0046,0.0046
1130,0.0736,0.0070,0.0883,0.0430,0.0092,0.0160,0.0134,0.0060
1131,0.0661,0.0061,0.0778,0.0413,0.0057,0.0105,0.0083,0.0051
1132,0.0757,0.0048,0.0892,0.0414,0.0039,0.0102,0.0081,0.0045
1133,0.0962,0.0047,0.1111,0.0471,0.0033,0.0104,0.0082,0.0044
1134,0.0886,0.0062,0.1057,0.0522,0.0038,0.0091,0.0077,0.0048
1135,0.0985,0.0061,0.1174,0.0570,0.0051,0.0106,0.0086,0.0048
1136,0.1157,0.0057,0.1148,0.0109,0.0022,0.0061,0.0023,0.0020
1137,0.1189,0.0051,0.1158,0.0121,0.0020,0.0078,0.0040,0.0032
1138,0.0310,0.0060,0.0390,0.0297,0.0136,0.0216,0.0153,0.0040
1139,0.0330,0.0056,0.0396,0.0294,0.0079,0.0139,0.0105,0.0044
1140,0.0260,0.0057,0.0352,0.0310,0.0039,0.0122,0.0108,0.0037
1141,0.0344,0.0055,0.0460,0.0383,0.0048,0.0122,0.0115,0.0036
1142,0.0334,0.0053,0.0458,0.0405,0.0076,0.0127,0.0094,0.0044
1143,0.0434,0.0054,0.0568,0.0451,0.0101,0.0144,0.0114,0.0047
1144,0.0627,0.0106,0.0743,0.0140,0.0038,0.0165,0.0111,0.0081
1145,0.0595,0.0073,0.0701,0.0112,0.0022,0.0139,0.0048,0.0052
1146,0.0628,0.0059,0.0755,0.0185,0.0023,0.0109,0.0043,0.0036
1147,0.0209,0.0077,0.0254,0.0148,0.0066,0.0084,0.0038,0.0062
1148,0.0740,0.0059,0.0897,0.0204,0.0034,0.0105,0.0043,0.0037
1149,0.1215,0.0051,0.1198,0.0118,0.0020,0.0067,0.0028,0.0029
1150,0.0790,0.0073,0.0962,0.0123,0.0046,0.0128,0.0047,0.0045
1151,0.0816,0.0086,0.1008,0.0110,0.0057,0.0137,0.0052,0.0054
1152,0.0600,0.0131,0.0757,0.0526,0.0085,0.0141,0.0107,0.0067
1153,0.0596,0.0099,0.0749,0.0477,0.0054,0.0098,0.0073,0.0052
1154,0.0666,0.0091,0.0839,0.0483,0.0041,0.0096,0.0068,0.0056
1155,0.0844,0.0091,0.1045,0.0536,0.0038,0.0098,0.0070,0.0058
1156,0.0860,0.0088,0.1076,0.0555,0.0038,0.0091,0.0069,0.0052
1157,0.0974,0.0097,0.1202,0.0596,0.0049,0.0097,0.0072,0.0050
1158,0.0206,0.0114,0.0255,0.0163,0.0087,0.0092,0.0059,0.0072
1159,0.0239,0.0181,0.0247,0.0250,0.0176,0.0107,0.0180,0.0039
1160,0.0292,0.0206,0.0343,0.0276,0.0106,0.0076,0.0140,0.0036
1161,0.1333,0.0051,0.1336,0.0120,0.0023,0.0071,0.0026,0.0028
1162,0.0216,0.0210,0.0249,0.0270,0.0058,0.0070,0.0107,0.0040
1163,0.0228,0.0206,0.0218,0.0192,0.0066,0.0074,0.0108,0.0041
1164,0.0224,0.0204,0.0218,0.0170,0.0098,0.0071,0.0115,0.0037
1165,0.0289,0.0192,0.0264,0.0191,0.0128,0.0082,0.0137,0.0038
1166,0.0334,0.0103,0.0374,0.0173,0.0045,0.0118,0.0071,0.0035
1167,0.0489,0.0092,0.0561,0.0174,0.0032,0.0105,0.0039,0.0026
1168,0.0341,0.0075,0.0421,0.0165,0.0030,0.0098,0.0033,0.0044
1169,0.0264,0.0077,0.0265,0.0216,0.0066,0.0116,0.0109,0.0091
1170,0.0296,0.0076,0.0345,0.0162,0.0040,0.0099,0.0033,0.0047
1171,0.0302,0.0095,0.0348,0.0169,0.0055,0.0097,0.0037,0.0026
1172,0.0332,0.0105,0.0371,0.0168,0.0066,0.0104,0.0043,0.0027
1173,0.1026,0.0054,0.1065,0.0651,0.0067,0.0077,0.0185,0.0051
1174,0.0538,0.0064,0.0555,0.0272,0.0089,0.0119,0.0172,0.0058
1175,0.0778,0.0073,0.0811,0.0277,0.0062,0.0102,0.0130,0.0040
1176,0.0379,0.0050,0.0457,0.0250,0.0042,0.0098,0.0101,0.0036
1177,0.0325,0.0050,0.0378,0.0211,0.0035,0.0100,0.0100,0.0037
1178,0.0343,0.0070,0.0407,0.0234,0.0042,0.0092,0.0116,0.0036
1179,0.0342,0.0080,0.0398,0.0281,0.0052,0.0103,0.0137,0.0039
1180,0.0325,0.0086,0.0327,0.0238,0.0060,0.0083,0.0117,0.0039
1181,0.0234,0.0100,0.0259,0.0199,0.0161,0.0105,0.0103,0.0030
1182,0.0274,0.0121,0.0338,0.0249,0.0096,0.0091,0.0095,0.0026
1183,0.0219,0.0130,0.0271,0.0251,0.0050,0.0079,0.0102,0.0028
1184,0.0220,0.0126,0.0254,0.0184,0.0057,0.0078,0.0108,0.0030
1185,0.0973,0.0071,0.0996,0.0660,0.0048,0.0069,0.0095,0.0044
1186,0.0216,0.0119,0.0253,0.0168,0.0088,0.0092,0.0089,0.0026
1187,0.0281,0.0106,0.0306,0.0194,0.0117,0.0096,0.0090,0.0028
1188,0.0349,0.0092,0.0384,0.0135,0.0045,0.0124,0.0059,0.0031
1189,0.0468,0.0071,0.0525,0.0129,0.0029,0.0092,0.0029,0.0028
1190,0.0331,0.0060,0.0394,0.0133,0.0028,0.0087,0.0029,0.0036
1191,0.0256,0.0085,0.0261,0.0215,0.0045,0.0083,0.0076,0.0044
1192,0.0282,0.0060,0.0343,0.0136,0.0038,0.0088,0.0029,0.0038
1193,0.0288,0.0074,0.0350,0.0122,0.0051,0.0085,0.0029,0.0028
1194,0.0303,0.0084,0.0371,0.0126,0.0062,0.0094,0.0030,0.0034
1195,0.0407,0.0089,0.0446,0.0303,0.0084,0.0105,0.0130,0.0079
1196,0.0549,0.0057,0.0579,0.0342,0.0057,0.0084,0.0088,0.0042
1197,0.1082,0.0110,0.1085,0.0700,0.0037,0.0080,0.0089,0.0044
1198,0.0322,0.0057,0.0381,0.0283,0.0042,0.0085,0.0079,0.0036
1199,0.0338,0.0059,0.0405,0.0220,0.0037,0.0086,0.0081,0.0035
1200,0.0300,0.0051,0.0370,0.0215,0.0040,0.0080,0.0083,0.0039
1201,0.0314,0.0053,0.0396,0.0223,0.0049,0.0087,0.0095,0.0041
1202,0.0252,0.0088,0.0277,0.0213,0.0040,0.0085,0.0075,0.0045
1203,0.0144,0.0056,0.0194,0.0174,0.0150,0.0128,0.0111,0.0053
1204,0.0342,0.0064,0.0415,0.0235,0.0088,0.0123,0.0085,0.0039
1205,0.0244,0.0079,0.0295,0.0225,0.0044,0.0101,0.0113,0.0042
1206,0.0134,0.0076,0.0158,0.0168,0.0049,0.0098,0.0123,0.0044
1207,0.0165,0.0064,0.0191,0.0161,0.0078,0.0120,0.0084,0.0039
1208,0.0143,0.0054,0.0164,0.0185,0.0105,0.0125,0.0088,0.0041
1209,0.1290,0.0113,0.1282,0.0806,0.0033,0.0082,0.0093,0.0043
1210,0.0353,0.0082,0.0389,0.0124,0.0049,0.0130,0.0080,0.0058
1211,0.0430,0.0054,0.0494,0.0116,0.0030,0.0089,0.0031,0.0041
1212,0.0289,0.0049,0.0348,0.0181,0.0028,0.0084,0.0032,0.0040
1213,0.0244,0.0104,0.0268,0.0225,0.0049,0.0079,0.0106,0.0054
1214,0.0287,0.0049,0.0339,0.0196,0.0037,0.0085,0.0033,0.0041
1215,0.0296,0.0055,0.0351,0.0125,0.0049,0.0085,0.0032,0.0038
1216,0.0297,0.0064,0.0359,0.0114,0.0060,0.0091,0.0033,0.0049
1217,0.0483,0.0168,0.0537,0.0278,0.0078,0.0100,0.0097,0.0087
1218,0.0462,0.0123,0.0514,0.0330,0.0054,0.0092,0.0072,0.0044
1219,0.0352,0.0113,0.0400,0.0277,0.0043,0.0085,0.0066,0.0042
1220,0.0329,0.0112,0.0389,0.0255,0.0040,0.0085,0.0067,0.0043
1221,0.0967,0.0052,0.0955,0.0123,0.0020,0.0082,0.0022,0.0039
1222,0.1317,0.0086,0.1320,0.0844,0.0040,0.0065,0.0085,0.0041
1223,0.0329,0.0108,0.0394,0.0258,0.0041,0.0091,0.0069,0.0041
1224,0.0473,0.0059,0.0606,0.0148,0.0029,0.0089,0.0034,0.0034
1225,0.0256,0.0097,0.0300,0.0232,0.0060,0.0091,0.0124,0.0046
1226,0.0364,0.0120,0.0438,0.0274,0.0047,0.0098,0.0074,0.0044
1227,0.0188,0.0159,0.0196,0.0242,0.0170,0.0091,0.0146,0.0043
1228,0.0248,0.0180,0.0292,0.0249,0.0103,0.0071,0.0112,0.0045
1229,0.0206,0.0186,0.0248,0.0250,0.0058,0.0063,0.0091,0.0044
1230,0.0152,0.0182,0.0168,0.0180,0.0066,0.0064,0.0093,0.0043
1231,0.0170,0.0178,0.0178,0.0168,0.0099,0.0071,0.0094,0.0044
1232,0.0267,0.0167,0.0253,0.0202,0.0128,0.0075,0.0109,0.0044
1233,0.0310,0.0094,0.0353,0.0177,0.0043,0.0101,0.0053,0.0028
1234,0.0523,0.0091,0.0585,0.0176,0.0029,0.0091,0.0036,0.0024
1235,0.1410,0.0062,0.1428,0.0912,0.0057,0.0063,0.0103,0.0042
1236,0.0225,0.0116,0.0219,0.0234,0.0251,0.0094,0.0135,0.0078
1237,0.0400,0.0077,0.0481,0.0168,0.0029,0.0090,0.0033,0.0033
1238,0.0267,0.0077,0.0346,0.0166,0.0040,0.0091,0.0034,0.0035
1239,0.0259,0.0095,0.0330,0.0172,0.0055,0.0086,0.0035,0.0024
1240,0.0277,0.0103,0.0341,0.0171,0.0068,0.0089,0.0038,0.0028
1241,0.0486,0.0066,0.0490,0.0250,0.0089,0.0110,0.0166,0.0062
1242,0.0728,0.0081,0.0745,0.0270,0.0059,0.0097,0.0127,0.0047
1243,0.0362,0.0051,0.0435,0.0258,0.0040,0.0107,0.0105,0.0047
1244,0.0294,0.0049,0.0355,0.0200,0.0033,0.0110,0.0105,0.0047
1245,0.0309,0.0077,0.0372,0.0215,0.0040,0.0090,0.0115,0.0040
1246,0.0304,0.0090,0.0364,0.0271,0.0051,0.0095,0.0134,0.0042
1247,0.0179,0.0160,0.0174,0.0204,0.0147,0.0082,0.0134,0.0046
1248,0.0863,0.0074,0.0949,0.0486,0.0085,0.0113,0.0099,0.0050
1249,0.0212,0.0083,0.0231,0.0193,0.0155,0.0114,0.0100,0.0044
1250,0.0232,0.0097,0.0284,0.0228,0.0093,0.0114,0.0091,0.0040
1251,0.0217,0.0107,0.0265,0.0238,0.0051,0.0099,0.0093,0.0033
1252,0.0166,0.0104,0.0209,0.0178,0.0059,0.0095,0.0098,0.0031
1253,0.0178,0.0095,0.0220,0.0171,0.0089,0.0116,0.0087,0.0035
1254,0.0274,0.0084,0.0308,0.0210,0.0116,0.0116,0.0091,0.0037
1255,0.0307,0.0079,0.0341,0.0138,0.0042,0.0109,0.0042,0.0031
1256,0.0473,0.0067,0.0515,0.0130,0.0028,0.0086,0.0031,0.0030
1257,0.0374,0.0058,0.0424,0.0137,0.0028,0.0085,0.0029,0.0030
1258,0.1279,0.0062,0.1289,0.0111,0.0024,0.0064,0.0027,0.0024
1259,0.0260,0.0059,0.0319,0.0141,0.0038,0.0086,0.0030,0.0032
1260,0.0845,0.0072,0.0930,0.0434,0.0051,0.0114,0.0086,0.0030
1261,0.0249,0.0071,0.0313,0.0125,0.0052,0.0083,0.0030,0.0030
1262,0.0264,0.0078,0.0341,0.0126,0.0064,0.0087,0.0031,0.0036
1263,0.0341,0.0078,0.0377,0.0300,0.0084,0.0102,0.0123,0.0085
1264,0.0507,0.0055,0.0521,0.0345,0.0055,0.0084,0.0086,0.0051
1265,0.0298,0.0053,0.0354,0.0301,0.0041,0.0092,0.0082,0.0043
1266,0.0309,0.0053,0.0386,0.0223,0.0035,0.0095,0.0084,0.0042
1267,0.0274,0.0052,0.0354,0.0205,0.0039,0.0079,0.0082,0.0044
1268,0.0300,0.0054,0.0400,0.0210,0.0048,0.0083,0.0093,0.0048
1269,0.0208,0.0132,0.0189,0.0183,0.0072,0.0091,0.0082,0.0043
1270,0.0155,0.0052,0.0163,0.0172,0.0144,0.0144,0.0130,0.0061
1271,0.0324,0.0052,0.0375,0.0217,0.0084,0.0152,0.0098,0.0039
1272,0.0855,0.0070,0.0946,0.0453,0.0032,0.0086,0.0081,0.0029
1273,0.0296,0.0063,0.0333,0.0216,0.0043,0.0128,0.0104,0.0029
1274,0.0177,0.0060,0.0190,0.0167,0.0050,0.0123,0.0111,0.0029
1275,0.0187,0.0051,0.0196,0.0166,0.0079,0.0151,0.0092,0.0032
1276,0.0167,0.0049,0.0184,0.0202,0.0105,0.0153,0.0107,0.0038
1277,0.0309,0.0069,0.0340,0.0126,0.0045,0.0120,0.0054,0.0053
1278,0.0412,0.0050,0.0464,0.0116,0.0028,0.0094,0.0034,0.0040
1279,0.0303,0.0047,0.0355,0.0191,0.0029,0.0092,0.0034,0.0036
1280,0.0273,0.0124,0.0246,0.0168,0.0079,0.0093,0.0079,0.0045
1281,0.0249,0.0047,0.0302,0.0206,0.0038,0.0092,0.0034,0.0037
1282,0.0262,0.0051,0.0320,0.0132,0.0050,0.0095,0.0033,0.0038
1283,0.0279,0.0058,0.0350,0.0113,0.0061,0.0096,0.0034,0.0047
1284,0.1001,0.0069,0.1102,0.0546,0.0034,0.0084,0.0082,0.0029
1285,0.0395,0.0155,0.0437,0.0266,0.0078,0.0108,0.0090,0.0098
1286,0.0416,0.0112,0.0454,0.0337,0.0052,0.0094,0.0067,0.0055
1287,0.0329,0.0105,0.0372,0.0282,0.0043,0.0089,0.0065,0.0047
1288,0.0307,0.0105,0.0376,0.0240,0.0039,0.0090,0.0069,0.0047
1289,0.0313,0.0099,0.0391,0.0241,0.0040,0.0089,0.0063,0.0046
1290,0.0371,0.0109,0.0465,0.0250,0.0047,0.0096,0.0069,0.0053
1291,0.0186,0.0148,0.0166,0.0169,0.0129,0.0083,0.0113,0.0043
1292,0.0220,0.0172,0.0240,0.0313,0.0165,0.0208,0.0111,0.0039
1293,0.0353,0.0183,0.0389,0.0297,0.0099,0.0128,0.0086,0.0048
1294,0.0280,0.0176,0.0318,0.0268,0.0055,0.0093,0.0083,0.0045
1295,0.0146,0.0172,0.0180,0.0188,0.0065,0.0094,0.0086,0.0043
1296,0.1123,0.0070,0.1229,0.0591,0.0040,0.0104,0.0083,0.0027
1297,0.0146,0.0175,0.0171,0.0169,0.0096,0.0104,0.0078,0.0050
1298,0.0218,0.0171,0.0220,0.0185,0.0125,0.0137,0.0083,0.0047
1299,0.0392,0.0119,0.0426,0.0177,0.0052,0.0123,0.0099,0.0042
1300,0.0582,0.0108,0.0644,0.0179,0.0028,0.0096,0.0055,0.0031
1301,0.0457,0.0087,0.0532,0.0163,0.0024,0.0083,0.0036,0.0021
1302,0.0253,0.0139,0.0223,0.0180,0.0175,0.0089,0.0127,0.0059
1303,0.0294,0.0087,0.0374,0.0159,0.0036,0.0083,0.0035,0.0025
1304,0.0266,0.0112,0.0341,0.0170,0.0052,0.0084,0.0047,0.0029
1305,0.0251,0.0125,0.0323,0.0171,0.0067,0.0090,0.0060,0.0035
1306,0.0443,0.0070,0.0437,0.0251,0.0094,0.0159,0.0157,0.0061
1307,0.0799,0.0088,0.0798,0.0267,0.0059,0.0114,0.0107,0.0052
1308,0.1267,0.0070,0.1382,0.0685,0.0042,0.0114,0.0086,0.0032
1309,0.0417,0.0057,0.0477,0.0258,0.0038,0.0111,0.0094,0.0044
1310,0.0265,0.0054,0.0335,0.0191,0.0031,0.0113,0.0094,0.0044
1311,0.0341,0.0086,0.0387,0.0203,0.0039,0.0098,0.0094,0.0044
1312,0.0311,0.0095,0.0356,0.0261,0.0052,0.0114,0.0112,0.0050
1313,0.0259,0.0074,0.0298,0.0146,0.0080,0.0102,0.0066,0.0068
1314,0.0214,0.0098,0.0246,0.0291,0.0150,0.0195,0.0105,0.0035
1315,0.0392,0.0103,0.0427,0.0302,0.0089,0.0119,0.0086,0.0047
1316,0.0306,0.0099,0.0335,0.0265,0.0048,0.0095,0.0092,0.0043
1317,0.0173,0.0094,0.0200,0.0191,0.0058,0.0095,0.0096,0.0040
1318,0.0172,0.0095,0.0198,0.0174,0.0086,0.0103,0.0082,0.0049
1319,0.0184,0.0091,0.0219,0.0180,0.0114,0.0126,0.0089,0.0047
1320,0.0913,0.0041,0.1046,0.0163,0.0024,0.0096,0.0053,0.0036
1321,0.0384,0.0101,0.0402,0.0145,0.0043,0.0133,0.0091,0.0055
1322,0.0521,0.0080,0.0561,0.0131,0.0025,0.0106,0.0041,0.0039
1323,0.0414,0.0066,0.0455,0.0127,0.0023,0.0086,0.0033,0.0026
1324,0.0454,0.0071,0.0520,0.0137,0.0039,0.0095,0.0042,0.0037
1325,0.0277,0.0066,0.0323,0.0132,0.0035,0.0084,0.0032,0.0028
1326,0.0242,0.0084,0.0296,0.0117,0.0049,0.0095,0.0039,0.0035
1327,0.0233,0.0096,0.0299,0.0125,0.0063,0.0103,0.0045,0.0041
1328,0.0328,0.0077,0.0353,0.0311,0.0090,0.0154,0.0122,0.0062
1329,0.0565,0.0059,0.0560,0.0361,0.0055,0.0102,0.0078,0.0051
1330,0.0329,0.0050,0.0367,0.0311,0.0039,0.0100,0.0077,0.0045
1331,0.0253,0.0050,0.0335,0.0225,0.0033,0.0102,0.0078,0.0044
1332,0.0804,0.0048,0.0897,0.0151,0.0017,0.0071,0.0028,0.0032
1333,0.0255,0.0058,0.0320,0.0199,0.0038,0.0089,0.0072,0.0047
1334,0.0259,0.0058,0.0361,0.0198,0.0049,0.0103,0.0080,0.0047
1335,0.0583,0.0058,0.0748,0.0150,0.0042,0.0089,0.0036,0.0033
1336,0.0263,0.0067,0.0330,0.0143,0.0026,0.0092,0.0045,0.0049
1337,0.0384,0.0063,0.0423,0.0301,0.0139,0.0209,0.0139,0.0039
1338,0.0607,0.0062,0.0651,0.0315,0.0080,0.0137,0.0099,0.0046
1339,0.0457,0.0062,0.0483,0.0248,0.0040,0.0121,0.0110,0.0038
1340,0.0316,0.0058,0.0314,0.0180,0.0049,0.0121,0.0117,0.0036
1341,0.0355,0.0056,0.0346,0.0174,0.0077,0.0126,0.0092,0.0046
1342,0.0291,0.0055,0.0278,0.0171,0.0104,0.0143,0.0107,0.0049
1343,0.0390,0.0091,0.0415,0.0149,0.0040,0.0153,0.0116,0.0080
1344,0.0470,0.0059,0.0524,0.0115,0.0023,0.0134,0.0046,0.0049
1345,0.1046,0.0052,0.1015,0.0119,0.0019,0.0081,0.0038,0.0046
1346,0.0826,0.0046,0.0924,0.0149,0.0018,0.0070,0.0028,0.0032
1347,0.0193,0.0070,0.0243,0.0144,0.0044,0.0091,0.0049,0.0055
1348,0.0320,0.0050,0.0371,0.0180,0.0023,0.0107,0.0043,0.0034
1349,0.0235,0.0050,0.0285,0.0199,0.0034,0.0102,0.0042,0.0036
1350,0.0233,0.0060,0.0288,0.0118,0.0047,0.0125,0.0046,0.0042
1351,0.0238,0.0072,0.0296,0.0113,0.0059,0.0133,0.0051,0.0051
1352,0.0430,0.0142,0.0451,0.0260,0.0083,0.0135,0.0092,0.0070
1353,0.0457,0.0107,0.0483,0.0357,0.0053,0.0097,0.0071,0.0052
1354,0.0349,0.0098,0.0379,0.0291,0.0041,0.0097,0.0064,0.0055
1355,0.0273,0.0098,0.0341,0.0231,0.0038,0.0098,0.0065,0.0056
1356,0.0276,0.0094,0.0351,0.0229,0.0038,0.0092,0.0067,0.0050
1357,0.0320,0.0104,0.0422,0.0229,0.0048,0.0096,0.0069,0.0050
1358,0.0221,0.0064,0.0279,0.0134,0.0070,0.0093,0.0038,0.0031
1359,0.0967,0.0045,0.1077,0.0149,0.0019,0.0071,0.0031,0.0032
1360,0.0297,0.0198,0.0366,0.0450,0.0178,0.0101,0.0191,0.0039
1361,0.0467,0.0221,0.0543,0.0488,0.0108,0.0074,0.0147,0.0038
1362,0.0432,0.0221,0.0504,0.0514,0.0060,0.0067,0.0108,0.0040
1363,0.0325,0.0217,0.0395,0.0438,0.0067,0.0072,0.0109,0.0041
1364,0.0328,0.0216,0.0402,0.0371,0.0100,0.0069,0.0119,0.0038
1365,0.0269,0.0206,0.0341,0.0318,0.0130,0.0080,0.0144,0.0039
1366,0.0623,0.0089,0.0693,0.0170,0.0048,0.0113,0.0066,0.0043
1367,0.0862,0.0078,0.0968,0.0169,0.0032,0.0104,0.0039,0.0031
1368,0.0720,0.0065,0.0838,0.0159,0.0031,0.0098,0.0034,0.0051
1369,0.0215,0.0083,0.0268,0.0137,0.0092,0.0095,0.0037,0.0037
1370,0.0579,0.0065,0.0696,0.0157,0.0040,0.0099,0.0034,0.0053
1371,0.1009,0.0047,0.1138,0.0147,0.0019,0.0069,0.0027,0.0032
1372,0.0572,0.0082,0.0681,0.0164,0.0055,0.0096,0.0037,0.0030
1373,0.0533,0.0092,0.0634,0.0165,0.0067,0.0103,0.0042,0.0029
1374,0.0954,0.0062,0.0977,0.0460,0.0086,0.0117,0.0163,0.0064
1375,0.1213,0.0065,0.1259,0.0502,0.0061,0.0102,0.0125,0.0041
1376,0.0815,0.0050,0.0903,0.0488,0.0043,0.0098,0.0097,0.0039
1377,0.0615,0.0051,0.0706,0.0395,0.0036,0.0099,0.0096,0.0039
1378,0.0796,0.0063,0.0859,0.0338,0.0042,0.0092,0.0112,0.0036
1379,0.0801,0.0072,0.0845,0.0297,0.0052,0.0102,0.0133,0.0039
1380,0.1060,0.0057,0.1088,0.0666,0.0067,0.0087,0.0208,0.0049
1381,0.0284,0.0118,0.0353,0.0379,0.0164,0.0098,0.0107,0.0036
1382,0.0444,0.0137,0.0527,0.0445,0.0098,0.0088,0.0099,0.0028
1383,0.1140,0.0046,0.1298,0.0147,0.0021,0.0071,0.0033,0.0034
1384,0.0432,0.0142,0.0504,0.0475,0.0052,0.0077,0.0104,0.0027
1385,0.0344,0.0138,0.0403,0.0407,0.0059,0.0076,0.0109,0.0029
1386,0.0351,0.0132,0.0410,0.0350,0.0090,0.0089,0.0091,0.0026
1387,0.0293,0.0120,0.0345,0.0298,0.0118,0.0092,0.0093,0.0029
1388,0.0592,0.0077,0.0657,0.0133,0.0048,0.0118,0.0055,0.0031
1389,0.0778,0.0057,0.0878,0.0126,0.0030,0.0090,0.0030,0.0030
1390,0.0643,0.0049,0.0743,0.0133,0.0029,0.0085,0.0029,0.0041
1391,0.1047,0.0057,0.1104,0.0641,0.0066,0.0092,0.0165,0.0064
1392,0.0523,0.0049,0.0612,0.0136,0.0038,0.0087,0.0029,0.0042
1393,0.0508,0.0061,0.0590,0.0120,0.0051,0.0083,0.0029,0.0029
1394,0.0491,0.0070,0.0561,0.0123,0.0063,0.0091,0.0030,0.0033
1395,0.0896,0.0053,0.1011,0.0558,0.0056,0.0079,0.0164,0.0056
1396,0.0753,0.0100,0.0797,0.0461,0.0081,0.0101,0.0116,0.0087
1397,0.0932,0.0062,0.0979,0.0540,0.0056,0.0083,0.0082,0.0044
1398,0.0673,0.0065,0.0731,0.0491,0.0043,0.0085,0.0076,0.0037
1399,0.0504,0.0067,0.0556,0.0399,0.0037,0.0086,0.0077,0.0037
1400,0.0603,0.0054,0.0637,0.0363,0.0041,0.0079,0.0078,0.0039
1401,0.0561,0.0057,0.0589,0.0328,0.0049,0.0086,0.0089,0.0042
1402,0.0329,0.0122,0.0328,0.0147,0.0071,0.0099,0.0125,0.0049
1403,0.0368,0.0065,0.0475,0.0336,0.0152,0.0120,0.0100,0.0058
1404,0.0575,0.0077,0.0692,0.0419,0.0089,0.0120,0.0084,0.0038
1405,0.0546,0.0089,0.0647,0.0433,0.0045,0.0099,0.0115,0.0037
1406,0.0454,0.0085,0.0531,0.0367,0.0050,0.0096,0.0125,0.0039
1407,0.0822,0.0064,0.0914,0.0565,0.0045,0.0068,0.0082,0.0053
1408,0.0490,0.0075,0.0565,0.0331,0.0079,0.0118,0.0084,0.0035
1409,0.0409,0.0063,0.0476,0.0284,0.0106,0.0122,0.0085,0.0039
1410,0.0528,0.0070,0.0627,0.0124,0.0051,0.0123,0.0075,0.0054
1411,0.0670,0.0045,0.0808,0.0115,0.0031,0.0085,0.0031,0.0040
1412,0.0493,0.0043,0.0627,0.0182,0.0029,0.0083,0.0032,0.0043
1413,0.0326,0.0103,0.0359,0.0265,0.0062,0.0099,0.0111,0.0046
1414,0.0386,0.0043,0.0499,0.0196,0.0037,0.0084,0.0033,0.0044
1415,0.0387,0.0046,0.0489,0.0124,0.0049,0.0082,0.0031,0.0039
1416,0.0407,0.0053,0.0491,0.0114,0.0061,0.0088,0.0033,0.0047
1417,0.0842,0.0180,0.0940,0.0263,0.0075,0.0095,0.0082,0.0096
1418,0.0845,0.0132,0.0942,0.0430,0.0052,0.0091,0.0069,0.0047
1419,0.0906,0.0102,0.0995,0.0589,0.0038,0.0089,0.0089,0.0048
1420,0.0731,0.0121,0.0811,0.0359,0.0043,0.0087,0.0062,0.0041
1421,0.0596,0.0120,0.0659,0.0267,0.0040,0.0087,0.0063,0.0042
1422,0.0599,0.0116,0.0657,0.0263,0.0041,0.0091,0.0066,0.0041
1423,0.0555,0.0129,0.0611,0.0225,0.0047,0.0096,0.0070,0.0046
1424,0.0260,0.0072,0.0305,0.0201,0.0044,0.0102,0.0106,0.0052
1425,0.0306,0.0176,0.0356,0.0446,0.0173,0.0084,0.0154,0.0048
1426,0.0467,0.0195,0.0525,0.0463,0.0105,0.0067,0.0117,0.0050
1427,0.0493,0.0197,0.0551,0.0493,0.0060,0.0060,0.0092,0.0047
1428,0.0396,0.0193,0.0454,0.0422,0.0068,0.0061,0.0094,0.0046
1429,0.0363,0.0190,0.0422,0.0354,0.0100,0.0067,0.0096,0.0048
1430,0.0293,0.0180,0.0347,0.0307,0.0129,0.0072,0.0114,0.0047
1431,0.1088,0.0105,0.1183,0.0674,0.0035,0.0094,0.0094,0.0047
1432,0.0644,0.0081,0.0700,0.0174,0.0046,0.0096,0.0050,0.0034
1433,0.0925,0.0077,0.1013,0.0171,0.0031,0.0090,0.0036,0.0025
1434,0.0837,0.0066,0.0939,0.0163,0.0030,0.0089,0.0035,0.0038
1435,0.0224,0.0074,0.0261,0.0143,0.0035,0.0101,0.0108,0.0054
1436,0.0694,0.0067,0.0796,0.0160,0.0040,0.0091,0.0035,0.0040
1437,0.0663,0.0082,0.0755,0.0167,0.0055,0.0084,0.0036,0.0025
1438,0.0594,0.0090,0.0678,0.0167,0.0068,0.0087,0.0037,0.0026
1439,0.0918,0.0060,0.0921,0.0452,0.0086,0.0108,0.0157,0.0067
1440,0.1177,0.0070,0.1205,0.0512,0.0058,0.0098,0.0122,0.0049
1441,0.0830,0.0048,0.0902,0.0518,0.0040,0.0107,0.0101,0.0050
1442,0.0639,0.0047,0.0715,0.0426,0.0033,0.0109,0.0102,0.0050
1443,0.1089,0.0078,0.1202,0.0722,0.0039,0.0070,0.0077,0.0049
1444,0.0786,0.0068,0.0833,0.0356,0.0040,0.0090,0.0111,0.0042
1445,0.0778,0.0080,0.0805,0.0306,0.0051,0.0094,0.0130,0.0043
1446,0.0564,0.0093,0.0738,0.0144,0.0065,0.0091,0.0033,0.0068
1447,0.0233,0.0104,0.0270,0.0144,0.0047,0.0086,0.0101,0.0044
1448,0.0292,0.0100,0.0337,0.0373,0.0158,0.0107,0.0099,0.0054
1449,0.0438,0.0113,0.0502,0.0422,0.0096,0.0111,0.0092,0.0046
1450,0.0484,0.0119,0.0543,0.0459,0.0053,0.0096,0.0094,0.0036
1451,0.0402,0.0115,0.0451,0.0395,0.0061,0.0092,0.0098,0.0034
1452,0.0377,0.0109,0.0422,0.0336,0.0090,0.0113,0.0087,0.0040
1453,0.0309,0.0098,0.0348,0.0290,0.0118,0.0113,0.0091,0.0042
1454,0.0562,0.0065,0.0614,0.0136,0.0045,0.0103,0.0040,0.0030
1455,0.0797,0.0054,0.0881,0.0127,0.0028,0.0084,0.0033,0.0029
1456,0.1185,0.0056,0.1321,0.0786,0.0051,0.0066,0.0088,0.0052
1457,0.0727,0.0048,0.0811,0.0137,0.0028,0.0083,0.0030,0.0033
1458,0.0236,0.0127,0.0279,0.0165,0.0059,0.0098,0.0117,0.0045
1459,0.0605,0.0048,0.0678,0.0141,0.0039,0.0085,0.0030,0.0034
1460,0.0560,0.0059,0.0624,0.0122,0.0052,0.0081,0.0030,0.0029
1461,0.0507,0.0065,0.0562,0.0123,0.0064,0.0085,0.0032,0.0033
1462,0.0692,0.0089,0.0714,0.0472,0.0081,0.0098,0.0110,0.0092
1463,0.0902,0.0057,0.0927,0.0555,0.0054,0.0084,0.0081,0.0054
1464,0.0675,0.0060,0.0717,0.0525,0.0041,0.0093,0.0078,0.0045
1465,0.0511,0.0061,0.0549,0.0433,0.0036,0.0096,0.0081,0.0044
1466,0.0593,0.0053,0.0609,0.0385,0.0039,0.0079,0.0078,0.0045
1467,0.0541,0.0055,0.0552,0.0339,0.0048,0.0082,0.0087,0.0050
1468,0.1248,0.0053,0.1205,0.0119,0.0020,0.0083,0.0042,0.0046
1469,0.0218,0.0080,0.0244,0.0146,0.0232,0.0116,0.0094,0.0048
1470,0.0563,0.0065,0.0733,0.0424,0.0080,0.0139,0.0106,0.0063
1471,0.0375,0.0057,0.0451,0.0330,0.0146,0.0138,0.0119,0.0070
1472,0.0568,0.0062,0.0666,0.0398,0.0086,0.0149,0.0095,0.0043
1473,0.0599,0.0072,0.0690,0.0421,0.0045,0.0126,0.0105,0.0028
1474,0.0516,0.0068,0.0586,0.0359,0.0052,0.0121,0.0113,0.0027
1475,0.0516,0.0059,0.0579,0.0320,0.0080,0.0149,0.0090,0.0033
1476,0.0421,0.0052,0.0472,0.0277,0.0106,0.0151,0.0103,0.0041
1477,0.0461,0.0057,0.0548,0.0127,0.0048,0.0113,0.0050,0.0049
1478,0.0653,0.0043,0.0776,0.0114,0.0029,0.0092,0.0035,0.0039
1479,0.0544,0.0043,0.0663,0.0192,0.0029,0.0091,0.0033,0.0038
1480,0.0173,0.0118,0.0188,0.0147,0.0137,0.0113,0.0095,0.0046
1481,0.0435,0.0042,0.0533,0.0207,0.0038,0.0091,0.0034,0.0039
1482,0.0566,0.0068,0.0743,0.0377,0.0048,0.0137,0.0091,0.0039
1483,0.0403,0.0044,0.0490,0.0130,0.0050,0.0093,0.0033,0.0038
1484,0.0386,0.0049,0.0457,0.0112,0.0062,0.0094,0.0035,0.0045
1485,0.0754,0.0168,0.0829,0.0292,0.0075,0.0103,0.0078,0.0106
1486,0.0805,0.0121,0.0879,0.0458,0.0051,0.0094,0.0065,0.0058
1487,0.0720,0.0114,0.0784,0.0396,0.0043,0.0091,0.0061,0.0046
1488,0.0588,0.0114,0.0637,0.0303,0.0040,0.0092,0.0065,0.0047
1489,0.0580,0.0107,0.0622,0.0290,0.0040,0.0090,0.0061,0.0046
1490,0.0526,0.0117,0.0569,0.0246,0.0047,0.0096,0.0065,0.0056
1491,0.0182,0.0083,0.0194,0.0145,0.0068,0.0122,0.0080,0.0045
1492,0.0506,0.0189,0.0541,0.0552,0.0168,0.0204,0.0112,0.0042
1493,0.0672,0.0197,0.0716,0.0545,0.0101,0.0127,0.0087,0.0053
1494,0.0622,0.0069,0.0809,0.0402,0.0029,0.0103,0.0097,0.0030
1495,0.0642,0.0188,0.0687,0.0534,0.0057,0.0093,0.0084,0.0049
1496,0.0534,0.0183,0.0579,0.0456,0.0067,0.0094,0.0087,0.0047
1497,0.0505,0.0187,0.0549,0.0402,0.0097,0.0104,0.0077,0.0055
1498,0.0426,0.0185,0.0467,0.0359,0.0126,0.0136,0.0083,0.0052
1499,0.0755,0.0102,0.0807,0.0177,0.0053,0.0115,0.0098,0.0040
1500,0.0995,0.0091,0.1080,0.0177,0.0030,0.0091,0.0054,0.0028
1501,0.0911,0.0075,0.1003,0.0158,0.0024,0.0080,0.0038,0.0025
1502,0.0228,0.0074,0.0242,0.0147,0.0075,0.0121,0.0079,0.0043
1503,0.0775,0.0075,0.0865,0.0154,0.0036,0.0080,0.0037,0.0028
1504,0.0734,0.0097,0.0817,0.0167,0.0052,0.0079,0.0048,0.0027
1505,0.0675,0.0109,0.0750,0.0169,0.0067,0.0085,0.0059,0.0032
1506,0.0784,0.0068,0.0989,0.0492,0.0030,0.0100,0.0100,0.0030
1507,0.0905,0.0064,0.0887,0.0474,0.0092,0.0154,0.0148,0.0060
1508,0.1272,0.0077,0.1279,0.0525,0.0058,0.0112,0.0102,0.0052
1509,0.0922,0.0051,0.0977,0.0534,0.0039,0.0109,0.0091,0.0046
1510,0.0717,0.0049,0.0776,0.0444,0.0031,0.0111,0.0091,0.0046
1511,0.0880,0.0077,0.0906,0.0368,0.0039,0.0096,0.0090,0.0045
1512,0.0843,0.0085,0.0848,0.0318,0.0051,0.0111,0.0107,0.0049
1513,0.0938,0.0069,0.0970,0.0649,0.0048,0.0080,0.0079,0.0048
1514,0.0501,0.0115,0.0552,0.0514,0.0153,0.0189,0.0097,0.0038
1515,0.0697,0.0119,0.0754,0.0532,0.0091,0.0117,0.0084,0.0052
1516,0.0644,0.0111,0.0695,0.0509,0.0050,0.0094,0.0093,0.0047
1517,0.0542,0.0106,0.0582,0.0435,0.0060,0.0094,0.0098,0.0044
1518,0.0847,0.0068,0.1061,0.0518,0.0035,0.0124,0.0088,0.0033
1519,0.0540,0.0108,0.0576,0.0397,0.0088,0.0102,0.0081,0.0054
1520,0.0462,0.0105,0.0493,0.0358,0.0115,0.0125,0.0085,0.0052
1521,0.0662,0.0085,0.0710,0.0150,0.0045,0.0122,0.0092,0.0052
1522,0.0855,0.0064,0.0939,0.0131,0.0025,0.0101,0.0040,0.0035
1523,0.0777,0.0053,0.0855,0.0125,0.0023,0.0082,0.0034,0.0025
1524,0.0171,0.0099,0.0191,0.0155,0.0122,0.0116,0.0090,0.0048
1525,0.0664,0.0054,0.0727,0.0130,0.0035,0.0081,0.0033,0.0027
1526,0.0609,0.0070,0.0667,0.0115,0.0049,0.0092,0.0038,0.0032
1527,0.0573,0.0080,0.0621,0.0126,0.0063,0.0098,0.0044,0.0037
1528,0.0715,0.0086,0.0715,0.0498,0.0087,0.0150,0.0111,0.0065
1529,0.0984,0.0059,0.0992,0.0583,0.0054,0.0101,0.0074,0.0051
1530,0.0934,0.0066,0.1162,0.0597,0.0037,0.0137,0.0088,0.0042
1531,0.0758,0.0055,0.0784,0.0547,0.0039,0.0099,0.0074,0.0045
1532,0.0574,0.0055,0.0596,0.0456,0.0034,0.0101,0.0075,0.0045
1533,0.0671,0.0057,0.0667,0.0405,0.0038,0.0088,0.0070,0.0047
1534,0.0591,0.0058,0.0582,0.0363,0.0049,0.0102,0.0076,0.0048
1535,0.0237,0.0095,0.0261,0.0188,0.0163,0.0118,0.0097,0.0047
1536,0.0693,0.0072,0.0790,0.0511,0.0141,0.0202,0.0128,0.0040
1537,0.0906,0.0073,0.1007,0.0532,0.0082,0.0136,0.0095,0.0048
1538,0.0784,0.0070,0.0871,0.0474,0.0042,0.0120,0.0113,0.0039
1539,0.0679,0.0065,0.0745,0.0401,0.0050,0.0120,0.0120,0.0037
1540,0.0731,0.0064,0.0790,0.0390,0.0078,0.0125,0.0090,0.0049
1541,0.0669,0.0061,0.0720,0.0362,0.0104,0.0141,0.0101,0.0052
1542,0.0886,0.0080,0.1085,0.0179,0.0033,0.0102,0.0092,0.0060
1543,0.0576,0.0078,0.0660,0.0159,0.0041,0.0140,0.0120,0.0079
1544,0.0728,0.0050,0.0854,0.0120,0.0023,0.0129,0.0045,0.0047
1545,0.0578,0.0045,0.0693,0.0176,0.0023,0.0104,0.0042,0.0034
1546,0.0237,0.0079,0.0253,0.0151,0.0079,0.0101,0.0093,0.0041
1547,0.0475,0.0045,0.0567,0.0196,0.0034,0.0100,0.0042,0.0035
1548,0.0447,0.0051,0.0530,0.0113,0.0046,0.0122,0.0044,0.0040
1549,0.0465,0.0061,0.0528,0.0119,0.0059,0.0129,0.0050,0.0048
1550,0.0828,0.0153,0.0880,0.0309,0.0080,0.0130,0.0079,0.0073
1551,0.0872,0.0116,0.0933,0.0500,0.0052,0.0098,0.0071,0.0052
1552,0.0775,0.0106,0.0825,0.0432,0.0041,0.0099,0.0062,0.0053
1553,0.0627,0.0106,0.0664,0.0337,0.0038,0.0099,0.0062,0.0054
1554,0.0731,0.0096,0.0885,0.0178,0.0023,0.0097,0.0055,0.0055
1555,0.0624,0.0102,0.0652,0.0325,0.0039,0.0094,0.0067,0.0049
1556,0.0555,0.0112,0.0584,0.0280,0.0048,0.0097,0.0068,0.0051
1557,0.0569,0.0126,0.0761,0.0164,0.0087,0.0100,0.0046,0.0076
1558,0.0397,0.0063,0.0432,0.0133,0.0038,0.0091,0.0056,0.0029
1559,0.0598,0.0121,0.0572,0.0312,0.0255,0.0114,0.0176,0.0111
1560,0.0525,0.0173,0.0503,0.0299,0.0149,0.0090,0.0171,0.0059
1561,0.0670,0.0147,0.0632,0.0323,0.0070,0.0075,0.0109,0.0051
1562,0.0821,0.0139,0.0781,0.0402,0.0076,0.0076,0.0104,0.0056
1563,0.0673,0.0164,0.0624,0.0401,0.0129,0.0087,0.0152,0.0048
1564,0.0707,0.0154,0.0653,0.0430,0.0176,0.0097,0.0162,0.0077
1565,0.0627,0.0085,0.0623,0.0153,0.0078,0.0112,0.0053,0.0086
1566,0.0577,0.0085,0.0575,0.0141,0.0040,0.0102,0.0041,0.0036
1567,0.0732,0.0097,0.0893,0.0174,0.0021,0.0097,0.0038,0.0055
1568,0.0714,0.0054,0.0692,0.0151,0.0027,0.0099,0.0041,0.0051
1569,0.0329,0.0057,0.0353,0.0115,0.0025,0.0088,0.0042,0.0029
1570,0.0901,0.0058,0.0878,0.0152,0.0043,0.0098,0.0045,0.0058
1571,0.0832,0.0072,0.0814,0.0139,0.0069,0.0101,0.0039,0.0032
1572,0.0850,0.0097,0.0839,0.0143,0.0091,0.0103,0.0046,0.0039
1573,0.0552,0.0144,0.0556,0.0373,0.0078,0.0106,0.0142,0.0044
1574,0.0547,0.0119,0.0557,0.0344,0.0069,0.0102,0.0115,0.0037
1575,0.0650,0.0091,0.0647,0.0393,0.0046,0.0098,0.0108,0.0030
1576,0.0814,0.0092,0.0810,0.0504,0.0036,0.0097,0.0109,0.0033
1577,0.0755,0.0120,0.0758,0.0503,0.0049,0.0092,0.0107,0.0043
1578,0.0693,0.0139,0.0709,0.0541,0.0062,0.0106,0.0121,0.0043
1579,0.0826,0.0096,0.1014,0.0173,0.0022,0.0096,0.0037,0.0056
1580,0.0243,0.0059,0.0260,0.0114,0.0042,0.0088,0.0045,0.0032
1581,0.0494,0.0083,0.0550,0.0321,0.0235,0.0127,0.0099,0.0065
1582,0.0430,0.0129,0.0482,0.0266,0.0138,0.0094,0.0105,0.0041
1583,0.0541,0.0097,0.0587,0.0295,0.0065,0.0092,0.0093,0.0039
1584,0.0672,0.0088,0.0726,0.0374,0.0070,0.0092,0.0094,0.0043
1585,0.0530,0.0114,0.0583,0.0379,0.0120,0.0094,0.0104,0.0037
1586,0.0575,0.0107,0.0634,0.0422,0.0163,0.0103,0.0100,0.0054
1587,0.0428,0.0102,0.0522,0.0163,0.0080,0.0125,0.0050,0.0043
1588,0.0390,0.0085,0.0474,0.0135,0.0040,0.0096,0.0037,0.0033
1589,0.0460,0.0046,0.0554,0.0118,0.0026,0.0092,0.0037,0.0026
1590,0.0601,0.0048,0.0710,0.0117,0.0042,0.0092,0.0039,0.0030
1591,0.0256,0.0058,0.0268,0.0114,0.0067,0.0091,0.0039,0.0037
1592,0.0226,0.0078,0.0245,0.0134,0.0088,0.0095,0.0049,0.0034
1593,0.0207,0.0079,0.0220,0.0172,0.0065,0.0105,0.0102,0.0069
1594,0.0304,0.0103,0.0297,0.0243,0.0058,0.0092,0.0082,0.0044
1595,0.1035,0.0107,0.1049,0.0681,0.0036,0.0089,0.0082,0.0037
1596,0.0250,0.0083,0.0255,0.0209,0.0041,0.0095,0.0084,0.0041
1597,0.0195,0.0086,0.0219,0.0160,0.0035,0.0095,0.0086,0.0042
1598,0.0878,0.0066,0.1023,0.0484,0.0059,0.0080,0.0158,0.0079
1599,0.0197,0.0114,0.0234,0.0160,0.0045,0.0080,0.0079,0.0043
1600,0.0206,0.0124,0.0262,0.0174,0.0057,0.0092,0.0087,0.0044
1601,0.0185,0.0078,0.0186,0.0196,0.0216,0.0136,0.0155,0.0054
1602,0.0192,0.0112,0.0212,0.0135,0.0128,0.0128,0.0104,0.0051
1603,0.0169,0.0074,0.0187,0.0135,0.0064,0.0127,0.0084,0.0040
1604,0.0159,0.0065,0.0170,0.0143,0.0068,0.0123,0.0085,0.0036
1605,0.0208,0.0089,0.0211,0.0151,0.0113,0.0130,0.0094,0.0048
1606,0.0183,0.0086,0.0201,0.0198,0.0153,0.0131,0.0120,0.0044
1607,0.1240,0.0110,0.1243,0.0785,0.0032,0.0090,0.0086,0.0036
1608,0.0192,0.0114,0.0203,0.0183,0.0084,0.0110,0.0106,0.0050
1609,0.0652,0.0078,0.0754,0.0424,0.0069,0.0122,0.0120,0.0071
1610,0.0271,0.0076,0.0302,0.0163,0.0041,0.0090,0.0078,0.0055
1611,0.0235,0.0057,0.0252,0.0154,0.0028,0.0087,0.0041,0.0036
1612,0.0184,0.0058,0.0195,0.0155,0.0042,0.0088,0.0042,0.0036
1613,0.0183,0.0069,0.0193,0.0145,0.0065,0.0092,0.0046,0.0061
1614,0.0175,0.0095,0.0199,0.0162,0.0086,0.0096,0.0073,0.0065
1615,0.0289,0.0070,0.0311,0.0198,0.0061,0.0112,0.0108,0.0089
1616,0.0272,0.0094,0.0260,0.0217,0.0055,0.0084,0.0101,0.0045
1617,0.0261,0.0089,0.0251,0.0207,0.0043,0.0089,0.0073,0.0044
1618,0.0201,0.0092,0.0218,0.0193,0.0038,0.0092,0.0075,0.0045
1619,0.1272,0.0084,0.1287,0.0833,0.0040,0.0073,0.0072,0.0040
1620,0.0575,0.0107,0.0671,0.0412,0.0061,0.0089,0.0123,0.0046
1621,0.0201,0.0112,0.0239,0.0209,0.0046,0.0075,0.0089,0.0049
1622,0.0233,0.0108,0.0321,0.0227,0.0056,0.0085,0.0105,0.0047
1623,0.0264,0.0144,0.0278,0.0354,0.0246,0.0212,0.0104,0.0094
1624,0.0276,0.0165,0.0309,0.0299,0.0142,0.0143,0.0088,0.0036
1625,0.0163,0.0124,0.0165,0.0219,0.0068,0.0080,0.0072,0.0034
1626,0.0192,0.0116,0.0178,0.0185,0.0076,0.0078,0.0072,0.0033
1627,0.0163,0.0147,0.0168,0.0187,0.0126,0.0119,0.0082,0.0034
1628,0.0193,0.0150,0.0195,0.0188,0.0171,0.0159,0.0088,0.0039
1629,0.0371,0.0083,0.0411,0.0131,0.0084,0.0142,0.0068,0.0055
1630,0.0447,0.0072,0.0524,0.0125,0.0038,0.0113,0.0049,0.0039
1631,0.0631,0.0106,0.0753,0.0448,0.0044,0.0087,0.0087,0.0050
1632,0.1387,0.0061,0.1420,0.0909,0.0057,0.0072,0.0085,0.0048
1633,0.0323,0.0064,0.0384,0.0144,0.0018,0.0098,0.0044,0.0043
1634,0.0242,0.0066,0.0291,0.0144,0.0040,0.0094,0.0046,0.0049
1635,0.0264,0.0069,0.0317,0.0131,0.0067,0.0101,0.0045,0.0036
1636,0.0257,0.0086,0.0307,0.0123,0.0091,0.0108,0.0051,0.0042
1637,0.0527,0.0105,0.0494,0.0172,0.0070,0.0153,0.0114,0.0073
1638,0.0532,0.0105,0.0541,0.0294,0.0061,0.0130,0.0097,0.0054
1639,0.0362,0.0080,0.0392,0.0222,0.0041,0.0105,0.0092,0.0054
1640,0.0274,0.0082,0.0304,0.0148,0.0032,0.0102,0.0094,0.0057
1641,0.0284,0.0110,0.0309,0.0147,0.0046,0.0099,0.0087,0.0053
1642,0.0751,0.0108,0.0906,0.0520,0.0038,0.0088,0.0085,0.0051
1643,0.0316,0.0124,0.0329,0.0160,0.0059,0.0133,0.0104,0.0057
1644,0.0741,0.0079,0.0837,0.0445,0.0082,0.0121,0.0101,0.0071
1645,0.0260,0.0111,0.0275,0.0263,0.0225,0.0213,0.0124,0.0080
1646,0.0350,0.0117,0.0381,0.0265,0.0129,0.0142,0.0091,0.0036
1647,0.0157,0.0071,0.0174,0.0183,0.0063,0.0097,0.0078,0.0043
1648,0.0141,0.0064,0.0158,0.0154,0.0071,0.0096,0.0078,0.0040
1649,0.0190,0.0093,0.0202,0.0158,0.0117,0.0122,0.0084,0.0047
1650,0.0208,0.0102,0.0220,0.0160,0.0159,0.0158,0.0100,0.0036
1651,0.0299,0.0079,0.0305,0.0131,0.0073,0.0132,0.0075,0.0055
1652,0.0359,0.0062,0.0399,0.0118,0.0034,0.0111,0.0052,0.0035
1653,0.0885,0.0097,0.1099,0.0174,0.0023,0.0100,0.0049,0.0054
1654,0.0716,0.0125,0.0886,0.0543,0.0048,0.0086,0.0113,0.0062
1655,0.0373,0.0058,0.0386,0.0111,0.0016,0.0101,0.0041,0.0027
1656,0.0315,0.0058,0.0314,0.0110,0.0038,0.0096,0.0042,0.0030
1657,0.0710,0.0068,0.0805,0.0412,0.0049,0.0088,0.0085,0.0050
1658,0.0286,0.0061,0.0291,0.0107,0.0063,0.0107,0.0040,0.0037
1659,0.0268,0.0075,0.0280,0.0118,0.0086,0.0109,0.0044,0.0035
1660,0.0390,0.0074,0.0356,0.0221,0.0064,0.0185,0.0098,0.0051
1661,0.0528,0.0107,0.0495,0.0290,0.0056,0.0129,0.0082,0.0051
1662,0.0366,0.0094,0.0345,0.0231,0.0039,0.0099,0.0079,0.0046
1663,0.0261,0.0097,0.0243,0.0166,0.0032,0.0099,0.0079,0.0047
1664,0.0279,0.0123,0.0251,0.0159,0.0043,0.0098,0.0080,0.0052
1665,0.0751,0.0116,0.0934,0.0551,0.0059,0.0098,0.0130,0.0053
1666,0.0293,0.0124,0.0260,0.0160,0.0056,0.0137,0.0085,0.0053
1667,0.0433,0.0109,0.0447,0.0245,0.0207,0.0241,0.0182,0.0056
1668,0.0571,0.0105,0.0610,0.0278,0.0119,0.0158,0.0111,0.0042
1669,0.0713,0.0059,0.0812,0.0435,0.0030,0.0086,0.0077,0.0034
1670,0.0281,0.0060,0.0302,0.0174,0.0057,0.0115,0.0087,0.0047
1671,0.0212,0.0054,0.0215,0.0144,0.0064,0.0113,0.0090,0.0043
1672,0.0379,0.0079,0.0376,0.0155,0.0108,0.0140,0.0094,0.0055
1673,0.0415,0.0090,0.0401,0.0162,0.0147,0.0176,0.0126,0.0042
1674,0.0188,0.0102,0.0193,0.0158,0.0071,0.0134,0.0079,0.0091
1675,0.0196,0.0069,0.0230,0.0139,0.0032,0.0113,0.0069,0.0060
1676,0.0516,0.0101,0.0503,0.0291,0.0246,0.0108,0.0131,0.0089
1677,0.0219,0.0060,0.0231,0.0138,0.0019,0.0104,0.0039,0.0040
1678,0.0197,0.0060,0.0194,0.0141,0.0038,0.0099,0.0039,0.0040
1679,0.0178,0.0067,0.0199,0.0133,0.0061,0.0113,0.0041,0.0057
1680,0.0184,0.0085,0.0216,0.0141,0.0081,0.0113,0.0056,0.0060
1681,0.0854,0.0058,0.0964,0.0529,0.0033,0.0088,0.0078,0.0033
1682,0.0260,0.0079,0.0257,0.0232,0.0060,0.0206,0.0101,0.0054
1683,0.0474,0.0100,0.0438,0.0264,0.0053,0.0119,0.0111,0.0053
1684,0.0375,0.0102,0.0340,0.0217,0.0040,0.0095,0.0075,0.0053
1685,0.0257,0.0105,0.0219,0.0182,0.0035,0.0097,0.0071,0.0054
1686,0.0275,0.0125,0.0221,0.0183,0.0044,0.0091,0.0104,0.0058
1687,0.0454,0.0142,0.0438,0.0287,0.0143,0.0086,0.0127,0.0049
1688,0.0232,0.0111,0.0220,0.0187,0.0055,0.0129,0.0110,0.0054
1689,0.0209,0.0162,0.0199,0.0332,0.0263,0.0092,0.0193,0.0088
1690,0.0164,0.0211,0.0149,0.0339,0.0155,0.0083,0.0188,0.0051
1691,0.0170,0.0164,0.0152,0.0364,0.0077,0.0063,0.0106,0.0049
1692,0.0194,0.0153,0.0164,0.0327,0.0083,0.0064,0.0098,0.0053
1693,0.1005,0.0074,0.1019,0.0677,0.0049,0.0070,0.0102,0.0045
1694,0.0992,0.0063,0.1109,0.0576,0.0039,0.0085,0.0079,0.0042
1695,0.0127,0.0191,0.0155,0.0310,0.0134,0.0076,0.0158,0.0046
1696,0.0160,0.0187,0.0156,0.0283,0.0180,0.0087,0.0176,0.0065
1697,0.0352,0.0090,0.0440,0.0142,0.0090,0.0094,0.0057,0.0098
1698,0.0559,0.0123,0.0536,0.0323,0.0068,0.0095,0.0085,0.0041
1699,0.0497,0.0075,0.0619,0.0134,0.0048,0.0092,0.0040,0.0053
1700,0.0328,0.0080,0.0436,0.0133,0.0033,0.0091,0.0037,0.0069
1701,0.0265,0.0083,0.0358,0.0135,0.0048,0.0090,0.0039,0.0074
1702,0.0334,0.0068,0.0437,0.0127,0.0072,0.0093,0.0036,0.0044
1703,0.0352,0.0090,0.0452,0.0133,0.0093,0.0090,0.0036,0.0051
1704,0.0592,0.0101,0.0632,0.0368,0.0074,0.0107,0.0112,0.0068
1705,0.0585,0.0081,0.0664,0.0536,0.0066,0.0108,0.0103,0.0038
1706,0.1154,0.0067,0.1282,0.0665,0.0041,0.0090,0.0085,0.0055
1707,0.0441,0.0056,0.0530,0.0483,0.0048,0.0099,0.0095,0.0039
1708,0.0376,0.0058,0.0457,0.0396,0.0040,0.0098,0.0097,0.0041
1709,0.0696,0.0116,0.0672,0.0408,0.0076,0.0097,0.0083,0.0044
1710,0.0410,0.0084,0.0487,0.0392,0.0050,0.0091,0.0095,0.0039
1711,0.0482,0.0106,0.0546,0.0356,0.0063,0.0105,0.0108,0.0040
1712,0.0212,0.0135,0.0212,0.0230,0.0244,0.0103,0.0095,0.0046
1713,0.0192,0.0177,0.0185,0.0265,0.0146,0.0084,0.0115,0.0044
1714,0.0188,0.0120,0.0183,0.0301,0.0074,0.0085,0.0087,0.0041
1715,0.0203,0.0108,0.0191,0.0273,0.0078,0.0084,0.0087,0.0042
1716,0.0183,0.0148,0.0212,0.0256,0.0126,0.0085,0.0104,0.0043
1717,0.0196,0.0149,0.0205,0.0235,0.0168,0.0092,0.0104,0.0046
1718,0.0872,0.0049,0.1008,0.0153,0.0023,0.0098,0.0069,0.0049
1719,0.0307,0.0100,0.0386,0.0152,0.0091,0.0095,0.0075,0.0054
1720,0.0754,0.0079,0.0876,0.0487,0.0054,0.0064,0.0083,0.0085
1721,0.0400,0.0066,0.0515,0.0132,0.0047,0.0085,0.0056,0.0033
1722,0.0330,0.0068,0.0422,0.0108,0.0031,0.0082,0.0036,0.0041
1723,0.0292,0.0069,0.0367,0.0106,0.0045,0.0083,0.0037,0.0044
1724,0.0325,0.0058,0.0402,0.0109,0.0069,0.0084,0.0037,0.0036
1725,0.0330,0.0085,0.0400,0.0131,0.0089,0.0088,0.0048,0.0037
1726,0.0378,0.0059,0.0431,0.0332,0.0068,0.0116,0.0091,0.0094
1727,0.0517,0.0076,0.0577,0.0446,0.0061,0.0097,0.0081,0.0036
1728,0.0401,0.0060,0.0465,0.0413,0.0045,0.0089,0.0076,0.0033
1729,0.0330,0.0063,0.0383,0.0342,0.0039,0.0090,0.0078,0.0034
1730,0.0770,0.0046,0.0867,0.0138,0.0017,0.0084,0.0036,0.0041
1731,0.0593,0.0135,0.0559,0.0408,0.0127,0.0088,0.0112,0.0040
1732,0.0370,0.0088,0.0410,0.0326,0.0048,0.0083,0.0079,0.0041
1733,0.0402,0.0097,0.0429,0.0303,0.0061,0.0099,0.0087,0.0039
1734,0.0226,0.0134,0.0254,0.0231,0.0228,0.0137,0.0101,0.0055
1735,0.0180,0.0173,0.0245,0.0244,0.0139,0.0096,0.0085,0.0049
1736,0.0167,0.0113,0.0231,0.0278,0.0069,0.0089,0.0090,0.0032
1737,0.0158,0.0100,0.0201,0.0253,0.0071,0.0086,0.0096,0.0030
1738,0.0276,0.0140,0.0336,0.0242,0.0116,0.0096,0.0084,0.0043
1739,0.0225,0.0143,0.0264,0.0223,0.0157,0.0101,0.0089,0.0042
1740,0.0237,0.0139,0.0308,0.0199,0.0097,0.0111,0.0082,0.0052
1741,0.0255,0.0077,0.0370,0.0170,0.0050,0.0081,0.0081,0.0054
1742,0.0654,0.0124,0.0617,0.0431,0.0174,0.0094,0.0122,0.0064
1743,0.0782,0.0049,0.0886,0.0139,0.0017,0.0070,0.0026,0.0039
1744,0.0203,0.0062,0.0281,0.0172,0.0031,0.0079,0.0037,0.0040
1745,0.0192,0.0062,0.0247,0.0173,0.0044,0.0080,0.0037,0.0041
1746,0.0209,0.0065,0.0269,0.0156,0.0066,0.0080,0.0045,0.0057
1747,0.0241,0.0103,0.0291,0.0166,0.0088,0.0087,0.0073,0.0068
1748,0.0209,0.0086,0.0253,0.0235,0.0064,0.0121,0.0108,0.0111
1749,0.0407,0.0072,0.0476,0.0311,0.0059,0.0084,0.0115,0.0038
1750,0.0358,0.0070,0.0427,0.0297,0.0046,0.0083,0.0068,0.0039
1751,0.0274,0.0073,0.0324,0.0245,0.0042,0.0085,0.0067,0.0042
1752,0.0304,0.0086,0.0334,0.0223,0.0050,0.0077,0.0101,0.0048
1753,0.0478,0.0074,0.0496,0.0150,0.0074,0.0110,0.0058,0.0063
1754,0.0265,0.0082,0.0291,0.0214,0.0061,0.0089,0.0121,0.0042
1755,0.0912,0.0049,0.1030,0.0140,0.0018,0.0069,0.0027,0.0039
1756,0.0181,0.0136,0.0186,0.0345,0.0255,0.0086,0.0145,0.0068
1757,0.0164,0.0179,0.0149,0.0318,0.0151,0.0079,0.0143,0.0046
1758,0.0134,0.0140,0.0130,0.0337,0.0076,0.0088,0.0080,0.0046
1759,0.0140,0.0131,0.0131,0.0307,0.0083,0.0090,0.0076,0.0047
1760,0.0115,0.0162,0.0139,0.0294,0.0133,0.0080,0.0117,0.0047
1761,0.0159,0.0155,0.0156,0.0276,0.0178,0.0086,0.0134,0.0055
1762,0.0440,0.0078,0.0505,0.0141,0.0085,0.0102,0.0083,0.0075
1763,0.0642,0.0069,0.0736,0.0133,0.0043,0.0092,0.0047,0.0046
1764,0.0577,0.0073,0.0692,0.0117,0.0066,0.0094,0.0034,0.0041
1765,0.0446,0.0077,0.0467,0.0139,0.0035,0.0099,0.0043,0.0031
1766,0.0501,0.0082,0.0591,0.0133,0.0030,0.0088,0.0043,0.0058
1767,0.0426,0.0085,0.0509,0.0135,0.0046,0.0087,0.0045,0.0063
1768,0.0961,0.0047,0.1098,0.0136,0.0019,0.0076,0.0030,0.0039
1769,0.0502,0.0066,0.0583,0.0127,0.0071,0.0090,0.0040,0.0037
1770,0.0504,0.0081,0.0577,0.0132,0.0093,0.0091,0.0040,0.0043
1771,0.0525,0.0100,0.0548,0.0348,0.0068,0.0097,0.0111,0.0058
1772,0.0543,0.0083,0.0598,0.0516,0.0061,0.0102,0.0106,0.0052
1773,0.0527,0.0056,0.0593,0.0484,0.0045,0.0104,0.0101,0.0059
1774,0.0470,0.0058,0.0531,0.0404,0.0037,0.0103,0.0103,0.0060
1775,0.0448,0.0086,0.0502,0.0386,0.0047,0.0086,0.0096,0.0049
1776,0.0503,0.0057,0.0507,0.0150,0.0023,0.0097,0.0051,0.0041
1777,0.0458,0.0110,0.0503,0.0348,0.0060,0.0097,0.0111,0.0048
1778,0.0212,0.0106,0.0225,0.0227,0.0236,0.0108,0.0091,0.0048
1779,0.0203,0.0142,0.0190,0.0245,0.0141,0.0110,0.0099,0.0054
1780,0.1094,0.0044,0.1258,0.0136,0.0021,0.0081,0.0041,0.0042
1781,0.0160,0.0094,0.0163,0.0276,0.0073,0.0121,0.0078,0.0051
1782,0.0165,0.0084,0.0167,0.0253,0.0079,0.0119,0.0077,0.0048
1783,0.0166,0.0116,0.0187,0.0240,0.0125,0.0115,0.0091,0.0056
1784,0.0199,0.0115,0.0210,0.0229,0.0166,0.0117,0.0099,0.0049
1785,0.0365,0.0080,0.0419,0.0147,0.0085,0.0095,0.0113,0.0045
1786,0.0518,0.0059,0.0605,0.0133,0.0042,0.0089,0.0067,0.0029
1787,0.0669,0.0061,0.0670,0.0150,0.0042,0.0097,0.0055,0.0048
1788,0.0499,0.0073,0.0571,0.0109,0.0028,0.0084,0.0041,0.0034
1789,0.0460,0.0074,0.0514,0.0108,0.0044,0.0084,0.0043,0.0036
1790,0.0478,0.0057,0.0529,0.0110,0.0068,0.0088,0.0044,0.0033
1791,0.0451,0.0073,0.0494,0.0131,0.0089,0.0092,0.0061,0.0033
1792,0.0928,0.0058,0.1065,0.0547,0.0055,0.0098,0.0148,0.0074
1793,0.0346,0.0059,0.0377,0.0316,0.0062,0.0103,0.0089,0.0085
1794,0.0481,0.0080,0.0515,0.0431,0.0056,0.0094,0.0075,0.0049
1795,0.0480,0.0061,0.0521,0.0426,0.0042,0.0096,0.0077,0.0046
1796,0.0418,0.0065,0.0450,0.0360,0.0037,0.0096,0.0080,0.0046
1797,0.0398,0.0092,0.0418,0.0328,0.0045,0.0079,0.0072,0.0044
1798,0.0613,0.0068,0.0623,0.0138,0.0068,0.0098,0.0041,0.0028
1799,0.0382,0.0104,0.0397,0.0297,0.0057,0.0091,0.0079,0.0046
1800,0.0179,0.0108,0.0200,0.0225,0.0220,0.0127,0.0140,0.0071
1801,0.0159,0.0140,0.0192,0.0221,0.0134,0.0126,0.0101,0.0064
1802,0.0169,0.0087,0.0226,0.0252,0.0068,0.0126,0.0083,0.0048
1803,0.0166,0.0076,0.0209,0.0231,0.0073,0.0122,0.0084,0.0042
1804,0.0796,0.0061,0.0899,0.0553,0.0044,0.0079,0.0069,0.0068
1805,0.0248,0.0108,0.0293,0.0222,0.0116,0.0130,0.0093,0.0059
1806,0.0200,0.0110,0.0230,0.0217,0.0156,0.0130,0.0116,0.0053
1807,0.0229,0.0110,0.0283,0.0184,0.0089,0.0099,0.0128,0.0047
1808,0.0306,0.0066,0.0407,0.0171,0.0044,0.0087,0.0093,0.0048
1809,0.0646,0.0087,0.0667,0.0140,0.0091,0.0100,0.0041,0.0032
1810,0.0306,0.0069,0.0389,0.0168,0.0029,0.0083,0.0042,0.0036
1811,0.0293,0.0068,0.0349,0.0168,0.0043,0.0083,0.0042,0.0037
1812,0.0295,0.0061,0.0345,0.0154,0.0066,0.0088,0.0053,0.0054
1813,0.0293,0.0086,0.0328,0.0165,0.0087,0.0093,0.0088,0.0060
1814,0.0258,0.0077,0.0276,0.0231,0.0059,0.0108,0.0103,0.0108
1815,0.0382,0.0076,0.0426,0.0304,0.0054,0.0083,0.0096,0.0049
1816,0.1119,0.0116,0.1111,0.0719,0.0037,0.0075,0.0084,0.0048
1817,0.0865,0.0099,0.0965,0.0572,0.0037,0.0097,0.0080,0.0059
1818,0.0427,0.0071,0.0476,0.0320,0.0044,0.0090,0.0064,0.0043
1819,0.0353,0.0075,0.0383,0.0269,0.0040,0.0093,0.0066,0.0044
1820,0.0466,0.0143,0.0494,0.0385,0.0074,0.0107,0.0142,0.0043
1821,0.0326,0.0092,0.0338,0.0228,0.0046,0.0072,0.0083,0.0046
1822,0.0256,0.0091,0.0279,0.0211,0.0057,0.0081,0.0100,0.0047
1823,0.0294,0.0163,0.0316,0.0496,0.0250,0.0196,0.0101,0.0090
1824,0.0311,0.0180,0.0348,0.0458,0.0145,0.0137,0.0089,0.0037
1825,0.0178,0.0131,0.0197,0.0400,0.0072,0.0076,0.0069,0.0039
1826,0.0149,0.0122,0.0163,0.0355,0.0080,0.0073,0.0069,0.0037
1827,0.0245,0.0158,0.0280,0.0363,0.0129,0.0114,0.0081,0.0041
1828,0.0261,0.0164,0.0298,0.0359,0.0173,0.0153,0.0087,0.0038
1829,0.1042,0.0102,0.1149,0.0656,0.0034,0.0101,0.0086,0.0059
1830,0.0555,0.0083,0.0621,0.0126,0.0087,0.0129,0.0073,0.0066
1831,0.0466,0.0124,0.0490,0.0327,0.0065,0.0099,0.0119,0.0042
1832,0.0637,0.0070,0.0741,0.0120,0.0040,0.0105,0.0050,0.0050
1833,0.0568,0.0077,0.0650,0.0135,0.0020,0.0091,0.0042,0.0053
1834,0.0514,0.0079,0.0586,0.0136,0.0041,0.0087,0.0043,0.0057
1835,0.0547,0.0068,0.0624,0.0124,0.0067,0.0095,0.0043,0.0043
1836,0.0546,0.0080,0.0621,0.0117,0.0091,0.0100,0.0046,0.0050
1837,0.0776,0.0084,0.0767,0.0397,0.0067,0.0154,0.0099,0.0069
1838,0.0781,0.0085,0.0813,0.0556,0.0059,0.0132,0.0091,0.0057
1839,0.0653,0.0062,0.0702,0.0517,0.0042,0.0104,0.0086,0.0061
1840,0.0590,0.0065,0.0634,0.0433,0.0033,0.0102,0.0088,0.0063
1841,0.1051,0.0075,0.1178,0.0710,0.0038,0.0078,0.0066,0.0064
1842,0.0787,0.0107,0.0911,0.0506,0.0049,0.0089,0.0092,0.0089
1843,0.0596,0.0091,0.0630,0.0421,0.0046,0.0099,0.0081,0.0057
1844,0.0654,0.0108,0.0671,0.0377,0.0059,0.0134,0.0097,0.0059
1845,0.0310,0.0134,0.0340,0.0396,0.0229,0.0194,0.0116,0.0075
1846,0.0395,0.0135,0.0448,0.0412,0.0133,0.0135,0.0087,0.0042
1847,0.0206,0.0080,0.0241,0.0347,0.0067,0.0094,0.0075,0.0050
1848,0.0175,0.0071,0.0199,0.0304,0.0076,0.0093,0.0076,0.0047
1849,0.0322,0.0106,0.0354,0.0318,0.0120,0.0118,0.0082,0.0055
1850,0.0349,0.0119,0.0378,0.0316,0.0161,0.0151,0.0095,0.0040
1851,0.0417,0.0076,0.0467,0.0123,0.0077,0.0116,0.0086,0.0060
1852,0.0477,0.0063,0.0570,0.0114,0.0035,0.0103,0.0066,0.0036
1853,0.0529,0.0093,0.0549,0.0379,0.0043,0.0101,0.0113,0.0045
1854,0.1178,0.0054,0.1331,0.0778,0.0050,0.0076,0.0073,0.0068
1855,0.0524,0.0074,0.0591,0.0103,0.0018,0.0093,0.0040,0.0029
1856,0.0514,0.0072,0.0563,0.0102,0.0039,0.0089,0.0041,0.0032
1857,0.0473,0.0061,0.0527,0.0101,0.0064,0.0100,0.0043,0.0034
1858,0.0457,0.0069,0.0507,0.0112,0.0086,0.0100,0.0053,0.0036
1859,0.0598,0.0060,0.0604,0.0395,0.0061,0.0184,0.0088,0.0054
1860,0.0737,0.0085,0.0753,0.0495,0.0054,0.0130,0.0079,0.0051
1861,0.0618,0.0072,0.0644,0.0463,0.0039,0.0098,0.0074,0.0048
1862,0.0548,0.0075,0.0562,0.0394,0.0033,0.0098,0.0073,0.0049
1863,0.0570,0.0102,0.0565,0.0371,0.0043,0.0097,0.0077,0.0052
1864,0.0676,0.0094,0.0697,0.0495,0.0033,0.0101,0.0115,0.0048
1865,0.0595,0.0104,0.0575,0.0345,0.0056,0.0138,0.0080,0.0053
1866,0.0472,0.0073,0.0640,0.0380,0.0078,0.0138,0.0108,0.0082
1867,0.0489,0.0134,0.0545,0.0364,0.0211,0.0215,0.0182,0.0050
1868,0.0601,0.0126,0.0688,0.0409,0.0122,0.0148,0.0109,0.0050
1869,0.0324,0.0070,0.0397,0.0322,0.0061,0.0111,0.0086,0.0054
1870,0.0283,0.0062,0.0337,0.0279,0.0069,0.0110,0.0089,0.0050
1871,0.0507,0.0094,0.0560,0.0310,0.0110,0.0135,0.0092,0.0065
1872,0.0569,0.0108,0.0609,0.0318,0.0149,0.0167,0.0122,0.0051
1873,0.0243,0.0095,0.0281,0.0157,0.0077,0.0114,0.0087,0.0092
1874,0.0247,0.0064,0.0342,0.0138,0.0034,0.0103,0.0088,0.0054
1875,0.0616,0.0100,0.0741,0.0139,0.0088,0.0100,0.0034,0.0038
1876,0.0696,0.0124,0.0727,0.0510,0.0047,0.0089,0.0108,0.0042
1877,0.0278,0.0072,0.0360,0.0149,0.0020,0.0096,0.0040,0.0036
1878,0.0294,0.0070,0.0354,0.0150,0.0038,0.0093,0.0040,0.0037
1879,0.0461,0.0068,0.0641,0.0360,0.0046,0.0107,0.0090,0.0062
1880,0.0248,0.0063,0.0304,0.0138,0.0061,0.0106,0.0049,0.0051
1881,0.0260,0.0075,0.0312,0.0137,0.0081,0.0103,0.0073,0.0057
1882,0.0393,0.0090,0.0435,0.0326,0.0057,0.0203,0.0099,0.0063
1883,0.0641,0.0081,0.0673,0.0394,0.0052,0.0119,0.0112,0.0051
1884,0.0582,0.0082,0.0616,0.0361,0.0041,0.0093,0.0069,0.0051
1885,0.0498,0.0086,0.0512,0.0305,0.0036,0.0095,0.0065,0.0052
1886,0.0522,0.0104,0.0508,0.0275,0.0044,0.0091,0.0102,0.0054
1887,0.0697,0.0144,0.0743,0.0559,0.0060,0.0101,0.0124,0.0044
1888,0.0464,0.0092,0.0446,0.0271,0.0055,0.0129,0.0110,0.0052
1889,0.0339,0.0076,0.0305,0.0264,0.0337,0.0119,0.0195,0.0124
1890,0.0281,0.0098,0.0273,0.0265,0.0195,0.0092,0.0162,0.0084
1891,0.0501,0.0061,0.0694,0.0388,0.0027,0.0101,0.0096,0.0044
1892,0.0380,0.0083,0.0344,0.0279,0.0091,0.0084,0.0115,0.0055
1893,0.0506,0.0077,0.0466,0.0357,0.0093,0.0090,0.0098,0.0067
1894,0.0397,0.0097,0.0336,0.0366,0.0160,0.0097,0.0174,0.0052
1895,0.0444,0.0080,0.0374,0.0415,0.0220,0.0103,0.0148,0.0110
1896,0.0525,0.0054,0.0510,0.0130,0.0129,0.0131,0.0088,0.0130
1897,0.0457,0.0077,0.0463,0.0133,0.0066,0.0111,0.0072,0.0062
1898,0.0444,0.0063,0.0515,0.0301,0.0226,0.0129,0.0105,0.0056
1899,0.0595,0.0047,0.0578,0.0090,0.0045,0.0105,0.0067,0.0056
1900,0.0765,0.0048,0.0751,0.0090,0.0061,0.0105,0.0073,0.0068
1901,0.0677,0.0070,0.0664,0.0096,0.0089,0.0118,0.0071,0.0042
1902,0.0671,0.0074,0.0661,0.0139,0.0117,0.0118,0.0085,0.0080
1903,0.0656,0.0060,0.0868,0.0480,0.0029,0.0102,0.0098,0.0043
1904,0.0310,0.0119,0.0328,0.0221,0.0078,0.0115,0.0170,0.0052
1905,0.0349,0.0058,0.0382,0.0258,0.0066,0.0108,0.0145,0.0033
1906,0.0306,0.0052,0.0328,0.0225,0.0045,0.0098,0.0115,0.0029
1907,0.0387,0.0054,0.0409,0.0310,0.0035,0.0098,0.0111,0.0033
1908,0.0347,0.0056,0.0368,0.0291,0.0052,0.0098,0.0124,0.0032
1909,0.0371,0.0095,0.0428,0.0267,0.0132,0.0116,0.0095,0.0042
1910,0.0324,0.0062,0.0347,0.0284,0.0067,0.0117,0.0147,0.0038
1911,0.0240,0.0059,0.0270,0.0251,0.0311,0.0141,0.0120,0.0087
1912,0.0213,0.0081,0.0247,0.0214,0.0180,0.0099,0.0107,0.0063
1913,0.0283,0.0057,0.0304,0.0253,0.0085,0.0098,0.0095,0.0044
1914,0.0400,0.0051,0.0433,0.0338,0.0087,0.0102,0.0089,0.0055
1915,0.0731,0.0064,0.0954,0.0506,0.0035,0.0103,0.0087,0.0054
1916,0.0268,0.0070,0.0291,0.0330,0.0149,0.0098,0.0122,0.0043
1917,0.0300,0.0060,0.0330,0.0358,0.0204,0.0111,0.0103,0.0089
1918,0.0317,0.0050,0.0407,0.0147,0.0121,0.0172,0.0088,0.0108
1919,0.0271,0.0057,0.0353,0.0146,0.0062,0.0114,0.0064,0.0043
1920,0.0446,0.0072,0.0505,0.0302,0.0064,0.0124,0.0083,0.0040
1921,0.0342,0.0043,0.0442,0.0098,0.0041,0.0101,0.0058,0.0032
1922,0.0466,0.0045,0.0586,0.0098,0.0057,0.0103,0.0062,0.0040
1923,0.0424,0.0053,0.0550,0.0108,0.0084,0.0112,0.0071,0.0034
1924,0.0462,0.0053,0.0595,0.0153,0.0111,0.0125,0.0076,0.0061
1925,0.0319,0.0093,0.0403,0.0221,0.0074,0.0122,0.0159,0.0070
1926,0.0317,0.0071,0.0387,0.0250,0.0062,0.0103,0.0118,0.0035
1927,0.0827,0.0067,0.1066,0.0574,0.0037,0.0108,0.0088,0.0067
1928,0.0334,0.0073,0.0445,0.0204,0.0043,0.0094,0.0103,0.0040
1929,0.0415,0.0078,0.0555,0.0253,0.0035,0.0092,0.0101,0.0041
1930,0.0371,0.0072,0.0505,0.0246,0.0050,0.0096,0.0105,0.0042
1931,0.0565,0.0065,0.0633,0.0385,0.0071,0.0123,0.0083,0.0040
1932,0.0354,0.0072,0.0484,0.0234,0.0065,0.0113,0.0123,0.0039
1933,0.0240,0.0077,0.0325,0.0357,0.0290,0.0199,0.0114,0.0049
1934,0.0225,0.0108,0.0288,0.0232,0.0170,0.0112,0.0099,0.0047
1935,0.0349,0.0066,0.0405,0.0294,0.0082,0.0105,0.0097,0.0037
1936,0.0472,0.0057,0.0551,0.0380,0.0082,0.0105,0.0097,0.0045
1937,0.0283,0.0084,0.0367,0.0350,0.0140,0.0108,0.0103,0.0040
1938,0.0297,0.0080,0.0403,0.0370,0.0191,0.0122,0.0106,0.0065
1939,0.1326,0.0119,0.1306,0.0828,0.0033,0.0076,0.0086,0.0047
1940,0.0837,0.0068,0.1040,0.0169,0.0027,0.0127,0.0107,0.0078
1941,0.0204,0.0063,0.0277,0.0164,0.0119,0.0249,0.0095,0.0064
1942,0.0467,0.0083,0.0535,0.0391,0.0118,0.0118,0.0091,0.0041
1943,0.0203,0.0073,0.0272,0.0165,0.0060,0.0123,0.0055,0.0039
1944,0.0178,0.0058,0.0311,0.0115,0.0038,0.0103,0.0052,0.0034
1945,0.0239,0.0058,0.0420,0.0111,0.0051,0.0105,0.0056,0.0034
1946,0.0220,0.0069,0.0407,0.0135,0.0079,0.0114,0.0068,0.0049
1947,0.0245,0.0070,0.0452,0.0169,0.0105,0.0141,0.0066,0.0048
1948,0.0282,0.0113,0.0408,0.0241,0.0070,0.0149,0.0149,0.0063
1949,0.0297,0.0112,0.0385,0.0265,0.0060,0.0108,0.0101,0.0045
1950,0.0275,0.0128,0.0428,0.0225,0.0043,0.0104,0.0097,0.0062
1951,0.0318,0.0135,0.0528,0.0242,0.0037,0.0101,0.0096,0.0062
1952,0.0694,0.0087,0.0850,0.0164,0.0019,0.0124,0.0068,0.0071
1953,0.0545,0.0075,0.0621,0.0433,0.0162,0.0122,0.0098,0.0050
1954,0.0284,0.0122,0.0476,0.0244,0.0051,0.0110,0.0098,0.0065
1955,0.0297,0.0110,0.0495,0.0235,0.0065,0.0116,0.0109,0.0047
1956,0.0243,0.0075,0.0224,0.0239,0.0326,0.0140,0.0134,0.0080
1957,0.0204,0.0079,0.0205,0.0245,0.0189,0.0102,0.0116,0.0063
1958,0.0262,0.0070,0.0242,0.0269,0.0087,0.0114,0.0083,0.0033
1959,0.0369,0.0067,0.0344,0.0352,0.0091,0.0122,0.0078,0.0044
1960,0.0301,0.0078,0.0257,0.0355,0.0157,0.0097,0.0123,0.0035
1961,0.0369,0.0068,0.0318,0.0391,0.0216,0.0114,0.0110,0.0088
1962,0.0391,0.0059,0.0398,0.0132,0.0126,0.0125,0.0094,0.0076
1963,0.0386,0.0072,0.0400,0.0134,0.0061,0.0106,0.0069,0.0048
1964,0.0926,0.0110,0.1072,0.0577,0.0046,0.0095,0.0097,0.0090
1965,0.0689,0.0098,0.0853,0.0161,0.0019,0.0108,0.0044,0.0071
1966,0.0398,0.0050,0.0403,0.0091,0.0040,0.0102,0.0079,0.0046
1967,0.0546,0.0051,0.0554,0.0091,0.0058,0.0103,0.0087,0.0057
1968,0.0467,0.0065,0.0483,0.0097,0.0088,0.0111,0.0069,0.0034
1969,0.0465,0.0070,0.0487,0.0140,0.0117,0.0112,0.0075,0.0062
1970,0.0285,0.0119,0.0316,0.0225,0.0073,0.0133,0.0165,0.0042
1971,0.0265,0.0060,0.0292,0.0217,0.0061,0.0102,0.0147,0.0041
1972,0.0263,0.0052,0.0294,0.0234,0.0042,0.0101,0.0116,0.0041
1973,0.0330,0.0053,0.0371,0.0333,0.0034,0.0099,0.0111,0.0046
1974,0.0353,0.0056,0.0397,0.0334,0.0051,0.0094,0.0121,0.0039
1975,0.0308,0.0082,0.0418,0.0157,0.0073,0.0115,0.0075,0.0039
1976,0.0373,0.0064,0.0421,0.0338,0.0064,0.0109,0.0146,0.0042
1977,0.0771,0.0098,0.0965,0.0161,0.0021,0.0105,0.0043,0.0071
1978,0.0183,0.0060,0.0217,0.0211,0.0300,0.0142,0.0108,0.0060
1979,0.0169,0.0058,0.0185,0.0200,0.0174,0.0123,0.0098,0.0050
1980,0.0192,0.0047,0.0214,0.0246,0.0081,0.0133,0.0083,0.0031
1981,0.0286,0.0048,0.0327,0.0333,0.0086,0.0138,0.0081,0.0038
1982,0.0201,0.0051,0.0229,0.0321,0.0147,0.0116,0.0099,0.0036
1983,0.0255,0.0050,0.0296,0.0342,0.0201,0.0132,0.0108,0.0073
1984,0.0207,0.0060,0.0303,0.0144,0.0117,0.0139,0.0089,0.0073
1985,0.0249,0.0052,0.0268,0.0145,0.0056,0.0109,0.0063,0.0038
1986,0.0533,0.0100,0.0607,0.0354,0.0073,0.0114,0.0120,0.0060
1987,0.0290,0.0074,0.0366,0.0135,0.0035,0.0096,0.0047,0.0035
1988,0.0171,0.0049,0.0258,0.0099,0.0037,0.0102,0.0068,0.0029
1989,0.0238,0.0052,0.0369,0.0099,0.0055,0.0105,0.0075,0.0035
1990,0.0832,0.0092,0.1052,0.0160,0.0021,0.0119,0.0058,0.0069
1991,0.0214,0.0049,0.0353,0.0106,0.0083,0.0110,0.0066,0.0034
1992,0.0261,0.0049,0.0418,0.0151,0.0111,0.0118,0.0068,0.0052
1993,0.0321,0.0088,0.0428,0.0195,0.0069,0.0122,0.0156,0.0048
1994,0.0255,0.0070,0.0354,0.0202,0.0057,0.0101,0.0122,0.0042
1995,0.0258,0.0070,0.0376,0.0197,0.0040,0.0098,0.0104,0.0039
1996,0.0314,0.0074,0.0472,0.0261,0.0033,0.0094,0.0100,0.0042
1997,0.0338,0.0070,0.0506,0.0276,0.0048,0.0094,0.0103,0.0041
1998,0.0278,0.0050,0.0380,0.0120,0.0023,0.0094,0.0045,0.0029
1999,0.0377,0.0071,0.0550,0.0272,0.0062,0.0105,0.0122,0.0043
2000,0.0208,0.0059,0.0314,0.0320,0.0279,0.0162,0.0152,0.0048
2001,0.0180,0.0075,0.0245,0.0230,0.0163,0.0138,0.0118,0.0043
2002,0.0986,0.0083,0.1241,0.0160,0.0022,0.0122,0.0073,0.0070
2003,0.0276,0.0049,0.0344,0.0293,0.0078,0.0140,0.0091,0.0033
2004,0.0386,0.0047,0.0478,0.0379,0.0081,0.0139,0.0088,0.0034
2005,0.0240,0.0058,0.0337,0.0348,0.0138,0.0131,0.0104,0.0042
2006,0.0278,0.0055,0.0403,0.0367,0.0189,0.0142,0.0135,0.0056
2007,0.0200,0.0065,0.0187,0.0155,0.0113,0.0193,0.0082,0.0047
2008,0.0301,0.0063,0.0232,0.0163,0.0054,0.0116,0.0057,0.0039
2009,0.0372,0.0052,0.0500,0.0119,0.0041,0.0094,0.0048,0.0031
2010,0.0227,0.0060,0.0184,0.0113,0.0034,0.0105,0.0061,0.0036
2011,0.0160,0.0060,0.0211,0.0110,0.0051,0.0108,0.0069,0.0035
2012,0.0163,0.0061,0.0225,0.0132,0.0078,0.0112,0.0062,0.0049
2013,0.0154,0.0061,0.0299,0.0168,0.0105,0.0131,0.0060,0.0046
2014,0.0909,0.0068,0.1076,0.0473,0.0058,0.0098,0.0147,0.0103
2015,0.0266,0.0106,0.0416,0.0211,0.0065,0.0136,0.0147,0.0053
2016,0.0220,0.0108,0.0321,0.0219,0.0055,0.0105,0.0104,0.0046
2017,0.0228,0.0122,0.0326,0.0205,0.0041,0.0103,0.0099,0.0054
2018,0.0207,0.0130,0.0398,0.0230,0.0036,0.0099,0.0097,0.0056
2019,0.0207,0.0117,0.0419,0.0251,0.0048,0.0104,0.0093,0.0057
2020,0.0370,0.0067,0.0507,0.0119,0.0066,0.0096,0.0038,0.0044
2021,0.0258,0.0106,0.0507,0.0248,0.0062,0.0107,0.0105,0.0048
2022,0.0249,0.0104,0.0255,0.0231,0.0320,0.0245,0.0135,0.0070
2023,0.0215,0.0104,0.0230,0.0214,0.0184,0.0162,0.0093,0.0051
2024,0.0216,0.0074,0.0209,0.0235,0.0083,0.0095,0.0079,0.0035
2025,0.0313,0.0070,0.0306,0.0319,0.0088,0.0093,0.0082,0.0039
2026,0.0738,0.0074,0.0874,0.0473,0.0053,0.0076,0.0077,0.0107
2027,0.0314,0.0092,0.0290,0.0326,0.0153,0.0151,0.0092,0.0036
2028,0.0367,0.0093,0.0340,0.0368,0.0211,0.0186,0.0099,0.0057
2029,0.0314,0.0081,0.0322,0.0119,0.0128,0.0176,0.0105,0.0067
2030,0.0304,0.0077,0.0333,0.0121,0.0060,0.0118,0.0081,0.0053
2031,0.0437,0.0086,0.0590,0.0138,0.0088,0.0100,0.0041,0.0038
2032,0.0297,0.0056,0.0309,0.0089,0.0025,0.0110,0.0082,0.0046
2033,0.0423,0.0056,0.0436,0.0089,0.0050,0.0109,0.0088,0.0056
2034,0.0396,0.0072,0.0412,0.0086,0.0083,0.0106,0.0080,0.0042
2035,0.0419,0.0081,0.0437,0.0129,0.0115,0.0118,0.0087,0.0070
2036,0.0326,0.0083,0.0325,0.0215,0.0072,0.0144,0.0153,0.0105
2037,0.0378,0.0058,0.0381,0.0228,0.0060,0.0141,0.0128,0.0043
2038,0.0754,0.0102,0.0889,0.0489,0.0049,0.0098,0.0086,0.0108
2039,0.0251,0.0054,0.0272,0.0219,0.0041,0.0107,0.0107,0.0045
2040,0.0263,0.0055,0.0305,0.0316,0.0033,0.0103,0.0102,0.0050
2041,0.0276,0.0058,0.0318,0.0307,0.0051,0.0111,0.0107,0.0045
2042,0.0491,0.0102,0.0597,0.0346,0.0068,0.0114,0.0121,0.0055
2043,0.0286,0.0061,0.0324,0.0310,0.0064,0.0152,0.0130,0.0045
2044,0.0229,0.0086,0.0223,0.0185,0.0292,0.0268,0.0151,0.0074
2045,0.0236,0.0076,0.0230,0.0173,0.0167,0.0171,0.0105,0.0037
2046,0.0160,0.0050,0.0178,0.0208,0.0076,0.0106,0.0082,0.0026
2047,0.0242,0.0050,0.0292,0.0298,0.0082,0.0103,0.0081,0.0025
2048,0.0218,0.0059,0.0255,0.0289,0.0142,0.0158,0.0091,0.0034
2049,0.0251,0.0066,0.0295,0.0312,0.0197,0.0198,0.0120,0.0044
2050,0.0885,0.0105,0.1044,0.0558,0.0046,0.0103,0.0091,0.0109
2051,0.0212,0.0081,0.0206,0.0124,0.0114,0.0168,0.0109,0.0070
2052,0.0169,0.0058,0.0191,0.0138,0.0053,0.0118,0.0076,0.0043
2053,0.0447,0.0128,0.0536,0.0323,0.0060,0.0095,0.0092,0.0042
2054,0.0153,0.0055,0.0188,0.0094,0.0021,0.0117,0.0073,0.0029
2055,0.0180,0.0056,0.0276,0.0095,0.0046,0.0117,0.0078,0.0034
2056,0.0230,0.0054,0.0336,0.0097,0.0078,0.0110,0.0076,0.0033
2057,0.0299,0.0057,0.0420,0.0147,0.0108,0.0118,0.0078,0.0061
2058,0.0323,0.0081,0.0343,0.0215,0.0067,0.0182,0.0140,0.0064
2059,0.0352,0.0068,0.0349,0.0230,0.0056,0.0149,0.0106,0.0042
2060,0.0237,0.0069,0.0297,0.0180,0.0039,0.0107,0.0095,0.0043
2061,0.0224,0.0073,0.0357,0.0235,0.0033,0.0104,0.0091,0.0047
2062,0.1344,0.0091,0.1334,0.0868,0.0041,0.0067,0.0086,0.0044
2063,0.0945,0.0084,0.1129,0.0605,0.0048,0.0077,0.0075,0.0107
2064,0.0485,0.0107,0.0591,0.0355,0.0041,0.0096,0.0092,0.0039
2065,0.0239,0.0068,0.0368,0.0238,0.0049,0.0113,0.0092,0.0044
2066,0.0261,0.0070,0.0382,0.0223,0.0062,0.0166,0.0109,0.0046
2067,0.0279,0.0099,0.0333,0.0227,0.0269,0.0301,0.0201,0.0057
2068,0.0243,0.0081,0.0276,0.0200,0.0154,0.0187,0.0130,0.0037
2069,0.0264,0.0048,0.0340,0.0260,0.0071,0.0122,0.0090,0.0036
2070,0.0368,0.0049,0.0472,0.0349,0.0077,0.0119,0.0088,0.0031
2071,0.0271,0.0058,0.0377,0.0321,0.0133,0.0176,0.0102,0.0049
2072,0.0267,0.0069,0.0383,0.0325,0.0184,0.0219,0.0144,0.0042
2073,0.0292,0.0084,0.0182,0.0139,0.0107,0.0201,0.0111,0.0068
2074,0.0222,0.0068,0.0158,0.0159,0.0052,0.0121,0.0074,0.0043
2075,0.0605,0.0109,0.0735,0.0443,0.0033,0.0096,0.0095,0.0040
2076,0.1142,0.0069,0.1358,0.0656,0.0055,0.0075,0.0079,0.0105
2077,0.0248,0.0065,0.0154,0.0104,0.0024,0.0119,0.0067,0.0038
2078,0.0219,0.0064,0.0172,0.0101,0.0045,0.0119,0.0071,0.0038
2079,0.0213,0.0064,0.0273,0.0130,0.0075,0.0113,0.0071,0.0042
2080,0.0238,0.0066,0.0350,0.0166,0.0102,0.0122,0.0071,0.0051
2081,0.0396,0.0112,0.0357,0.0247,0.0063,0.0238,0.0132,0.0062
2082,0.0444,0.0097,0.0369,0.0269,0.0053,0.0149,0.0095,0.0051
2083,0.0345,0.0120,0.0274,0.0195,0.0039,0.0110,0.0088,0.0061
2084,0.0250,0.0128,0.0261,0.0200,0.0035,0.0109,0.0085,0.0063
2085,0.0282,0.0107,0.0272,0.0207,0.0048,0.0115,0.0090,0.0058
2086,0.0969,0.0089,0.1137,0.0621,0.0049,0.0067,0.0079,0.0087
2087,0.0255,0.0098,0.0313,0.0197,0.0061,0.0170,0.0099,0.0050
2088,0.0477,0.0139,0.0508,0.0249,0.0100,0.0075,0.0109,0.0033
2089,0.0173,0.0081,0.0161,0.0213,0.0341,0.0102,0.0188,0.0115
2090,0.0147,0.0113,0.0161,0.0190,0.0199,0.0086,0.0167,0.0072
2091,0.0177,0.0086,0.0157,0.0199,0.0095,0.0080,0.0110,0.0047
2092,0.0212,0.0077,0.0172,0.0178,0.0098,0.0087,0.0091,0.0059
2093,0.0134,0.0106,0.0146,0.0180,0.0163,0.0088,0.0174,0.0044
2094,0.0168,0.0089,0.0140,0.0205,0.0222,0.0094,0.0148,0.0100
2095,0.0219,0.0056,0.0242,0.0130,0.0135,0.0109,0.0075,0.0128
2096,0.0350,0.0077,0.0421,0.0140,0.0073,0.0102,0.0054,0.0060
2097,0.0522,0.0121,0.0587,0.0344,0.0064,0.0095,0.0096,0.0041
2098,0.0622,0.0138,0.0769,0.0473,0.0044,0.0085,0.0088,0.0045
2099,0.0209,0.0049,0.0208,0.0090,0.0054,0.0098,0.0054,0.0058
2100,0.0282,0.0050,0.0253,0.0089,0.0068,0.0098,0.0059,0.0070
2101,0.0502,0.0131,0.0558,0.0325,0.0062,0.0063,0.0083,0.0037
2102,0.0207,0.0070,0.0208,0.0099,0.0094,0.0109,0.0056,0.0042
2103,0.0211,0.0075,0.0220,0.0142,0.0120,0.0106,0.0061,0.0076
2104,0.0354,0.0133,0.0398,0.0260,0.0081,0.0105,0.0151,0.0051
2105,0.0398,0.0060,0.0463,0.0416,0.0066,0.0105,0.0145,0.0034
2106,0.0306,0.0052,0.0355,0.0297,0.0047,0.0090,0.0108,0.0030
2107,0.0270,0.0052,0.0309,0.0209,0.0038,0.0090,0.0104,0.0034
2108,0.0291,0.0055,0.0336,0.0224,0.0053,0.0090,0.0120,0.0033
2109,0.0651,0.0145,0.0814,0.0509,0.0056,0.0097,0.0097,0.0045
2110,0.0343,0.0064,0.0386,0.0227,0.0069,0.0111,0.0146,0.0037
2111,0.0191,0.0072,0.0181,0.0148,0.0315,0.0120,0.0106,0.0074
2112,0.0193,0.0105,0.0212,0.0150,0.0185,0.0094,0.0106,0.0051
2113,0.0516,0.0123,0.0574,0.0305,0.0039,0.0076,0.0080,0.0052
2114,0.0194,0.0064,0.0181,0.0147,0.0090,0.0099,0.0088,0.0037
2115,0.0217,0.0054,0.0197,0.0145,0.0092,0.0103,0.0080,0.0047
2116,0.0198,0.0085,0.0207,0.0145,0.0153,0.0092,0.0117,0.0038
2117,0.0197,0.0075,0.0192,0.0167,0.0207,0.0104,0.0099,0.0075
2118,0.0173,0.0048,0.0194,0.0145,0.0128,0.0139,0.0070,0.0104
2119,0.0236,0.0056,0.0284,0.0152,0.0068,0.0105,0.0048,0.0041
2120,0.0292,0.0059,0.0386,0.0354,0.0211,0.0149,0.0170,0.0043
2121,0.0152,0.0044,0.0178,0.0098,0.0048,0.0095,0.0047,0.0035
2122,0.0175,0.0047,0.0206,0.0096,0.0062,0.0097,0.0050,0.0043
2123,0.0155,0.0051,0.0181,0.0110,0.0088,0.0106,0.0054,0.0036
2124,0.0162,0.0054,0.0182,0.0153,0.0114,0.0114,0.0052,0.0057
2125,0.0417,0.0121,0.0452,0.0238,0.0042,0.0084,0.0081,0.0053
2126,0.0227,0.0097,0.0247,0.0260,0.0077,0.0118,0.0136,0.0072
2127,0.0261,0.0065,0.0281,0.0370,0.0063,0.0104,0.0111,0.0035
2128,0.0217,0.0060,0.0232,0.0286,0.0045,0.0090,0.0093,0.0036
2129,0.0218,0.0064,0.0246,0.0213,0.0038,0.0089,0.0091,0.0038
2130,0.0218,0.0064,0.0235,0.0217,0.0051,0.0093,0.0096,0.0040
2131,0.0280,0.0086,0.0348,0.0251,0.0124,0.0131,0.0109,0.0042
2132,0.0241,0.0067,0.0244,0.0229,0.0067,0.0111,0.0116,0.0038
2133,0.0153,0.0106,0.0168,0.0215,0.0295,0.0172,0.0099,0.0043
2134,0.0142,0.0140,0.0170,0.0125,0.0175,0.0108,0.0095,0.0041
2135,0.0213,0.0079,0.0192,0.0123,0.0086,0.0107,0.0090,0.0031
2136,0.0269,0.0066,0.0260,0.0153,0.0086,0.0107,0.0090,0.0036
2137,0.0435,0.0126,0.0440,0.0239,0.0053,0.0063,0.0081,0.0044
2138,0.0149,0.0106,0.0169,0.0139,0.0144,0.0105,0.0098,0.0041
2139,0.0163,0.0106,0.0183,0.0168,0.0195,0.0116,0.0101,0.0052
2140,0.0256,0.0062,0.0254,0.0162,0.0125,0.0210,0.0068,0.0061
2141,0.0250,0.0068,0.0280,0.0169,0.0066,0.0112,0.0046,0.0041
2142,0.0295,0.0061,0.0378,0.0280,0.0060,0.0128,0.0087,0.0034
2143,0.0171,0.0049,0.0188,0.0124,0.0042,0.0098,0.0043,0.0036
2144,0.0162,0.0050,0.0182,0.0117,0.0055,0.0100,0.0047,0.0038
2145,0.0189,0.0061,0.0186,0.0140,0.0081,0.0108,0.0050,0.0051
2146,0.0209,0.0066,0.0188,0.0167,0.0107,0.0129,0.0045,0.0048
2147,0.0186,0.0105,0.0202,0.0246,0.0073,0.0148,0.0119,0.0068
2148,0.0247,0.0099,0.0246,0.0334,0.0062,0.0110,0.0086,0.0041
2149,0.0536,0.0129,0.0519,0.0289,0.0061,0.0066,0.0083,0.0036
2150,0.0206,0.0106,0.0202,0.0289,0.0045,0.0104,0.0083,0.0053
2151,0.0189,0.0113,0.0207,0.0230,0.0040,0.0103,0.0083,0.0055
2152,0.0220,0.0106,0.0199,0.0223,0.0052,0.0109,0.0084,0.0060
2153,0.0385,0.0055,0.0489,0.0361,0.0065,0.0125,0.0088,0.0033
2154,0.0220,0.0099,0.0205,0.0237,0.0068,0.0117,0.0095,0.0045
2155,0.0140,0.0072,0.0142,0.0240,0.0331,0.0132,0.0125,0.0071
2156,0.0123,0.0090,0.0134,0.0188,0.0192,0.0101,0.0120,0.0052
2157,0.0139,0.0071,0.0142,0.0193,0.0091,0.0117,0.0078,0.0029
2158,0.0138,0.0066,0.0121,0.0181,0.0096,0.0125,0.0071,0.0037
2159,0.0128,0.0084,0.0153,0.0183,0.0161,0.0095,0.0123,0.0031
2160,0.0148,0.0071,0.0139,0.0203,0.0219,0.0113,0.0110,0.0078
2161,0.0590,0.0058,0.0621,0.0156,0.0025,0.0120,0.0040,0.0037
2162,0.0242,0.0059,0.0262,0.0133,0.0133,0.0117,0.0104,0.0074
2163,0.0485,0.0070,0.0531,0.0144,0.0068,0.0100,0.0056,0.0045
2164,0.0291,0.0070,0.0395,0.0362,0.0110,0.0132,0.0097,0.0040
2165,0.0232,0.0051,0.0263,0.0093,0.0048,0.0097,0.0064,0.0046
2166,0.0201,0.0053,0.0212,0.0092,0.0065,0.0098,0.0071,0.0058
2167,0.0241,0.0063,0.0263,0.0101,0.0092,0.0105,0.0055,0.0033
2168,0.0279,0.0069,0.0293,0.0145,0.0120,0.0104,0.0055,0.0058
2169,0.0310,0.0132,0.0335,0.0210,0.0076,0.0115,0.0144,0.0044
2170,0.0335,0.0061,0.0369,0.0348,0.0060,0.0095,0.0146,0.0042
2171,0.0346,0.0051,0.0374,0.0266,0.0044,0.0094,0.0110,0.0044
2172,0.0314,0.0052,0.0338,0.0199,0.0036,0.0093,0.0105,0.0049
2173,0.0799,0.0052,0.0863,0.0125,0.0019,0.0082,0.0022,0.0040
2174,0.0302,0.0054,0.0329,0.0198,0.0050,0.0085,0.0118,0.0041
2175,0.0351,0.0066,0.0480,0.0418,0.0150,0.0134,0.0125,0.0042
2176,0.0307,0.0067,0.0333,0.0195,0.0064,0.0099,0.0144,0.0042
2177,0.0187,0.0058,0.0173,0.0145,0.0305,0.0129,0.0095,0.0049
2178,0.0187,0.0075,0.0186,0.0147,0.0178,0.0125,0.0097,0.0041
2179,0.0187,0.0049,0.0177,0.0144,0.0086,0.0139,0.0077,0.0033
2180,0.0185,0.0045,0.0168,0.0149,0.0091,0.0143,0.0075,0.0034
2181,0.0216,0.0060,0.0212,0.0147,0.0150,0.0118,0.0096,0.0038
2182,0.0204,0.0053,0.0195,0.0166,0.0204,0.0134,0.0105,0.0061
2183,0.0222,0.0055,0.0208,0.0143,0.0124,0.0116,0.0102,0.0069
2184,0.0384,0.0050,0.0389,0.0153,0.0063,0.0104,0.0054,0.0035
2185,0.1431,0.0065,0.1435,0.0936,0.0058,0.0069,0.0112,0.0045
2186,0.0321,0.0119,0.0456,0.0185,0.0078,0.0130,0.0086,0.0055
2187,0.0601,0.0053,0.0689,0.0122,0.0019,0.0081,0.0039,0.0047
2188,0.0266,0.0052,0.0258,0.0099,0.0044,0.0098,0.0055,0.0029
2189,0.0223,0.0054,0.0205,0.0097,0.0060,0.0102,0.0061,0.0035
2190,0.0272,0.0046,0.0240,0.0109,0.0086,0.0107,0.0051,0.0033
2191,0.0267,0.0047,0.0225,0.0154,0.0114,0.0112,0.0050,0.0047
2192,0.0251,0.0091,0.0262,0.0209,0.0072,0.0107,0.0129,0.0051
2193,0.0239,0.0063,0.0243,0.0305,0.0057,0.0098,0.0114,0.0043
2194,0.0252,0.0057,0.0245,0.0260,0.0042,0.0095,0.0095,0.0040
2195,0.0239,0.0061,0.0242,0.0201,0.0036,0.0093,0.0091,0.0043
2196,0.0235,0.0061,0.0257,0.0188,0.0048,0.0090,0.0094,0.0041
2197,0.0301,0.0092,0.0406,0.0160,0.0037,0.0096,0.0064,0.0063
2198,0.0242,0.0066,0.0275,0.0188,0.0063,0.0102,0.0115,0.0044
2199,0.0505,0.0053,0.0565,0.0121,0.0022,0.0083,0.0042,0.0047
2200,0.0134,0.0079,0.0172,0.0185,0.0284,0.0143,0.0141,0.0054
2201,0.0124,0.0105,0.0140,0.0120,0.0169,0.0144,0.0115,0.0047
2202,0.0169,0.0058,0.0164,0.0122,0.0083,0.0148,0.0087,0.0039
2203,0.0211,0.0050,0.0219,0.0157,0.0086,0.0146,0.0084,0.0033
2204,0.0134,0.0075,0.0154,0.0141,0.0142,0.0136,0.0102,0.0051
2205,0.0159,0.0073,0.0194,0.0170,0.0193,0.0145,0.0132,0.0048
2206,0.0301,0.0057,0.0257,0.0154,0.0120,0.0159,0.0094,0.0043
2207,0.0387,0.0056,0.0372,0.0170,0.0060,0.0109,0.0057,0.0038
2208,0.0601,0.0103,0.0687,0.0380,0.0043,0.0092,0.0091,0.0036
2209,0.1127,0.0074,0.1325,0.0670,0.0057,0.0063,0.0086,0.0085
2210,0.0334,0.0054,0.0304,0.0121,0.0038,0.0101,0.0052,0.0035
2211,0.0317,0.0055,0.0260,0.0115,0.0054,0.0104,0.0058,0.0035
2212,0.0506,0.0052,0.0562,0.0121,0.0024,0.0075,0.0027,0.0043
2213,0.0352,0.0053,0.0279,0.0137,0.0080,0.0110,0.0048,0.0050
2214,0.0343,0.0054,0.0253,0.0168,0.0107,0.0122,0.0048,0.0043
2215,0.0227,0.0097,0.0237,0.0211,0.0068,0.0124,0.0114,0.0057
2216,0.0235,0.0094,0.0207,0.0280,0.0055,0.0105,0.0087,0.0044
2217,0.0286,0.0100,0.0227,0.0273,0.0043,0.0104,0.0085,0.0048
2218,0.0263,0.0108,0.0200,0.0223,0.0039,0.0102,0.0085,0.0051
2219,0.0251,0.0101,0.0198,0.0197,0.0049,0.0104,0.0078,0.0053
2220,0.0304,0.0060,0.0437,0.0145,0.0027,0.0093,0.0041,0.0041
2221,0.0214,0.0095,0.0223,0.0198,0.0063,0.0107,0.0090,0.0047
2222,0.0321,0.0114,0.0340,0.0276,0.0325,0.0213,0.0121,0.0065
2223,0.0283,0.0115,0.0315,0.0267,0.0187,0.0146,0.0087,0.0042
2224,0.0520,0.0053,0.0567,0.0122,0.0025,0.0084,0.0024,0.0039
2225,0.0176,0.0075,0.0182,0.0237,0.0087,0.0090,0.0071,0.0034
2226,0.0151,0.0069,0.0147,0.0205,0.0093,0.0089,0.0072,0.0035
2227,0.0184,0.0098,0.0199,0.0206,0.0156,0.0138,0.0087,0.0039
2228,0.0219,0.0102,0.0237,0.0208,0.0213,0.0170,0.0092,0.0047
2229,0.0459,0.0084,0.0490,0.0115,0.0132,0.0156,0.0113,0.0077
2230,0.0437,0.0070,0.0506,0.0127,0.0063,0.0108,0.0076,0.0059
2231,0.0371,0.0060,0.0546,0.0148,0.0041,0.0093,0.0043,0.0039
2232,0.0305,0.0055,0.0338,0.0088,0.0031,0.0104,0.0067,0.0050
2233,0.0257,0.0056,0.0271,0.0089,0.0054,0.0103,0.0071,0.0058
2234,0.0284,0.0066,0.0309,0.0089,0.0085,0.0098,0.0066,0.0043
2235,0.0298,0.0073,0.0321,0.0132,0.0116,0.0105,0.0069,0.0071
2236,0.0593,0.0056,0.0642,0.0401,0.0065,0.0086,0.0202,0.0049
2237,0.0540,0.0084,0.0539,0.0284,0.0073,0.0137,0.0128,0.0108
2238,0.0555,0.0056,0.0576,0.0405,0.0058,0.0137,0.0124,0.0045
2239,0.0434,0.0054,0.0449,0.0291,0.0041,0.0101,0.0099,0.0048
2240,0.0389,0.0054,0.0398,0.0217,0.0033,0.0098,0.0096,0.0053
2241,0.0405,0.0056,0.0414,0.0225,0.0049,0.0106,0.0102,0.0047
2242,0.0382,0.0083,0.0571,0.0141,0.0065,0.0097,0.0040,0.0068
2243,0.0465,0.0059,0.0465,0.0225,0.0064,0.0147,0.0125,0.0047
2244,0.0344,0.0100,0.0332,0.0206,0.0297,0.0226,0.0147,0.0067
2245,0.0364,0.0090,0.0378,0.0237,0.0171,0.0151,0.0099,0.0030
2246,0.0212,0.0049,0.0201,0.0182,0.0081,0.0103,0.0075,0.0031
2247,0.0194,0.0047,0.0177,0.0158,0.0086,0.0101,0.0074,0.0026
2248,0.0695,0.0077,0.0770,0.0383,0.0047,0.0069,0.0099,0.0046
2249,0.0254,0.0066,0.0242,0.0162,0.0145,0.0145,0.0086,0.0042
2250,0.0302,0.0076,0.0287,0.0164,0.0199,0.0179,0.0114,0.0034
2251,0.0375,0.0085,0.0355,0.0119,0.0120,0.0140,0.0115,0.0078
2252,0.0318,0.0058,0.0335,0.0141,0.0056,0.0108,0.0082,0.0048
2253,0.0428,0.0107,0.0640,0.0162,0.0086,0.0102,0.0059,0.0071
2254,0.0320,0.0058,0.0306,0.0091,0.0025,0.0113,0.0059,0.0031
2255,0.0304,0.0058,0.0272,0.0092,0.0049,0.0114,0.0063,0.0035
2256,0.0289,0.0051,0.0264,0.0100,0.0080,0.0105,0.0061,0.0032
2257,0.0285,0.0054,0.0258,0.0145,0.0109,0.0106,0.0067,0.0060
2258,0.0485,0.0073,0.0459,0.0309,0.0068,0.0171,0.0113,0.0065
2259,0.0465,0.0060,0.0440,0.0390,0.0055,0.0147,0.0097,0.0044
2260,0.0557,0.0118,0.0635,0.0358,0.0036,0.0074,0.0082,0.0049
2261,0.0354,0.0057,0.0317,0.0291,0.0039,0.0107,0.0084,0.0044
2262,0.0324,0.0061,0.0281,0.0223,0.0033,0.0105,0.0082,0.0047
2263,0.0351,0.0059,0.0303,0.0224,0.0047,0.0114,0.0083,0.0046
2264,0.0650,0.0077,0.0783,0.0406,0.0064,0.0125,0.0122,0.0071
2265,0.0402,0.0062,0.0344,0.0242,0.0062,0.0163,0.0101,0.0048
2266,0.0331,0.0123,0.0345,0.0162,0.0274,0.0246,0.0222,0.0048
2267,0.0297,0.0101,0.0333,0.0195,0.0158,0.0161,0.0136,0.0040
2268,0.0173,0.0051,0.0187,0.0129,0.0076,0.0117,0.0087,0.0044
2269,0.0204,0.0047,0.0230,0.0140,0.0081,0.0115,0.0085,0.0037
2270,0.0178,0.0069,0.0201,0.0132,0.0136,0.0159,0.0101,0.0061
2271,0.0262,0.0085,0.0265,0.0141,0.0185,0.0194,0.0147,0.0045
2272,0.0546,0.0121,0.0589,0.0374,0.0033,0.0075,0.0084,0.0048
2273,0.0369,0.0080,0.0329,0.0138,0.0113,0.0174,0.0111,0.0076
2274,0.0305,0.0063,0.0300,0.0155,0.0052,0.0108,0.0095,0.0045
2275,0.0509,0.0117,0.0632,0.0390,0.0057,0.0092,0.0108,0.0046
2276,0.0332,0.0063,0.0305,0.0109,0.0023,0.0115,0.0056,0.0035
2277,0.0352,0.0061,0.0299,0.0104,0.0046,0.0116,0.0059,0.0036
2278,0.0306,0.0058,0.0266,0.0134,0.0076,0.0107,0.0057,0.0040
2279,0.0314,0.0060,0.0267,0.0158,0.0103,0.0110,0.0072,0.0050
2280,0.0555,0.0098,0.0515,0.0323,0.0065,0.0224,0.0102,0.0060
2281,0.0539,0.0083,0.0481,0.0397,0.0052,0.0149,0.0080,0.0049
2282,0.0463,0.0098,0.0371,0.0313,0.0039,0.0114,0.0074,0.0056
2283,0.0431,0.0106,0.0310,0.0255,0.0035,0.0114,0.0072,0.0058
2284,0.0547,0.0093,0.0592,0.0392,0.0037,0.0065,0.0084,0.0044
2285,0.0479,0.0091,0.0350,0.0246,0.0048,0.0120,0.0077,0.0055
2286,0.0527,0.0111,0.0666,0.0412,0.0042,0.0092,0.0084,0.0047
2287,0.0472,0.0084,0.0354,0.0284,0.0061,0.0169,0.0086,0.0050
2288,0.0215,0.0098,0.0191,0.0293,0.0344,0.0093,0.0191,0.0105
2289,0.0248,0.0133,0.0195,0.0270,0.0202,0.0083,0.0177,0.0062
2290,0.0221,0.0090,0.0188,0.0326,0.0099,0.0080,0.0109,0.0042
2291,0.0205,0.0080,0.0170,0.0301,0.0103,0.0086,0.0089,0.0053
2292,0.0182,0.0117,0.0209,0.0284,0.0168,0.0081,0.0178,0.0039
2293,0.0190,0.0103,0.0175,0.0259,0.0227,0.0089,0.0152,0.0089
2294,0.0264,0.0061,0.0345,0.0132,0.0141,0.0105,0.0087,0.0127
2295,0.0411,0.0079,0.0522,0.0152,0.0079,0.0098,0.0052,0.0059
2296,0.0581,0.0067,0.0622,0.0433,0.0048,0.0067,0.0109,0.0044
2297,0.0622,0.0114,0.0799,0.0480,0.0037,0.0094,0.0085,0.0048
2298,0.0203,0.0055,0.0262,0.0097,0.0062,0.0093,0.0049,0.0062
2299,0.0196,0.0057,0.0230,0.0093,0.0075,0.0093,0.0053,0.0072
2300,0.0265,0.0070,0.0341,0.0107,0.0099,0.0105,0.0051,0.0044
2301,0.0349,0.0079,0.0426,0.0148,0.0124,0.0100,0.0050,0.0074
2302,0.0449,0.0147,0.0524,0.0423,0.0086,0.0107,0.0140,0.0052
2303,0.0453,0.0063,0.0543,0.0607,0.0069,0.0107,0.0148,0.0036
2304,0.0422,0.0056,0.0499,0.0540,0.0051,0.0088,0.0104,0.0032
2305,0.0417,0.0055,0.0485,0.0474,0.0043,0.0088,0.0100,0.0036
2306,0.0439,0.0056,0.0513,0.0486,0.0056,0.0087,0.0120,0.0034
2307,0.0504,0.0069,0.0576,0.0484,0.0072,0.0109,0.0148,0.0038
2308,0.0640,0.0135,0.0842,0.0523,0.0045,0.0082,0.0098,0.0054
2309,0.0912,0.0090,0.0994,0.0487,0.0089,0.0095,0.0094,0.0040
2310,0.0467,0.0093,0.0527,0.0251,0.0091,0.0095,0.0094,0.0040
2311,0.0251,0.0098,0.0235,0.0219,0.0317,0.0105,0.0104,0.0062
2312,0.0260,0.0133,0.0224,0.0230,0.0189,0.0094,0.0112,0.0043
2313,0.0256,0.0073,0.0227,0.0264,0.0094,0.0103,0.0084,0.0036
2314,0.0249,0.0060,0.0222,0.0243,0.0098,0.0106,0.0075,0.0041
2315,0.0262,0.0103,0.0287,0.0238,0.0158,0.0090,0.0118,0.0040
2316,0.0247,0.0097,0.0247,0.0222,0.0212,0.0101,0.0099,0.0064
2317,0.0193,0.0053,0.0249,0.0145,0.0134,0.0119,0.0082,0.0102
2318,0.0234,0.0058,0.0330,0.0162,0.0075,0.0101,0.0054,0.0042
2319,0.0743,0.0105,0.0848,0.0468,0.0035,0.0093,0.0092,0.0036
2320,0.0719,0.0129,0.0942,0.0547,0.0056,0.0094,0.0113,0.0050
2321,0.0166,0.0054,0.0208,0.0105,0.0055,0.0091,0.0045,0.0041
2322,0.0166,0.0056,0.0199,0.0099,0.0068,0.0094,0.0047,0.0048
2323,0.0458,0.0092,0.0528,0.0328,0.0056,0.0095,0.0076,0.0035
2324,0.0207,0.0052,0.0257,0.0117,0.0093,0.0104,0.0048,0.0038
2325,0.0252,0.0058,0.0294,0.0158,0.0118,0.0109,0.0047,0.0055
2326,0.0273,0.0105,0.0315,0.0368,0.0083,0.0124,0.0120,0.0076
2327,0.0280,0.0061,0.0330,0.0505,0.0067,0.0110,0.0109,0.0037
2328,0.0269,0.0053,0.0304,0.0472,0.0049,0.0093,0.0086,0.0034
2329,0.0269,0.0055,0.0299,0.0421,0.0043,0.0093,0.0085,0.0036
2330,0.0283,0.0058,0.0316,0.0419,0.0054,0.0096,0.0092,0.0039
2331,0.0802,0.0117,0.0780,0.0513,0.0091,0.0131,0.0097,0.0067
2332,0.0322,0.0065,0.0353,0.0425,0.0071,0.0115,0.0114,0.0039
2333,0.0222,0.0143,0.0206,0.0222,0.0297,0.0150,0.0092,0.0047
2334,0.0272,0.0175,0.0206,0.0177,0.0181,0.0110,0.0097,0.0047
2335,0.0439,0.0090,0.0506,0.0295,0.0033,0.0075,0.0072,0.0045
2336,0.0296,0.0094,0.0218,0.0191,0.0091,0.0112,0.0087,0.0034
2337,0.0293,0.0077,0.0230,0.0176,0.0092,0.0111,0.0085,0.0032
2338,0.0201,0.0131,0.0220,0.0181,0.0150,0.0106,0.0097,0.0050
2339,0.0215,0.0136,0.0207,0.0177,0.0201,0.0114,0.0101,0.0045
2340,0.0229,0.0069,0.0286,0.0165,0.0131,0.0177,0.0074,0.0061
2341,0.0200,0.0065,0.0289,0.0180,0.0071,0.0106,0.0063,0.0045
2342,0.0427,0.0126,0.0419,0.0286,0.0241,0.0228,0.0113,0.0099
2343,0.0172,0.0049,0.0205,0.0141,0.0046,0.0095,0.0043,0.0041
2344,0.0170,0.0050,0.0204,0.0131,0.0059,0.0097,0.0046,0.0043
2345,0.0216,0.0055,0.0256,0.0151,0.0085,0.0106,0.0044,0.0055
2346,0.0279,0.0066,0.0300,0.0171,0.0110,0.0122,0.0050,0.0050
2347,0.0421,0.0088,0.0485,0.0239,0.0036,0.0077,0.0073,0.0046
2348,0.0226,0.0102,0.0246,0.0310,0.0078,0.0156,0.0099,0.0077
2349,0.0230,0.0087,0.0277,0.0419,0.0065,0.0119,0.0077,0.0039
2350,0.0224,0.0085,0.0256,0.0422,0.0049,0.0110,0.0073,0.0046
2351,0.0226,0.0092,0.0247,0.0385,0.0045,0.0111,0.0074,0.0048
2352,0.0263,0.0091,0.0275,0.0367,0.0056,0.0115,0.0074,0.0055
2353,0.0371,0.0149,0.0371,0.0258,0.0139,0.0151,0.0091,0.0037
2354,0.0274,0.0091,0.0285,0.0373,0.0071,0.0125,0.0086,0.0044
2355,0.0174,0.0082,0.0163,0.0320,0.0334,0.0130,0.0128,0.0062
2356,0.0246,0.0106,0.0205,0.0270,0.0196,0.0104,0.0130,0.0043
2357,0.0179,0.0074,0.0161,0.0312,0.0096,0.0121,0.0076,0.0030
2358,0.0159,0.0066,0.0142,0.0293,0.0102,0.0128,0.0067,0.0033
2359,0.0468,0.0090,0.0529,0.0239,0.0046,0.0087,0.0072,0.0039
2360,0.0176,0.0093,0.0199,0.0281,0.0165,0.0095,0.0126,0.0033
2361,0.0175,0.0080,0.0167,0.0264,0.0223,0.0114,0.0115,0.0068
2362,0.0340,0.0063,0.0396,0.0137,0.0138,0.0127,0.0130,0.0073
2363,0.0561,0.0071,0.0641,0.0159,0.0075,0.0102,0.0061,0.0044
2364,0.0454,0.0116,0.0442,0.0290,0.0064,0.0086,0.0078,0.0029
2365,0.0330,0.0058,0.0393,0.0101,0.0057,0.0093,0.0056,0.0050
2366,0.0299,0.0060,0.0350,0.0097,0.0072,0.0095,0.0061,0.0060
2367,0.0424,0.0064,0.0480,0.0111,0.0097,0.0104,0.0052,0.0034
2368,0.0510,0.0071,0.0558,0.0154,0.0123,0.0103,0.0052,0.0055
2369,0.0424,0.0144,0.0471,0.0381,0.0081,0.0111,0.0128,0.0046
2370,0.0429,0.0064,0.0485,0.0544,0.0063,0.0096,0.0148,0.0044
2371,0.0552,0.0090,0.0614,0.0271,0.0053,0.0096,0.0075,0.0035
2372,0.0464,0.0056,0.0519,0.0508,0.0048,0.0093,0.0107,0.0048
2373,0.0467,0.0055,0.0515,0.0451,0.0041,0.0092,0.0102,0.0052
2374,0.0443,0.0056,0.0492,0.0443,0.0052,0.0082,0.0118,0.0043
2375,0.0592,0.0109,0.0579,0.0380,0.0073,0.0083,0.0078,0.0029
2376,0.0451,0.0071,0.0498,0.0434,0.0067,0.0097,0.0146,0.0044
2377,0.0239,0.0075,0.0235,0.0223,0.0308,0.0127,0.0091,0.0042
2378,0.0269,0.0101,0.0236,0.0224,0.0183,0.0132,0.0101,0.0040
2379,0.0233,0.0055,0.0216,0.0251,0.0092,0.0147,0.0075,0.0040
2380,0.0225,0.0047,0.0212,0.0236,0.0097,0.0150,0.0071,0.0035
2381,0.0261,0.0075,0.0276,0.0233,0.0155,0.0123,0.0097,0.0047
2382,0.0245,0.0068,0.0242,0.0221,0.0209,0.0138,0.0106,0.0051
2383,0.0483,0.0037,0.0524,0.0169,0.0026,0.0110,0.0062,0.0027
2384,0.0248,0.0056,0.0282,0.0145,0.0130,0.0113,0.0132,0.0066
2385,0.0368,0.0052,0.0436,0.0166,0.0069,0.0106,0.0066,0.0033
2386,0.0527,0.0135,0.0505,0.0377,0.0124,0.0125,0.0086,0.0029
2387,0.0279,0.0062,0.0327,0.0106,0.0051,0.0097,0.0050,0.0032
2388,0.0284,0.0063,0.0314,0.0100,0.0066,0.0100,0.0055,0.0037
2389,0.0364,0.0049,0.0389,0.0118,0.0091,0.0107,0.0048,0.0034
2390,0.0398,0.0051,0.0408,0.0160,0.0117,0.0112,0.0055,0.0043
2391,0.0328,0.0097,0.0343,0.0330,0.0077,0.0108,0.0108,0.0055
2392,0.0304,0.0059,0.0329,0.0445,0.0060,0.0104,0.0110,0.0046
2393,0.0311,0.0051,0.0338,0.0445,0.0047,0.0098,0.0088,0.0042
2394,0.0318,0.0053,0.0337,0.0403,0.0041,0.0098,0.0086,0.0045
2395,0.0747,0.0044,0.0787,0.0161,0.0018,0.0070,0.0028,0.0026
2396,0.0308,0.0056,0.0332,0.0379,0.0051,0.0095,0.0090,0.0043
2397,0.0585,0.0136,0.0558,0.0391,0.0170,0.0167,0.0092,0.0043
2398,0.0311,0.0064,0.0337,0.0374,0.0066,0.0106,0.0111,0.0046
2399,0.0236,0.0112,0.0242,0.0199,0.0287,0.0134,0.0133,0.0068
2400,0.0318,0.0139,0.0261,0.0167,0.0174,0.0153,0.0114,0.0060
2401,0.0279,0.0071,0.0215,0.0177,0.0089,0.0157,0.0086,0.0049
2402,0.0261,0.0058,0.0215,0.0167,0.0092,0.0154,0.0082,0.0039
2403,0.0190,0.0098,0.0199,0.0171,0.0148,0.0144,0.0102,0.0066
2404,0.0224,0.0100,0.0224,0.0173,0.0198,0.0152,0.0130,0.0049
2405,0.0244,0.0058,0.0280,0.0158,0.0126,0.0135,0.0127,0.0042
2406,0.0289,0.0053,0.0363,0.0184,0.0065,0.0108,0.0078,0.0040
2407,0.0592,0.0042,0.0661,0.0157,0.0018,0.0067,0.0027,0.0027
2408,0.0357,0.0087,0.0382,0.0136,0.0081,0.0159,0.0074,0.0047
2409,0.0252,0.0058,0.0309,0.0138,0.0043,0.0100,0.0050,0.0035
2410,0.0289,0.0058,0.0319,0.0128,0.0057,0.0102,0.0054,0.0036
2411,0.0353,0.0049,0.0371,0.0149,0.0084,0.0110,0.0046,0.0051
2412,0.0391,0.0052,0.0385,0.0174,0.0109,0.0119,0.0063,0.0043
2413,0.0307,0.0091,0.0310,0.0286,0.0073,0.0127,0.0089,0.0064
2414,0.0247,0.0081,0.0278,0.0371,0.0058,0.0113,0.0074,0.0045
2415,0.0295,0.0080,0.0312,0.0408,0.0047,0.0111,0.0075,0.0045
2416,0.0311,0.0087,0.0308,0.0377,0.0043,0.0111,0.0076,0.0048
2417,0.0303,0.0086,0.0298,0.0336,0.0051,0.0110,0.0066,0.0051
2418,0.0272,0.0086,0.0284,0.0329,0.0065,0.0115,0.0078,0.0047
2419,0.0355,0.0081,0.0390,0.0128,0.0037,0.0122,0.0055,0.0032
2420,0.0443,0.0041,0.0514,0.0156,0.0020,0.0068,0.0030,0.0027
2421,0.0329,0.0129,0.0343,0.0373,0.0328,0.0182,0.0113,0.0061
2422,0.0254,0.0129,0.0278,0.0390,0.0190,0.0132,0.0086,0.0038
2423,0.0171,0.0076,0.0168,0.0381,0.0092,0.0088,0.0066,0.0037
2424,0.0159,0.0068,0.0153,0.0346,0.0098,0.0088,0.0066,0.0035
2425,0.0244,0.0106,0.0267,0.0349,0.0160,0.0128,0.0086,0.0046
2426,0.0301,0.0112,0.0330,0.0325,0.0217,0.0155,0.0088,0.0041
2427,0.0551,0.0090,0.0616,0.0116,0.0136,0.0147,0.0137,0.0088
2428,0.0501,0.0067,0.0608,0.0137,0.0066,0.0104,0.0095,0.0067
2429,0.0404,0.0060,0.0468,0.0091,0.0037,0.0100,0.0058,0.0056
Highest RMSE Cases
Vdc  Max RMSE=  0.1431 at Case 2185; 851 > 0.05
Idc  Max RMSE=  0.0256 at Case 541; 0 > 0.05
Vdlo Max RMSE=  0.1435 at Case 2185; 1017 > 0.05
Vqlo Max RMSE=  0.0936 at Case 2185; 213 > 0.05
V0lo Max RMSE=  0.0403 at Case 460; 0 > 0.05
Vdhi Max RMSE=  0.0373 at Case 238; 0 > 0.05
Vqhi Max RMSE=  0.0293 at Case 638; 0 > 0.05
V0hi Max RMSE=  0.0198 at Case 208; 0 > 0.05
Total Error Summary
Vdc  RMSE=  0.0531
Idc  RMSE=  0.0102
Vdlo RMSE=  0.0581
Vqlo RMSE=  0.0305
V0lo RMSE=  0.0102
Vdhi RMSE=  0.0115
Vqhi RMSE=  0.0096
V0hi RMSE=  0.0053
