Read Model from: ./ucf4s2nd/
Export Model to: ./ucf4s2nd/ucf4s2nd_fhf.json
idx_in [0, 1, 2, 3, 4, 5, 6]
idx_out [7, 8, 9, 10]
make_mimo_block stable2ndx
H1s[0][0]  Real Poles: [-1081.4339295 -1081.4339295] Freqs [Hz]: [36.845627154187284]
H1s[0][1]  Real Poles: [-1516.50467048  -482.01239378] Freqs [Hz]: []
H1s[0][2]  Real Poles: [-899.95663613 -899.95663613] Freqs [Hz]: [68.8304242269889]
H1s[0][3]  Real Poles: [-862.39998043 -862.39998043] Freqs [Hz]: [45.23651488323705]
H1s[1][0]  Real Poles: [-1256.95903695  -782.50973204] Freqs [Hz]: []
H1s[1][1]  Real Poles: [-1181.04733527 -1181.04733527] Freqs [Hz]: [59.799105474791574]
H1s[1][2]  Real Poles: [-1664.60467283  -335.17243972] Freqs [Hz]: []
H1s[1][3]  Real Poles: [-842.36253798 -842.36253798] Freqs [Hz]: [36.490395689452946]
H1s[2][0]  Real Poles: [-1082.0954876   -916.20549352] Freqs [Hz]: []
H1s[2][1]  Real Poles: [-817.96066463 -817.96066463] Freqs [Hz]: [51.066924350234565]
H1s[2][2]  Real Poles: [-1087.60231733 -1087.60231733] Freqs [Hz]: [20.23735501147408]
H1s[2][3]  Real Poles: [-599.68739748 -599.68739748] Freqs [Hz]: [64.57886776943778]
H1s[3][0]  Real Poles: [-854.95753586 -854.95753586] Freqs [Hz]: [38.663105176249644]
H1s[3][1]  Real Poles: [-1264.47895169 -1264.47895169] Freqs [Hz]: [90.76226956208323]
H1s[3][2]  Real Poles: [-858.49693418 -858.49693418] Freqs [Hz]: [17.063389732427808]
H1s[3][3]  Real Poles: [-822.52764702 -822.52764702] Freqs [Hz]: [46.69830750133327]
model_folder = ./ucf4s2nd/
model_root = ucf4s2nd
data_path = d:/data/ucf3/ucf9c.hdf5
idx_in [0, 1, 2, 3, 4, 5, 6]
idx_out [7, 8, 9, 10]
read 2100 dataframes
dt=0.001000 data_len=4001 n_io=11 n_case=2100
['G', 'Ud', 'Uq', 'Vd', 'Vq', 'GVrms', 'Ctrl'] ['Vdc', 'Idc', 'Id', 'Iq'] (2100, 4001, 11)
make_mimo_block stable2ndx
prepending initial conditions (2100, 500, 11) (2100, 4001, 11) float32 float32
results in (2100, 4501, 11)
Idx,Vdc,Idc,Id,Iq
#,RMSE,RMSE,RMSE,RMSE
Total,0.0058,0.0434,0.0475,0.0154
0,0.0051,0.0463,0.0577,0.0054
1,0.0051,0.0463,0.0577,0.0054
2,0.0059,0.0734,0.0709,0.0051
3,0.0059,0.0862,0.1004,0.0437
4,0.0046,0.0467,0.0516,0.0027
5,0.0061,0.0369,0.0394,0.0048
6,0.0046,0.0467,0.0516,0.0027
7,0.0055,0.0466,0.0509,0.0037
8,0.0048,0.0416,0.0493,0.0036
9,0.0046,0.0467,0.0516,0.0027
10,0.0046,0.0467,0.0516,0.0027
11,0.0061,0.0369,0.0394,0.0048
12,0.0046,0.0467,0.0516,0.0027
13,0.0048,0.0416,0.0493,0.0036
14,0.0059,0.0862,0.1004,0.0437
15,0.0061,0.0369,0.0394,0.0048
16,0.0046,0.0467,0.0516,0.0027
17,0.0046,0.0467,0.0516,0.0027
18,0.0061,0.0369,0.0394,0.0048
19,0.0052,0.0517,0.0533,0.0026
20,0.0046,0.0467,0.0516,0.0027
21,0.0061,0.0369,0.0394,0.0048
22,0.0046,0.0467,0.0516,0.0027
23,0.0046,0.0467,0.0516,0.0027
24,0.0048,0.0416,0.0493,0.0036
25,0.0059,0.0862,0.1004,0.0437
26,0.0080,0.0319,0.0375,0.0032
27,0.0069,0.0297,0.0343,0.0030
28,0.0090,0.0445,0.0536,0.0052
29,0.0065,0.0276,0.0308,0.0027
30,0.0051,0.0506,0.0540,0.0026
31,0.0075,0.0490,0.0501,0.0070
32,0.0062,0.0279,0.0310,0.0025
33,0.0058,0.0287,0.0319,0.0025
34,0.0068,0.0320,0.0354,0.0044
35,0.0048,0.0484,0.0558,0.0038
36,0.0059,0.0862,0.1004,0.0437
37,0.0045,0.0409,0.0453,0.0026
38,0.0060,0.0402,0.0423,0.0050
39,0.0050,0.0421,0.0477,0.0027
40,0.0054,0.0395,0.0450,0.0029
41,0.0049,0.0452,0.0512,0.0028
42,0.0056,0.0407,0.0455,0.0035
43,0.0059,0.0613,0.0608,0.0045
44,0.0075,0.0406,0.0430,0.0061
45,0.0055,0.0521,0.0552,0.0039
46,0.0054,0.0531,0.0526,0.0026
47,0.0059,0.0862,0.1004,0.0437
48,0.0074,0.0577,0.0576,0.0073
49,0.0060,0.0642,0.0612,0.0048
50,0.0058,0.0629,0.0520,0.0375
51,0.0070,0.0615,0.0540,0.0301
52,0.0056,0.0597,0.0529,0.0295
53,0.0056,0.0597,0.0529,0.0295
54,0.0056,0.0597,0.0529,0.0295
55,0.0056,0.0597,0.0529,0.0295
56,0.0056,0.0597,0.0529,0.0295
57,0.0056,0.0597,0.0529,0.0295
58,0.0051,0.0356,0.0441,0.0044
59,0.0046,0.0383,0.0479,0.0042
60,0.0046,0.0383,0.0479,0.0042
61,0.0064,0.0385,0.0557,0.0097
62,0.0048,0.0385,0.0461,0.0043
63,0.0047,0.0567,0.0575,0.0035
64,0.0064,0.0389,0.0519,0.0094
65,0.0050,0.0514,0.0547,0.0039
66,0.0052,0.0574,0.0584,0.0038
67,0.0071,0.0473,0.0546,0.0089
68,0.0054,0.0722,0.0660,0.0024
69,0.0051,0.0356,0.0441,0.0044
70,0.0056,0.0645,0.0611,0.0046
71,0.0075,0.0603,0.0618,0.0090
72,0.0063,0.0682,0.0631,0.0054
73,0.0066,0.0697,0.0641,0.0060
74,0.0048,0.0625,0.0613,0.0035
75,0.0074,0.0875,0.0920,0.0609
76,0.0070,0.0827,0.0921,0.0547
77,0.0075,0.0631,0.0745,0.0527
78,0.0056,0.0677,0.0843,0.0423
79,0.0054,0.0692,0.0850,0.0311
80,0.0051,0.0356,0.0441,0.0044
81,0.0066,0.0473,0.0640,0.0357
82,0.0050,0.0462,0.0643,0.0251
83,0.0050,0.0431,0.0592,0.0197
84,0.0063,0.0388,0.0581,0.0206
85,0.0048,0.0485,0.0532,0.0038
86,0.0050,0.0514,0.0547,0.0039
87,0.0066,0.0401,0.0556,0.0052
88,0.0048,0.0354,0.0446,0.0078
89,0.0049,0.0365,0.0467,0.0131
90,0.0049,0.0622,0.0666,0.0279
91,0.0051,0.0363,0.0430,0.0044
92,0.0051,0.0421,0.0533,0.0255
93,0.0053,0.0498,0.0599,0.0325
94,0.0070,0.0444,0.0580,0.0309
95,0.0062,0.0700,0.0732,0.0474
96,0.0075,0.0811,0.0790,0.0627
97,0.0083,0.0720,0.0734,0.0528
98,0.0052,0.0574,0.0584,0.0038
99,0.0046,0.0383,0.0479,0.0042
100,0.0064,0.0385,0.0557,0.0097
101,0.0046,0.0485,0.0520,0.0034
102,0.0049,0.0573,0.0578,0.0048
103,0.0046,0.0383,0.0479,0.0042
104,0.0064,0.0385,0.0557,0.0097
105,0.0046,0.0383,0.0479,0.0042
106,0.0046,0.0383,0.0479,0.0042
107,0.0046,0.0485,0.0520,0.0034
108,0.0046,0.0383,0.0479,0.0042
109,0.0046,0.0383,0.0479,0.0042
110,0.0071,0.0473,0.0546,0.0089
111,0.0046,0.0383,0.0479,0.0042
112,0.0046,0.0485,0.0520,0.0034
113,0.0060,0.0740,0.0708,0.0054
114,0.0052,0.0420,0.0471,0.0043
115,0.0064,0.0385,0.0557,0.0097
116,0.0046,0.0383,0.0479,0.0042
117,0.0046,0.0383,0.0479,0.0042
118,0.0064,0.0385,0.0557,0.0097
119,0.0046,0.0485,0.0520,0.0034
120,0.0046,0.0383,0.0479,0.0042
121,0.0064,0.0385,0.0557,0.0097
122,0.0046,0.0383,0.0479,0.0042
123,0.0054,0.0628,0.0605,0.0042
124,0.0046,0.0485,0.0520,0.0034
125,0.0055,0.0506,0.0538,0.0041
126,0.0046,0.0383,0.0479,0.0042
127,0.0046,0.0383,0.0479,0.0042
128,0.0064,0.0385,0.0557,0.0097
129,0.0046,0.0383,0.0479,0.0042
130,0.0046,0.0485,0.0520,0.0034
131,0.0064,0.0385,0.0557,0.0097
132,0.0046,0.0383,0.0479,0.0042
133,0.0046,0.0383,0.0479,0.0042
134,0.0064,0.0385,0.0557,0.0097
135,0.0055,0.0745,0.0676,0.0023
136,0.0059,0.0562,0.0578,0.0039
137,0.0046,0.0383,0.0479,0.0042
138,0.0064,0.0385,0.0557,0.0097
139,0.0046,0.0383,0.0479,0.0042
140,0.0046,0.0383,0.0479,0.0042
141,0.0046,0.0485,0.0520,0.0034
142,0.0078,0.0287,0.0515,0.0049
143,0.0070,0.0327,0.0555,0.0049
144,0.0089,0.0258,0.0443,0.0123
145,0.0070,0.0393,0.0607,0.0046
146,0.0054,0.0722,0.0660,0.0024
147,0.0059,0.0581,0.0583,0.0038
148,0.0075,0.0603,0.0618,0.0090
149,0.0067,0.0415,0.0607,0.0043
150,0.0061,0.0410,0.0590,0.0043
151,0.0074,0.0367,0.0570,0.0107
152,0.0049,0.0396,0.0476,0.0032
153,0.0045,0.0384,0.0505,0.0042
154,0.0063,0.0387,0.0541,0.0095
155,0.0049,0.0423,0.0479,0.0041
156,0.0050,0.0514,0.0547,0.0039
157,0.0050,0.0681,0.0638,0.0030
158,0.0052,0.0660,0.0620,0.0036
159,0.0053,0.0610,0.0602,0.0039
160,0.0063,0.0682,0.0631,0.0054
161,0.0073,0.0550,0.0602,0.0088
162,0.0056,0.0645,0.0611,0.0046
163,0.0057,0.0764,0.0691,0.0024
164,0.0078,0.0611,0.0611,0.0093
165,0.0066,0.0697,0.0641,0.0060
166,0.0074,0.0875,0.0920,0.0609
167,0.0091,0.0730,0.0791,0.0596
168,0.0054,0.0799,0.0936,0.0432
169,0.0059,0.0573,0.0556,0.0041
170,0.0054,0.0799,0.0936,0.0432
171,0.0054,0.0799,0.0936,0.0432
172,0.0054,0.0799,0.0936,0.0432
173,0.0054,0.0799,0.0936,0.0432
174,0.0054,0.0799,0.0936,0.0432
175,0.0046,0.0303,0.0368,0.0033
176,0.0046,0.0303,0.0368,0.0033
177,0.0065,0.0293,0.0418,0.0076
178,0.0047,0.0309,0.0362,0.0033
179,0.0047,0.0448,0.0456,0.0035
180,0.0060,0.0573,0.0552,0.0043
181,0.0064,0.0306,0.0392,0.0073
182,0.0050,0.0402,0.0427,0.0031
183,0.0052,0.0444,0.0452,0.0031
184,0.0070,0.0374,0.0429,0.0070
185,0.0054,0.0571,0.0526,0.0025
186,0.0056,0.0509,0.0486,0.0037
187,0.0075,0.0472,0.0485,0.0072
188,0.0063,0.0546,0.0509,0.0044
189,0.0066,0.0562,0.0517,0.0048
190,0.0048,0.0491,0.0483,0.0035
191,0.0062,0.0577,0.0554,0.0046
192,0.0072,0.0711,0.0747,0.0485
193,0.0069,0.0669,0.0748,0.0433
194,0.0075,0.0521,0.0600,0.0409
195,0.0058,0.0553,0.0685,0.0333
196,0.0055,0.0570,0.0696,0.0248
197,0.0066,0.0419,0.0512,0.0274
198,0.0048,0.0385,0.0510,0.0194
199,0.0049,0.0358,0.0462,0.0150
200,0.0063,0.0314,0.0442,0.0158
201,0.0048,0.0394,0.0432,0.0029
202,0.0063,0.0584,0.0563,0.0050
203,0.0050,0.0402,0.0427,0.0031
204,0.0066,0.0302,0.0415,0.0045
205,0.0047,0.0282,0.0349,0.0068
206,0.0049,0.0294,0.0368,0.0113
207,0.0049,0.0489,0.0523,0.0237
208,0.0051,0.0342,0.0425,0.0213
209,0.0053,0.0400,0.0477,0.0270
210,0.0070,0.0364,0.0458,0.0250
211,0.0061,0.0563,0.0587,0.0393
212,0.0076,0.0665,0.0672,0.0529
213,0.0050,0.0615,0.0605,0.0046
214,0.0083,0.0606,0.0604,0.0425
215,0.0052,0.0444,0.0452,0.0031
216,0.0046,0.0303,0.0368,0.0033
217,0.0065,0.0293,0.0418,0.0076
218,0.0046,0.0388,0.0417,0.0034
219,0.0046,0.0303,0.0368,0.0033
220,0.0065,0.0293,0.0418,0.0076
221,0.0046,0.0303,0.0368,0.0033
222,0.0046,0.0303,0.0368,0.0033
223,0.0046,0.0388,0.0417,0.0034
224,0.0062,0.0746,0.0711,0.0059
225,0.0077,0.0760,0.0805,0.0494
226,0.0046,0.0303,0.0368,0.0033
227,0.0046,0.0303,0.0368,0.0033
228,0.0070,0.0374,0.0429,0.0070
229,0.0046,0.0303,0.0368,0.0033
230,0.0046,0.0388,0.0417,0.0034
231,0.0065,0.0293,0.0418,0.0076
232,0.0046,0.0303,0.0368,0.0033
233,0.0046,0.0303,0.0368,0.0033
234,0.0065,0.0293,0.0418,0.0076
235,0.0046,0.0388,0.0417,0.0034
236,0.0069,0.0731,0.0812,0.0440
237,0.0046,0.0303,0.0368,0.0033
238,0.0065,0.0293,0.0418,0.0076
239,0.0046,0.0303,0.0368,0.0033
240,0.0054,0.0490,0.0475,0.0035
241,0.0046,0.0388,0.0417,0.0034
242,0.0046,0.0303,0.0368,0.0033
243,0.0046,0.0303,0.0368,0.0033
244,0.0065,0.0293,0.0418,0.0076
245,0.0046,0.0303,0.0368,0.0033
246,0.0046,0.0388,0.0417,0.0034
247,0.0062,0.0687,0.0795,0.0389
248,0.0065,0.0293,0.0418,0.0076
249,0.0046,0.0303,0.0368,0.0033
250,0.0046,0.0303,0.0368,0.0033
251,0.0065,0.0293,0.0418,0.0076
252,0.0055,0.0586,0.0536,0.0023
253,0.0046,0.0303,0.0368,0.0033
254,0.0065,0.0293,0.0418,0.0076
255,0.0046,0.0303,0.0368,0.0033
256,0.0046,0.0303,0.0368,0.0033
257,0.0046,0.0388,0.0417,0.0034
258,0.0055,0.0624,0.0752,0.0339
259,0.0079,0.0230,0.0386,0.0040
260,0.0070,0.0257,0.0418,0.0039
261,0.0089,0.0249,0.0352,0.0099
262,0.0070,0.0310,0.0465,0.0037
263,0.0054,0.0571,0.0526,0.0025
264,0.0075,0.0472,0.0485,0.0072
265,0.0067,0.0322,0.0464,0.0034
266,0.0061,0.0312,0.0444,0.0034
267,0.0074,0.0284,0.0430,0.0084
268,0.0049,0.0328,0.0391,0.0032
269,0.0056,0.0636,0.0765,0.0247
270,0.0045,0.0293,0.0377,0.0033
271,0.0063,0.0294,0.0402,0.0073
272,0.0048,0.0332,0.0375,0.0032
273,0.0050,0.0402,0.0427,0.0031
274,0.0050,0.0535,0.0504,0.0031
275,0.0053,0.0469,0.0463,0.0032
276,0.0063,0.0546,0.0509,0.0044
277,0.0073,0.0428,0.0469,0.0069
278,0.0056,0.0509,0.0486,0.0037
279,0.0056,0.0606,0.0551,0.0023
280,0.0051,0.0465,0.0616,0.0241
281,0.0078,0.0491,0.0491,0.0074
282,0.0066,0.0562,0.0517,0.0048
283,0.0072,0.0711,0.0747,0.0485
284,0.0089,0.0586,0.0633,0.0461
285,0.0055,0.0664,0.0772,0.0350
286,0.0055,0.0664,0.0772,0.0350
287,0.0055,0.0664,0.0772,0.0350
288,0.0055,0.0664,0.0772,0.0350
289,0.0055,0.0664,0.0772,0.0350
290,0.0055,0.0664,0.0772,0.0350
291,0.0051,0.0420,0.0567,0.0199
292,0.0046,0.0289,0.0315,0.0027
293,0.0046,0.0289,0.0315,0.0027
294,0.0065,0.0213,0.0233,0.0046
295,0.0046,0.0289,0.0319,0.0027
296,0.0047,0.0277,0.0312,0.0033
297,0.0064,0.0280,0.0283,0.0048
298,0.0051,0.0253,0.0284,0.0028
299,0.0053,0.0262,0.0286,0.0030
300,0.0071,0.0258,0.0277,0.0049
301,0.0054,0.0365,0.0372,0.0026
302,0.0052,0.0380,0.0516,0.0153
303,0.0056,0.0349,0.0362,0.0035
304,0.0075,0.0330,0.0337,0.0057
305,0.0063,0.0412,0.0402,0.0038
306,0.0067,0.0436,0.0409,0.0040
307,0.0047,0.0296,0.0324,0.0033
308,0.0067,0.0490,0.0468,0.0304
309,0.0067,0.0443,0.0456,0.0265
310,0.0075,0.0418,0.0393,0.0216
311,0.0059,0.0372,0.0408,0.0194
312,0.0056,0.0420,0.0458,0.0162
313,0.0051,0.0361,0.0482,0.0111
314,0.0065,0.0449,0.0400,0.0140
315,0.0046,0.0357,0.0351,0.0108
316,0.0046,0.0357,0.0343,0.0084
317,0.0063,0.0301,0.0301,0.0075
318,0.0048,0.0299,0.0338,0.0025
319,0.0051,0.0253,0.0284,0.0028
320,0.0066,0.0193,0.0220,0.0039
321,0.0047,0.0285,0.0333,0.0054
322,0.0049,0.0304,0.0352,0.0085
323,0.0049,0.0286,0.0326,0.0175
324,0.0050,0.0476,0.0517,0.0041
325,0.0051,0.0306,0.0351,0.0156
326,0.0053,0.0307,0.0354,0.0195
327,0.0070,0.0317,0.0348,0.0161
328,0.0060,0.0366,0.0396,0.0270
329,0.0078,0.0529,0.0592,0.0391
330,0.0082,0.0424,0.0417,0.0250
331,0.0053,0.0262,0.0286,0.0030
332,0.0046,0.0289,0.0315,0.0027
333,0.0065,0.0213,0.0233,0.0046
334,0.0047,0.0273,0.0321,0.0032
335,0.0063,0.0755,0.0720,0.0064
336,0.0055,0.0506,0.0538,0.0041
337,0.0046,0.0289,0.0315,0.0027
338,0.0065,0.0213,0.0233,0.0046
339,0.0046,0.0289,0.0315,0.0027
340,0.0046,0.0289,0.0315,0.0027
341,0.0047,0.0273,0.0321,0.0032
342,0.0046,0.0289,0.0315,0.0027
343,0.0046,0.0289,0.0315,0.0027
344,0.0071,0.0258,0.0277,0.0049
345,0.0046,0.0289,0.0315,0.0027
346,0.0047,0.0273,0.0321,0.0032
347,0.0053,0.0352,0.0421,0.0048
348,0.0065,0.0213,0.0233,0.0046
349,0.0046,0.0289,0.0315,0.0027
350,0.0046,0.0289,0.0315,0.0027
351,0.0065,0.0213,0.0233,0.0046
352,0.0047,0.0273,0.0321,0.0032
353,0.0046,0.0289,0.0315,0.0027
354,0.0065,0.0213,0.0233,0.0046
355,0.0046,0.0289,0.0315,0.0027
356,0.0054,0.0313,0.0331,0.0033
357,0.0047,0.0273,0.0321,0.0032
358,0.0055,0.0351,0.0413,0.0079
359,0.0046,0.0289,0.0315,0.0027
360,0.0046,0.0289,0.0315,0.0027
361,0.0065,0.0213,0.0233,0.0046
362,0.0046,0.0289,0.0315,0.0027
363,0.0047,0.0273,0.0321,0.0032
364,0.0065,0.0213,0.0233,0.0046
365,0.0046,0.0289,0.0315,0.0027
366,0.0046,0.0289,0.0315,0.0027
367,0.0065,0.0213,0.0233,0.0046
368,0.0055,0.0378,0.0375,0.0025
369,0.0058,0.0348,0.0409,0.0120
370,0.0046,0.0289,0.0315,0.0027
371,0.0065,0.0213,0.0233,0.0046
372,0.0046,0.0289,0.0315,0.0027
373,0.0046,0.0289,0.0315,0.0027
374,0.0047,0.0273,0.0321,0.0032
375,0.0079,0.0205,0.0232,0.0027
376,0.0070,0.0191,0.0219,0.0026
377,0.0089,0.0313,0.0346,0.0060
378,0.0070,0.0196,0.0229,0.0025
379,0.0054,0.0365,0.0372,0.0026
380,0.0056,0.0624,0.0624,0.0241
381,0.0075,0.0330,0.0337,0.0057
382,0.0067,0.0192,0.0226,0.0025
383,0.0061,0.0183,0.0215,0.0025
384,0.0075,0.0200,0.0225,0.0048
385,0.0049,0.0329,0.0382,0.0031
386,0.0045,0.0245,0.0269,0.0027
387,0.0063,0.0241,0.0250,0.0046
388,0.0048,0.0257,0.0291,0.0027
389,0.0051,0.0253,0.0284,0.0028
390,0.0049,0.0327,0.0349,0.0029
391,0.0062,0.0413,0.0470,0.0218
392,0.0053,0.0277,0.0297,0.0032
393,0.0063,0.0412,0.0402,0.0038
394,0.0074,0.0269,0.0289,0.0051
395,0.0056,0.0349,0.0362,0.0035
396,0.0056,0.0386,0.0373,0.0025
397,0.0078,0.0389,0.0386,0.0059
398,0.0067,0.0436,0.0409,0.0040
399,0.0067,0.0490,0.0468,0.0304
400,0.0086,0.0422,0.0404,0.0242
401,0.0055,0.0494,0.0508,0.0246
402,0.0064,0.0494,0.0537,0.0274
403,0.0055,0.0494,0.0508,0.0246
404,0.0055,0.0494,0.0508,0.0246
405,0.0055,0.0494,0.0508,0.0246
406,0.0055,0.0494,0.0508,0.0246
407,0.0055,0.0494,0.0508,0.0246
408,0.0046,0.0408,0.0452,0.0031
409,0.0046,0.0408,0.0452,0.0031
410,0.0066,0.0311,0.0324,0.0047
411,0.0046,0.0405,0.0454,0.0031
412,0.0047,0.0316,0.0388,0.0030
413,0.0068,0.0600,0.0611,0.0334
414,0.0064,0.0400,0.0409,0.0054
415,0.0051,0.0324,0.0375,0.0032
416,0.0053,0.0308,0.0356,0.0035
417,0.0072,0.0348,0.0366,0.0055
418,0.0054,0.0410,0.0446,0.0025
419,0.0056,0.0435,0.0465,0.0041
420,0.0075,0.0420,0.0426,0.0066
421,0.0064,0.0514,0.0510,0.0045
422,0.0067,0.0536,0.0507,0.0048
423,0.0047,0.0315,0.0383,0.0029
424,0.0073,0.0678,0.0654,0.0395
425,0.0063,0.0522,0.0424,0.0315
426,0.0065,0.0453,0.0387,0.0271
427,0.0075,0.0513,0.0434,0.0219
428,0.0060,0.0408,0.0365,0.0195
429,0.0058,0.0464,0.0438,0.0170
430,0.0065,0.0578,0.0512,0.0148
431,0.0046,0.0462,0.0427,0.0111
432,0.0045,0.0470,0.0442,0.0089
433,0.0063,0.0423,0.0414,0.0065
434,0.0049,0.0378,0.0435,0.0029
435,0.0098,0.0672,0.0627,0.0527
436,0.0051,0.0324,0.0375,0.0032
437,0.0066,0.0271,0.0298,0.0041
438,0.0047,0.0401,0.0473,0.0054
439,0.0048,0.0417,0.0487,0.0087
440,0.0049,0.0302,0.0370,0.0172
441,0.0051,0.0406,0.0464,0.0163
442,0.0053,0.0378,0.0436,0.0201
443,0.0069,0.0411,0.0451,0.0166
444,0.0060,0.0370,0.0430,0.0265
445,0.0081,0.0619,0.0694,0.0386
446,0.0050,0.0756,0.0748,0.0046
447,0.0086,0.0737,0.0653,0.0514
448,0.0082,0.0396,0.0427,0.0225
449,0.0053,0.0308,0.0356,0.0035
450,0.0046,0.0408,0.0452,0.0031
451,0.0066,0.0311,0.0324,0.0047
452,0.0047,0.0344,0.0420,0.0030
453,0.0046,0.0408,0.0452,0.0031
454,0.0066,0.0311,0.0324,0.0047
455,0.0046,0.0408,0.0452,0.0031
456,0.0046,0.0408,0.0452,0.0031
457,0.0047,0.0344,0.0420,0.0030
458,0.0059,0.0562,0.0578,0.0039
459,0.0046,0.0408,0.0452,0.0031
460,0.0046,0.0408,0.0452,0.0031
461,0.0072,0.0348,0.0366,0.0055
462,0.0046,0.0408,0.0452,0.0031
463,0.0047,0.0344,0.0420,0.0030
464,0.0066,0.0311,0.0324,0.0047
465,0.0046,0.0408,0.0452,0.0031
466,0.0046,0.0408,0.0452,0.0031
467,0.0066,0.0311,0.0324,0.0047
468,0.0047,0.0344,0.0420,0.0030
469,0.0051,0.0356,0.0441,0.0044
470,0.0046,0.0408,0.0452,0.0031
471,0.0066,0.0311,0.0324,0.0047
472,0.0046,0.0408,0.0452,0.0031
473,0.0053,0.0380,0.0420,0.0039
474,0.0047,0.0344,0.0420,0.0030
475,0.0046,0.0408,0.0452,0.0031
476,0.0046,0.0408,0.0452,0.0031
477,0.0066,0.0311,0.0324,0.0047
478,0.0046,0.0408,0.0452,0.0031
479,0.0047,0.0344,0.0420,0.0030
480,0.0051,0.0356,0.0441,0.0044
481,0.0066,0.0311,0.0324,0.0047
482,0.0046,0.0408,0.0452,0.0031
483,0.0046,0.0408,0.0452,0.0031
484,0.0066,0.0311,0.0324,0.0047
485,0.0056,0.0420,0.0439,0.0025
486,0.0046,0.0408,0.0452,0.0031
487,0.0066,0.0311,0.0324,0.0047
488,0.0046,0.0408,0.0452,0.0031
489,0.0046,0.0408,0.0452,0.0031
490,0.0047,0.0344,0.0420,0.0030
491,0.0048,0.0492,0.0515,0.0048
492,0.0079,0.0277,0.0321,0.0024
493,0.0069,0.0248,0.0278,0.0024
494,0.0089,0.0410,0.0490,0.0041
495,0.0069,0.0223,0.0237,0.0025
496,0.0054,0.0410,0.0446,0.0025
497,0.0075,0.0420,0.0426,0.0066
498,0.0066,0.0221,0.0236,0.0027
499,0.0061,0.0230,0.0251,0.0028
500,0.0075,0.0265,0.0284,0.0040
501,0.0048,0.0431,0.0506,0.0030
502,0.0051,0.0356,0.0441,0.0044
503,0.0045,0.0354,0.0393,0.0031
504,0.0063,0.0352,0.0362,0.0050
505,0.0048,0.0351,0.0403,0.0030
506,0.0051,0.0324,0.0375,0.0032
507,0.0049,0.0361,0.0419,0.0026
508,0.0053,0.0326,0.0371,0.0037
509,0.0064,0.0514,0.0510,0.0045
510,0.0074,0.0341,0.0358,0.0059
511,0.0056,0.0435,0.0465,0.0041
512,0.0057,0.0424,0.0425,0.0026
513,0.0051,0.0356,0.0441,0.0044
514,0.0077,0.0499,0.0494,0.0070
515,0.0067,0.0536,0.0507,0.0048
516,0.0063,0.0522,0.0424,0.0315
517,0.0083,0.0495,0.0422,0.0237
518,0.0055,0.0533,0.0465,0.0263
519,0.0055,0.0533,0.0465,0.0263
520,0.0055,0.0533,0.0465,0.0263
521,0.0055,0.0533,0.0465,0.0263
522,0.0055,0.0533,0.0465,0.0263
523,0.0055,0.0533,0.0465,0.0263
524,0.0051,0.0356,0.0441,0.0044
525,0.0045,0.0474,0.0532,0.0034
526,0.0045,0.0474,0.0532,0.0034
527,0.0066,0.0370,0.0400,0.0053
528,0.0045,0.0463,0.0523,0.0033
529,0.0047,0.0379,0.0460,0.0029
530,0.0064,0.0468,0.0492,0.0061
531,0.0051,0.0389,0.0448,0.0034
532,0.0053,0.0375,0.0430,0.0038
533,0.0072,0.0414,0.0440,0.0062
534,0.0054,0.0477,0.0514,0.0025
535,0.0051,0.0356,0.0441,0.0044
536,0.0056,0.0505,0.0536,0.0043
537,0.0075,0.0497,0.0504,0.0074
538,0.0064,0.0589,0.0582,0.0049
539,0.0067,0.0615,0.0582,0.0052
540,0.0047,0.0369,0.0446,0.0027
541,0.0062,0.0589,0.0470,0.0361
542,0.0064,0.0514,0.0426,0.0312
543,0.0073,0.0589,0.0505,0.0268
544,0.0060,0.0466,0.0414,0.0227
545,0.0058,0.0518,0.0484,0.0192
546,0.0048,0.0492,0.0515,0.0048
547,0.0065,0.0643,0.0589,0.0181
548,0.0047,0.0525,0.0498,0.0131
549,0.0046,0.0533,0.0518,0.0106
550,0.0063,0.0483,0.0491,0.0081
551,0.0049,0.0438,0.0503,0.0031
552,0.0051,0.0389,0.0448,0.0034
553,0.0066,0.0326,0.0371,0.0043
554,0.0047,0.0465,0.0552,0.0058
555,0.0048,0.0481,0.0566,0.0096
556,0.0049,0.0362,0.0441,0.0185
557,0.0078,0.0937,0.0983,0.0625
558,0.0051,0.0356,0.0441,0.0044
559,0.0051,0.0462,0.0533,0.0180
560,0.0053,0.0431,0.0501,0.0222
561,0.0069,0.0462,0.0518,0.0190
562,0.0060,0.0416,0.0488,0.0292
563,0.0082,0.0694,0.0767,0.0414
564,0.0082,0.0426,0.0478,0.0258
565,0.0053,0.0375,0.0430,0.0038
566,0.0045,0.0474,0.0532,0.0034
567,0.0066,0.0370,0.0400,0.0053
568,0.0047,0.0407,0.0493,0.0030
569,0.0051,0.0356,0.0441,0.0044
570,0.0045,0.0474,0.0532,0.0034
571,0.0066,0.0370,0.0400,0.0053
572,0.0045,0.0474,0.0532,0.0034
573,0.0045,0.0474,0.0532,0.0034
574,0.0047,0.0407,0.0493,0.0030
575,0.0045,0.0474,0.0532,0.0034
576,0.0045,0.0474,0.0532,0.0034
577,0.0072,0.0414,0.0440,0.0062
578,0.0045,0.0474,0.0532,0.0034
579,0.0047,0.0407,0.0493,0.0030
580,0.0059,0.0581,0.0583,0.0038
581,0.0066,0.0370,0.0400,0.0053
582,0.0045,0.0474,0.0532,0.0034
583,0.0045,0.0474,0.0532,0.0034
584,0.0066,0.0370,0.0400,0.0053
585,0.0047,0.0407,0.0493,0.0030
586,0.0045,0.0474,0.0532,0.0034
587,0.0066,0.0370,0.0400,0.0053
588,0.0045,0.0474,0.0532,0.0034
589,0.0053,0.0451,0.0494,0.0042
590,0.0047,0.0407,0.0493,0.0030
591,0.0051,0.0356,0.0441,0.0044
592,0.0045,0.0474,0.0532,0.0034
593,0.0045,0.0474,0.0532,0.0034
594,0.0066,0.0370,0.0400,0.0053
595,0.0045,0.0474,0.0532,0.0034
596,0.0047,0.0407,0.0493,0.0030
597,0.0066,0.0370,0.0400,0.0053
598,0.0045,0.0474,0.0532,0.0034
599,0.0045,0.0474,0.0532,0.0034
600,0.0066,0.0370,0.0400,0.0053
601,0.0056,0.0484,0.0503,0.0025
602,0.0048,0.0492,0.0515,0.0048
603,0.0045,0.0474,0.0532,0.0034
604,0.0066,0.0370,0.0400,0.0053
605,0.0045,0.0474,0.0532,0.0034
606,0.0045,0.0474,0.0532,0.0034
607,0.0047,0.0407,0.0493,0.0030
608,0.0079,0.0316,0.0389,0.0025
609,0.0069,0.0290,0.0348,0.0025
610,0.0089,0.0459,0.0571,0.0039
611,0.0069,0.0263,0.0303,0.0026
612,0.0054,0.0477,0.0514,0.0025
613,0.0051,0.0356,0.0441,0.0044
614,0.0075,0.0497,0.0504,0.0074
615,0.0066,0.0265,0.0303,0.0028
616,0.0061,0.0273,0.0314,0.0029
617,0.0075,0.0317,0.0359,0.0044
618,0.0048,0.0489,0.0576,0.0030
619,0.0045,0.0413,0.0467,0.0033
620,0.0063,0.0407,0.0433,0.0056
621,0.0048,0.0414,0.0476,0.0032
622,0.0051,0.0389,0.0448,0.0034
623,0.0050,0.0430,0.0494,0.0025
624,0.0051,0.0356,0.0441,0.0044
625,0.0053,0.0395,0.0445,0.0040
626,0.0064,0.0589,0.0582,0.0049
627,0.0075,0.0411,0.0434,0.0065
628,0.0056,0.0505,0.0536,0.0043
629,0.0057,0.0494,0.0492,0.0026
630,0.0077,0.0578,0.0572,0.0077
631,0.0067,0.0615,0.0582,0.0052
632,0.0062,0.0589,0.0470,0.0361
633,0.0082,0.0571,0.0488,0.0290
634,0.0055,0.0591,0.0505,0.0293
635,0.0051,0.0356,0.0441,0.0044
636,0.0055,0.0591,0.0505,0.0293
637,0.0055,0.0591,0.0505,0.0293
638,0.0055,0.0591,0.0505,0.0293
639,0.0055,0.0591,0.0505,0.0293
640,0.0055,0.0591,0.0505,0.0293
641,0.0047,0.0392,0.0489,0.0036
642,0.0047,0.0392,0.0489,0.0036
643,0.0065,0.0407,0.0578,0.0087
644,0.0049,0.0391,0.0464,0.0037
645,0.0047,0.0635,0.0632,0.0039
646,0.0051,0.0356,0.0441,0.0044
647,0.0065,0.0398,0.0534,0.0086
648,0.0049,0.0560,0.0589,0.0035
649,0.0051,0.0633,0.0640,0.0035
650,0.0071,0.0505,0.0585,0.0085
651,0.0056,0.0816,0.0749,0.0025
652,0.0059,0.0709,0.0673,0.0044
653,0.0076,0.0652,0.0676,0.0089
654,0.0069,0.0744,0.0697,0.0053
655,0.0074,0.0761,0.0714,0.0059
656,0.0047,0.0703,0.0680,0.0039
657,0.0048,0.0492,0.0515,0.0048
658,0.0073,0.0936,0.1005,0.0628
659,0.0068,0.0888,0.1005,0.0562
660,0.0076,0.0676,0.0814,0.0542
661,0.0053,0.0722,0.0911,0.0429
662,0.0053,0.0714,0.0896,0.0312
663,0.0067,0.0470,0.0669,0.0355
664,0.0053,0.0464,0.0667,0.0246
665,0.0052,0.0427,0.0607,0.0190
666,0.0063,0.0393,0.0596,0.0196
667,0.0048,0.0512,0.0554,0.0033
668,0.0070,0.0900,0.0990,0.0561
669,0.0051,0.0356,0.0441,0.0044
670,0.0049,0.0560,0.0589,0.0035
671,0.0066,0.0434,0.0584,0.0046
672,0.0048,0.0376,0.0458,0.0084
673,0.0048,0.0391,0.0481,0.0138
674,0.0050,0.0752,0.0760,0.0285
675,0.0051,0.0484,0.0574,0.0262
676,0.0054,0.0592,0.0662,0.0331
677,0.0070,0.0515,0.0631,0.0319
678,0.0065,0.0841,0.0823,0.0480
679,0.0069,0.0909,0.0836,0.0628
680,0.0051,0.0356,0.0441,0.0044
681,0.0085,0.0860,0.0823,0.0537
682,0.0051,0.0633,0.0640,0.0035
683,0.0047,0.0392,0.0489,0.0036
684,0.0065,0.0407,0.0578,0.0087
685,0.0047,0.0530,0.0551,0.0038
686,0.0047,0.0392,0.0489,0.0036
687,0.0065,0.0407,0.0578,0.0087
688,0.0047,0.0392,0.0489,0.0036
689,0.0047,0.0392,0.0489,0.0036
690,0.0047,0.0530,0.0551,0.0038
691,0.0051,0.0356,0.0441,0.0044
692,0.0047,0.0392,0.0489,0.0036
693,0.0047,0.0392,0.0489,0.0036
694,0.0071,0.0505,0.0585,0.0085
695,0.0047,0.0392,0.0489,0.0036
696,0.0047,0.0530,0.0551,0.0038
697,0.0065,0.0407,0.0578,0.0087
698,0.0047,0.0392,0.0489,0.0036
699,0.0047,0.0392,0.0489,0.0036
700,0.0065,0.0407,0.0578,0.0087
701,0.0047,0.0530,0.0551,0.0038
702,0.0059,0.0579,0.0570,0.0039
703,0.0047,0.0392,0.0489,0.0036
704,0.0065,0.0407,0.0578,0.0087
705,0.0047,0.0392,0.0489,0.0036
706,0.0055,0.0694,0.0670,0.0040
707,0.0047,0.0530,0.0551,0.0038
708,0.0047,0.0392,0.0489,0.0036
709,0.0047,0.0392,0.0489,0.0036
710,0.0065,0.0407,0.0578,0.0087
711,0.0047,0.0392,0.0489,0.0036
712,0.0047,0.0530,0.0551,0.0038
713,0.0048,0.0492,0.0515,0.0048
714,0.0065,0.0407,0.0578,0.0087
715,0.0047,0.0392,0.0489,0.0036
716,0.0047,0.0392,0.0489,0.0036
717,0.0065,0.0407,0.0578,0.0087
718,0.0058,0.0844,0.0776,0.0023
719,0.0047,0.0392,0.0489,0.0036
720,0.0065,0.0407,0.0578,0.0087
721,0.0047,0.0392,0.0489,0.0036
722,0.0047,0.0392,0.0489,0.0036
723,0.0047,0.0530,0.0551,0.0038
724,0.0051,0.0356,0.0441,0.0044
725,0.0079,0.0305,0.0517,0.0033
726,0.0070,0.0355,0.0565,0.0033
727,0.0089,0.0246,0.0427,0.0101
728,0.0071,0.0431,0.0628,0.0033
729,0.0056,0.0816,0.0749,0.0025
730,0.0076,0.0652,0.0676,0.0089
731,0.0068,0.0456,0.0637,0.0033
732,0.0062,0.0447,0.0616,0.0034
733,0.0076,0.0398,0.0591,0.0092
734,0.0049,0.0400,0.0472,0.0035
735,0.0051,0.0356,0.0441,0.0044
736,0.0045,0.0398,0.0516,0.0035
737,0.0063,0.0400,0.0556,0.0085
738,0.0050,0.0447,0.0499,0.0036
739,0.0049,0.0560,0.0589,0.0035
740,0.0051,0.0767,0.0715,0.0032
741,0.0052,0.0677,0.0666,0.0037
742,0.0069,0.0744,0.0697,0.0053
743,0.0072,0.0593,0.0652,0.0085
744,0.0059,0.0709,0.0673,0.0044
745,0.0059,0.0875,0.0808,0.0023
746,0.0051,0.0356,0.0441,0.0044
747,0.0082,0.0649,0.0658,0.0092
748,0.0074,0.0761,0.0714,0.0059
749,0.0073,0.0936,0.1005,0.0628
750,0.0095,0.0795,0.0872,0.0617
751,0.0056,0.0825,0.0994,0.0436
752,0.0056,0.0825,0.0994,0.0436
753,0.0056,0.0825,0.0994,0.0436
754,0.0056,0.0825,0.0994,0.0436
755,0.0056,0.0825,0.0994,0.0436
756,0.0056,0.0825,0.0994,0.0436
757,0.0051,0.0356,0.0441,0.0044
758,0.0046,0.0294,0.0362,0.0030
759,0.0046,0.0294,0.0362,0.0030
760,0.0065,0.0309,0.0437,0.0067
761,0.0048,0.0297,0.0349,0.0030
762,0.0047,0.0513,0.0505,0.0039
763,0.0064,0.0302,0.0401,0.0067
764,0.0049,0.0442,0.0461,0.0029
765,0.0051,0.0501,0.0503,0.0030
766,0.0070,0.0400,0.0463,0.0067
767,0.0056,0.0654,0.0600,0.0026
768,0.0048,0.0492,0.0515,0.0048
769,0.0059,0.0558,0.0530,0.0036
770,0.0076,0.0508,0.0530,0.0071
771,0.0069,0.0586,0.0550,0.0043
772,0.0074,0.0600,0.0564,0.0047
773,0.0047,0.0565,0.0541,0.0039
774,0.0071,0.0759,0.0824,0.0499
775,0.0068,0.0720,0.0826,0.0444
776,0.0077,0.0549,0.0659,0.0422
777,0.0055,0.0591,0.0749,0.0338
778,0.0053,0.0587,0.0740,0.0248
779,0.0062,0.0842,0.0969,0.0497
780,0.0051,0.0356,0.0441,0.0044
781,0.0066,0.0392,0.0527,0.0272
782,0.0050,0.0373,0.0526,0.0190
783,0.0051,0.0338,0.0468,0.0144
784,0.0063,0.0304,0.0450,0.0149
785,0.0048,0.0411,0.0441,0.0027
786,0.0049,0.0442,0.0461,0.0029
787,0.0066,0.0333,0.0444,0.0042
788,0.0048,0.0283,0.0341,0.0074
789,0.0049,0.0293,0.0359,0.0117
790,0.0049,0.0615,0.0608,0.0241
791,0.0051,0.0356,0.0441,0.0044
792,0.0051,0.0381,0.0445,0.0218
793,0.0054,0.0478,0.0524,0.0275
794,0.0070,0.0418,0.0497,0.0258
795,0.0064,0.0700,0.0669,0.0397
796,0.0069,0.0732,0.0686,0.0529
797,0.0086,0.0744,0.0687,0.0432
798,0.0051,0.0501,0.0503,0.0030
799,0.0046,0.0294,0.0362,0.0030
800,0.0065,0.0309,0.0437,0.0067
801,0.0046,0.0425,0.0435,0.0037
802,0.0051,0.0356,0.0441,0.0044
803,0.0046,0.0294,0.0362,0.0030
804,0.0065,0.0309,0.0437,0.0067
805,0.0046,0.0294,0.0362,0.0030
806,0.0046,0.0294,0.0362,0.0030
807,0.0046,0.0425,0.0435,0.0037
808,0.0046,0.0294,0.0362,0.0030
809,0.0046,0.0294,0.0362,0.0030
810,0.0070,0.0400,0.0463,0.0067
811,0.0046,0.0294,0.0362,0.0030
812,0.0046,0.0425,0.0435,0.0037
813,0.0051,0.0356,0.0441,0.0044
814,0.0065,0.0309,0.0437,0.0067
815,0.0046,0.0294,0.0362,0.0030
816,0.0046,0.0294,0.0362,0.0030
817,0.0065,0.0309,0.0437,0.0067
818,0.0046,0.0425,0.0435,0.0037
819,0.0046,0.0294,0.0362,0.0030
820,0.0065,0.0309,0.0437,0.0067
821,0.0046,0.0294,0.0362,0.0030
822,0.0054,0.0545,0.0524,0.0033
823,0.0046,0.0425,0.0435,0.0037
824,0.0054,0.0671,0.0633,0.0034
825,0.0046,0.0294,0.0362,0.0030
826,0.0046,0.0294,0.0362,0.0030
827,0.0065,0.0309,0.0437,0.0067
828,0.0046,0.0294,0.0362,0.0030
829,0.0046,0.0425,0.0435,0.0037
830,0.0065,0.0309,0.0437,0.0067
831,0.0046,0.0294,0.0362,0.0030
832,0.0046,0.0294,0.0362,0.0030
833,0.0065,0.0309,0.0437,0.0067
834,0.0058,0.0672,0.0618,0.0024
835,0.0051,0.0356,0.0441,0.0044
836,0.0046,0.0294,0.0362,0.0030
837,0.0065,0.0309,0.0437,0.0067
838,0.0046,0.0294,0.0362,0.0030
839,0.0046,0.0294,0.0362,0.0030
840,0.0046,0.0425,0.0435,0.0037
841,0.0079,0.0246,0.0390,0.0028
842,0.0070,0.0286,0.0432,0.0028
843,0.0089,0.0230,0.0336,0.0079
844,0.0071,0.0352,0.0493,0.0028
845,0.0056,0.0654,0.0600,0.0026
846,0.0051,0.0356,0.0441,0.0044
847,0.0076,0.0508,0.0530,0.0071
848,0.0068,0.0365,0.0496,0.0028
849,0.0062,0.0352,0.0474,0.0028
850,0.0076,0.0311,0.0449,0.0071
851,0.0049,0.0315,0.0368,0.0036
852,0.0045,0.0296,0.0380,0.0030
853,0.0063,0.0299,0.0415,0.0066
854,0.0048,0.0347,0.0384,0.0029
855,0.0049,0.0442,0.0461,0.0029
856,0.0051,0.0612,0.0567,0.0033
857,0.0051,0.0356,0.0441,0.0044
858,0.0052,0.0527,0.0516,0.0031
859,0.0069,0.0586,0.0550,0.0043
860,0.0072,0.0467,0.0515,0.0067
861,0.0059,0.0558,0.0530,0.0036
862,0.0059,0.0702,0.0652,0.0023
863,0.0081,0.0509,0.0518,0.0073
864,0.0074,0.0600,0.0564,0.0047
865,0.0071,0.0759,0.0824,0.0499
866,0.0093,0.0637,0.0705,0.0481
867,0.0055,0.0680,0.0824,0.0351
868,0.0051,0.0356,0.0441,0.0044
869,0.0055,0.0680,0.0824,0.0351
870,0.0055,0.0680,0.0824,0.0351
871,0.0055,0.0680,0.0824,0.0351
872,0.0055,0.0680,0.0824,0.0351
873,0.0055,0.0680,0.0824,0.0351
874,0.0046,0.0214,0.0239,0.0031
875,0.0046,0.0214,0.0239,0.0031
876,0.0066,0.0187,0.0220,0.0045
877,0.0047,0.0207,0.0232,0.0029
878,0.0047,0.0283,0.0281,0.0035
879,0.0048,0.0492,0.0515,0.0048
880,0.0064,0.0217,0.0230,0.0048
881,0.0049,0.0226,0.0238,0.0029
882,0.0051,0.0257,0.0260,0.0030
883,0.0070,0.0219,0.0246,0.0048
884,0.0057,0.0354,0.0335,0.0027
885,0.0059,0.0292,0.0285,0.0033
886,0.0075,0.0279,0.0291,0.0053
887,0.0070,0.0327,0.0308,0.0035
888,0.0075,0.0342,0.0316,0.0036
889,0.0047,0.0314,0.0303,0.0035
890,0.0054,0.0759,0.0917,0.0434
891,0.0089,0.0336,0.0499,0.0059
892,0.0066,0.0474,0.0501,0.0291
893,0.0066,0.0439,0.0499,0.0254
894,0.0077,0.0365,0.0387,0.0211
895,0.0056,0.0361,0.0438,0.0186
896,0.0052,0.0391,0.0462,0.0153
897,0.0065,0.0365,0.0345,0.0135
898,0.0047,0.0290,0.0309,0.0102
899,0.0047,0.0286,0.0290,0.0080
900,0.0063,0.0244,0.0261,0.0070
901,0.0047,0.0250,0.0274,0.0026
902,0.0074,0.0385,0.0554,0.0057
903,0.0049,0.0226,0.0238,0.0029
904,0.0066,0.0188,0.0221,0.0043
905,0.0048,0.0196,0.0239,0.0055
906,0.0049,0.0207,0.0253,0.0083
907,0.0049,0.0355,0.0332,0.0171
908,0.0051,0.0242,0.0276,0.0152
909,0.0054,0.0301,0.0317,0.0191
910,0.0070,0.0282,0.0309,0.0159
911,0.0063,0.0446,0.0406,0.0266
912,0.0069,0.0453,0.0490,0.0387
913,0.0068,0.0423,0.0590,0.0056
914,0.0086,0.0527,0.0450,0.0251
915,0.0051,0.0257,0.0260,0.0030
916,0.0046,0.0214,0.0239,0.0031
917,0.0066,0.0187,0.0220,0.0045
918,0.0046,0.0239,0.0254,0.0034
919,0.0046,0.0214,0.0239,0.0031
920,0.0066,0.0187,0.0220,0.0045
921,0.0046,0.0214,0.0239,0.0031
922,0.0046,0.0214,0.0239,0.0031
923,0.0046,0.0239,0.0254,0.0034
924,0.0066,0.0459,0.0626,0.0054
925,0.0046,0.0214,0.0239,0.0031
926,0.0046,0.0214,0.0239,0.0031
927,0.0070,0.0219,0.0246,0.0048
928,0.0046,0.0214,0.0239,0.0031
929,0.0046,0.0239,0.0254,0.0034
930,0.0066,0.0187,0.0220,0.0045
931,0.0046,0.0214,0.0239,0.0031
932,0.0046,0.0214,0.0239,0.0031
933,0.0066,0.0187,0.0220,0.0045
934,0.0046,0.0239,0.0254,0.0034
935,0.0052,0.0660,0.0620,0.0036
936,0.0046,0.0214,0.0239,0.0031
937,0.0066,0.0187,0.0220,0.0045
938,0.0046,0.0214,0.0239,0.0031
939,0.0054,0.0280,0.0276,0.0032
940,0.0046,0.0239,0.0254,0.0034
941,0.0046,0.0214,0.0239,0.0031
942,0.0046,0.0214,0.0239,0.0031
943,0.0066,0.0187,0.0220,0.0045
944,0.0046,0.0214,0.0239,0.0031
945,0.0046,0.0239,0.0254,0.0034
946,0.0060,0.0573,0.0552,0.0043
947,0.0066,0.0187,0.0220,0.0045
948,0.0046,0.0214,0.0239,0.0031
949,0.0046,0.0214,0.0239,0.0031
950,0.0066,0.0187,0.0220,0.0045
951,0.0059,0.0370,0.0352,0.0026
952,0.0046,0.0214,0.0239,0.0031
953,0.0066,0.0187,0.0220,0.0045
954,0.0046,0.0214,0.0239,0.0031
955,0.0046,0.0214,0.0239,0.0031
956,0.0046,0.0239,0.0254,0.0034
957,0.0062,0.0479,0.0635,0.0050
958,0.0080,0.0195,0.0220,0.0028
959,0.0070,0.0199,0.0221,0.0028
960,0.0089,0.0282,0.0324,0.0046
961,0.0071,0.0227,0.0253,0.0029
962,0.0057,0.0354,0.0335,0.0027
963,0.0075,0.0279,0.0291,0.0053
964,0.0069,0.0224,0.0255,0.0030
965,0.0062,0.0201,0.0231,0.0030
966,0.0077,0.0201,0.0229,0.0043
967,0.0049,0.0246,0.0290,0.0033
968,0.0058,0.0471,0.0617,0.0049
969,0.0045,0.0186,0.0211,0.0031
970,0.0063,0.0194,0.0217,0.0046
971,0.0047,0.0194,0.0216,0.0028
972,0.0049,0.0226,0.0238,0.0029
973,0.0051,0.0326,0.0310,0.0031
974,0.0052,0.0267,0.0265,0.0031
975,0.0070,0.0327,0.0308,0.0035
976,0.0072,0.0246,0.0273,0.0049
977,0.0059,0.0292,0.0285,0.0033
978,0.0060,0.0381,0.0367,0.0025
979,0.0053,0.0448,0.0583,0.0047
980,0.0081,0.0307,0.0305,0.0055
981,0.0075,0.0342,0.0316,0.0036
982,0.0066,0.0474,0.0501,0.0291
983,0.0090,0.0392,0.0416,0.0240
984,0.0055,0.0462,0.0521,0.0230
985,0.0055,0.0462,0.0521,0.0230
986,0.0055,0.0462,0.0521,0.0230
987,0.0055,0.0462,0.0521,0.0230
988,0.0055,0.0462,0.0521,0.0230
989,0.0055,0.0462,0.0521,0.0230
990,0.0052,0.0368,0.0427,0.0049
991,0.0046,0.0304,0.0342,0.0036
992,0.0046,0.0304,0.0342,0.0036
993,0.0066,0.0246,0.0260,0.0052
994,0.0046,0.0295,0.0336,0.0035
995,0.0046,0.0207,0.0251,0.0031
996,0.0064,0.0309,0.0315,0.0057
997,0.0049,0.0201,0.0236,0.0033
998,0.0051,0.0187,0.0216,0.0036
999,0.0070,0.0240,0.0252,0.0054
1000,0.0058,0.0245,0.0263,0.0026
1001,0.0056,0.0773,0.0928,0.0317
1002,0.0049,0.0382,0.0485,0.0045
1003,0.0059,0.0263,0.0276,0.0038
1004,0.0075,0.0283,0.0281,0.0061
1005,0.0071,0.0320,0.0299,0.0040
1006,0.0075,0.0332,0.0291,0.0042
1007,0.0047,0.0209,0.0244,0.0030
1008,0.0063,0.0422,0.0364,0.0267
1009,0.0064,0.0368,0.0342,0.0229
1010,0.0076,0.0395,0.0338,0.0182
1011,0.0057,0.0324,0.0307,0.0167
1012,0.0053,0.0382,0.0369,0.0150
1013,0.0051,0.0363,0.0430,0.0044
1014,0.0065,0.0471,0.0409,0.0134
1015,0.0046,0.0366,0.0330,0.0102
1016,0.0046,0.0374,0.0345,0.0085
1017,0.0064,0.0339,0.0332,0.0066
1018,0.0048,0.0261,0.0304,0.0031
1019,0.0049,0.0201,0.0236,0.0033
1020,0.0067,0.0214,0.0239,0.0047
1021,0.0047,0.0276,0.0346,0.0048
1022,0.0048,0.0278,0.0350,0.0078
1023,0.0049,0.0224,0.0236,0.0160
1024,0.0052,0.0420,0.0471,0.0043
1025,0.0051,0.0263,0.0322,0.0149
1026,0.0054,0.0261,0.0304,0.0187
1027,0.0069,0.0298,0.0342,0.0151
1028,0.0062,0.0321,0.0325,0.0252
1029,0.0070,0.0405,0.0512,0.0378
1030,0.0085,0.0416,0.0372,0.0213
1031,0.0051,0.0187,0.0216,0.0036
1032,0.0046,0.0304,0.0342,0.0036
1033,0.0066,0.0246,0.0260,0.0052
1034,0.0046,0.0223,0.0279,0.0030
1035,0.0055,0.0506,0.0538,0.0041
1036,0.0046,0.0304,0.0342,0.0036
1037,0.0066,0.0246,0.0260,0.0052
1038,0.0046,0.0304,0.0342,0.0036
1039,0.0046,0.0304,0.0342,0.0036
1040,0.0046,0.0223,0.0279,0.0030
1041,0.0046,0.0304,0.0342,0.0036
1042,0.0046,0.0304,0.0342,0.0036
1043,0.0070,0.0240,0.0252,0.0054
1044,0.0046,0.0304,0.0342,0.0036
1045,0.0046,0.0223,0.0279,0.0030
1046,0.0050,0.0643,0.0612,0.0041
1047,0.0066,0.0246,0.0260,0.0052
1048,0.0046,0.0304,0.0342,0.0036
1049,0.0046,0.0304,0.0342,0.0036
1050,0.0066,0.0246,0.0260,0.0052
1051,0.0046,0.0223,0.0279,0.0030
1052,0.0046,0.0304,0.0342,0.0036
1053,0.0066,0.0246,0.0260,0.0052
1054,0.0046,0.0304,0.0342,0.0036
1055,0.0054,0.0227,0.0249,0.0037
1056,0.0046,0.0223,0.0279,0.0030
1057,0.0059,0.0581,0.0583,0.0038
1058,0.0046,0.0304,0.0342,0.0036
1059,0.0046,0.0304,0.0342,0.0036
1060,0.0066,0.0246,0.0260,0.0052
1061,0.0046,0.0304,0.0342,0.0036
1062,0.0046,0.0223,0.0279,0.0030
1063,0.0066,0.0246,0.0260,0.0052
1064,0.0046,0.0304,0.0342,0.0036
1065,0.0046,0.0304,0.0342,0.0036
1066,0.0066,0.0246,0.0260,0.0052
1067,0.0060,0.0250,0.0260,0.0026
1068,0.0062,0.0577,0.0554,0.0046
1069,0.0046,0.0304,0.0342,0.0036
1070,0.0066,0.0246,0.0260,0.0052
1071,0.0046,0.0304,0.0342,0.0036
1072,0.0046,0.0304,0.0342,0.0036
1073,0.0046,0.0223,0.0279,0.0030
1074,0.0080,0.0243,0.0285,0.0033
1075,0.0069,0.0222,0.0245,0.0034
1076,0.0090,0.0369,0.0460,0.0041
1077,0.0070,0.0210,0.0212,0.0035
1078,0.0058,0.0245,0.0263,0.0026
1079,0.0059,0.0579,0.0570,0.0039
1080,0.0075,0.0283,0.0281,0.0061
1081,0.0068,0.0201,0.0206,0.0036
1082,0.0063,0.0196,0.0207,0.0036
1083,0.0077,0.0225,0.0241,0.0045
1084,0.0048,0.0318,0.0385,0.0030
1085,0.0045,0.0265,0.0299,0.0037
1086,0.0063,0.0276,0.0286,0.0055
1087,0.0047,0.0233,0.0273,0.0033
1088,0.0049,0.0201,0.0236,0.0033
1089,0.0051,0.0222,0.0254,0.0027
1090,0.0059,0.0573,0.0556,0.0041
1091,0.0052,0.0194,0.0221,0.0037
1092,0.0071,0.0320,0.0299,0.0040
1093,0.0072,0.0231,0.0243,0.0057
1094,0.0059,0.0263,0.0276,0.0038
1095,0.0061,0.0253,0.0255,0.0026
1096,0.0080,0.0345,0.0328,0.0063
1097,0.0075,0.0332,0.0291,0.0042
1098,0.0063,0.0422,0.0364,0.0267
1099,0.0087,0.0380,0.0334,0.0193
1100,0.0055,0.0448,0.0406,0.0231
1101,0.0055,0.0690,0.0656,0.0033
1102,0.0055,0.0448,0.0406,0.0231
1103,0.0055,0.0448,0.0406,0.0231
1104,0.0055,0.0448,0.0406,0.0231
1105,0.0055,0.0448,0.0406,0.0231
1106,0.0055,0.0448,0.0406,0.0231
1107,0.0046,0.0367,0.0418,0.0039
1108,0.0046,0.0367,0.0418,0.0039
1109,0.0066,0.0294,0.0324,0.0059
1110,0.0046,0.0342,0.0393,0.0037
1111,0.0047,0.0236,0.0296,0.0029
1112,0.0051,0.0463,0.0577,0.0054
1113,0.0052,0.0574,0.0770,0.0313
1114,0.0062,0.0577,0.0554,0.0046
1115,0.0064,0.0372,0.0393,0.0065
1116,0.0050,0.0253,0.0297,0.0035
1117,0.0051,0.0224,0.0263,0.0037
1118,0.0070,0.0298,0.0315,0.0061
1119,0.0058,0.0274,0.0299,0.0025
1120,0.0059,0.0318,0.0332,0.0040
1121,0.0075,0.0341,0.0337,0.0068
1122,0.0071,0.0377,0.0352,0.0043
1123,0.0076,0.0392,0.0344,0.0046
1124,0.0047,0.0224,0.0277,0.0028
1125,0.0063,0.0584,0.0563,0.0050
1126,0.0061,0.0465,0.0371,0.0305
1127,0.0063,0.0401,0.0339,0.0263
1128,0.0075,0.0459,0.0385,0.0225
1129,0.0057,0.0363,0.0320,0.0195
1130,0.0053,0.0419,0.0387,0.0169
1131,0.0065,0.0531,0.0478,0.0166
1132,0.0046,0.0418,0.0387,0.0121
1133,0.0045,0.0432,0.0411,0.0101
1134,0.0064,0.0395,0.0404,0.0083
1135,0.0048,0.0312,0.0364,0.0033
1136,0.0077,0.0760,0.0805,0.0494
1137,0.0050,0.0253,0.0297,0.0035
1138,0.0066,0.0257,0.0299,0.0049
1139,0.0047,0.0334,0.0418,0.0050
1140,0.0048,0.0333,0.0420,0.0084
1141,0.0049,0.0218,0.0263,0.0171
1142,0.0051,0.0300,0.0376,0.0164
1143,0.0054,0.0285,0.0350,0.0205
1144,0.0069,0.0332,0.0395,0.0172
1145,0.0062,0.0311,0.0346,0.0276
1146,0.0071,0.0447,0.0566,0.0405
1147,0.0069,0.0731,0.0812,0.0440
1148,0.0085,0.0397,0.0387,0.0243
1149,0.0051,0.0224,0.0263,0.0037
1150,0.0046,0.0367,0.0418,0.0039
1151,0.0066,0.0294,0.0324,0.0059
1152,0.0046,0.0271,0.0340,0.0029
1153,0.0046,0.0367,0.0418,0.0039
1154,0.0066,0.0294,0.0324,0.0059
1155,0.0046,0.0367,0.0418,0.0039
1156,0.0046,0.0367,0.0418,0.0039
1157,0.0046,0.0271,0.0340,0.0029
1158,0.0059,0.0706,0.0829,0.0347
1159,0.0046,0.0367,0.0418,0.0039
1160,0.0046,0.0367,0.0418,0.0039
1161,0.0070,0.0298,0.0315,0.0061
1162,0.0046,0.0367,0.0418,0.0039
1163,0.0046,0.0271,0.0340,0.0029
1164,0.0066,0.0294,0.0324,0.0059
1165,0.0046,0.0367,0.0418,0.0039
1166,0.0046,0.0367,0.0418,0.0039
1167,0.0066,0.0294,0.0324,0.0059
1168,0.0046,0.0271,0.0340,0.0029
1169,0.0059,0.0706,0.0829,0.0347
1170,0.0046,0.0367,0.0418,0.0039
1171,0.0066,0.0294,0.0324,0.0059
1172,0.0046,0.0367,0.0418,0.0039
1173,0.0054,0.0278,0.0305,0.0039
1174,0.0046,0.0271,0.0340,0.0029
1175,0.0046,0.0367,0.0418,0.0039
1176,0.0046,0.0367,0.0418,0.0039
1177,0.0066,0.0294,0.0324,0.0059
1178,0.0046,0.0367,0.0418,0.0039
1179,0.0046,0.0271,0.0340,0.0029
1180,0.0059,0.0706,0.0829,0.0347
1181,0.0066,0.0294,0.0324,0.0059
1182,0.0046,0.0367,0.0418,0.0039
1183,0.0046,0.0367,0.0418,0.0039
1184,0.0066,0.0294,0.0324,0.0059
1185,0.0060,0.0275,0.0285,0.0025
1186,0.0046,0.0367,0.0418,0.0039
1187,0.0066,0.0294,0.0324,0.0059
1188,0.0046,0.0367,0.0418,0.0039
1189,0.0046,0.0367,0.0418,0.0039
1190,0.0046,0.0271,0.0340,0.0029
1191,0.0059,0.0706,0.0829,0.0347
1192,0.0080,0.0276,0.0349,0.0035
1193,0.0069,0.0253,0.0306,0.0036
1194,0.0090,0.0415,0.0538,0.0045
1195,0.0070,0.0234,0.0261,0.0037
1196,0.0058,0.0274,0.0299,0.0025
1197,0.0075,0.0341,0.0337,0.0068
1198,0.0068,0.0227,0.0254,0.0039
1199,0.0063,0.0223,0.0254,0.0039
1200,0.0077,0.0264,0.0304,0.0052
1201,0.0048,0.0367,0.0447,0.0028
1202,0.0059,0.0706,0.0829,0.0347
1203,0.0045,0.0318,0.0367,0.0040
1204,0.0063,0.0323,0.0348,0.0061
1205,0.0047,0.0290,0.0340,0.0035
1206,0.0050,0.0253,0.0297,0.0035
1207,0.0051,0.0252,0.0299,0.0026
1208,0.0052,0.0236,0.0269,0.0039
1209,0.0071,0.0377,0.0352,0.0043
1210,0.0072,0.0283,0.0296,0.0062
1211,0.0059,0.0318,0.0332,0.0040
1212,0.0062,0.0275,0.0272,0.0026
1213,0.0059,0.0706,0.0829,0.0347
1214,0.0080,0.0413,0.0393,0.0070
1215,0.0076,0.0392,0.0344,0.0046
1216,0.0061,0.0465,0.0371,0.0305
1217,0.0085,0.0433,0.0368,0.0237
1218,0.0055,0.0490,0.0415,0.0257
1219,0.0055,0.0490,0.0415,0.0257
1220,0.0055,0.0490,0.0415,0.0257
1221,0.0055,0.0490,0.0415,0.0257
1222,0.0055,0.0490,0.0415,0.0257
1223,0.0055,0.0490,0.0415,0.0257
1224,0.0053,0.0521,0.0714,0.0260
1225,0.0051,0.0238,0.0267,0.0036
1226,0.0051,0.0238,0.0267,0.0036
1227,0.0051,0.0238,0.0267,0.0036
1228,0.0050,0.0238,0.0265,0.0036
1229,0.0049,0.0345,0.0350,0.0046
1230,0.0052,0.0257,0.0284,0.0036
1231,0.0056,0.0291,0.0312,0.0035
1232,0.0059,0.0319,0.0335,0.0034
1233,0.0059,0.0325,0.0337,0.0033
1234,0.0052,0.0356,0.0355,0.0036
1235,0.0053,0.0485,0.0667,0.0204
1236,0.0059,0.0296,0.0305,0.0033
1237,0.0060,0.0297,0.0303,0.0033
1238,0.0062,0.0299,0.0303,0.0033
1239,0.0063,0.0309,0.0309,0.0034
1240,0.0050,0.0366,0.0366,0.0044
1241,0.0073,0.0485,0.0501,0.0285
1242,0.0067,0.0455,0.0495,0.0245
1243,0.0062,0.0428,0.0480,0.0208
1244,0.0057,0.0393,0.0448,0.0173
1245,0.0057,0.0415,0.0476,0.0135
1246,0.0052,0.0458,0.0621,0.0147
1247,0.0050,0.0324,0.0366,0.0114
1248,0.0049,0.0304,0.0334,0.0090
1249,0.0050,0.0289,0.0311,0.0068
1250,0.0049,0.0269,0.0288,0.0050
1251,0.0051,0.0302,0.0329,0.0033
1252,0.0056,0.0291,0.0312,0.0035
1253,0.0053,0.0234,0.0261,0.0047
1254,0.0055,0.0242,0.0262,0.0067
1255,0.0058,0.0247,0.0260,0.0093
1256,0.0056,0.0373,0.0343,0.0174
1257,0.0051,0.0584,0.0639,0.0049
1258,0.0062,0.0281,0.0281,0.0157
1259,0.0064,0.0324,0.0316,0.0193
1260,0.0068,0.0383,0.0353,0.0229
1261,0.0072,0.0432,0.0384,0.0264
1262,0.0100,0.0415,0.0436,0.0379
1263,0.0085,0.0446,0.0402,0.0325
1264,0.0059,0.0319,0.0335,0.0034
1265,0.0051,0.0238,0.0267,0.0036
1266,0.0051,0.0238,0.0267,0.0036
1267,0.0048,0.0308,0.0323,0.0047
1268,0.0055,0.0630,0.0673,0.0049
1269,0.0051,0.0238,0.0267,0.0036
1270,0.0051,0.0238,0.0267,0.0036
1271,0.0051,0.0238,0.0267,0.0036
1272,0.0051,0.0238,0.0267,0.0036
1273,0.0048,0.0308,0.0323,0.0047
1274,0.0051,0.0238,0.0267,0.0036
1275,0.0051,0.0238,0.0267,0.0036
1276,0.0059,0.0325,0.0337,0.0033
1277,0.0051,0.0238,0.0267,0.0036
1278,0.0048,0.0308,0.0323,0.0047
1279,0.0053,0.0458,0.0555,0.0048
1280,0.0051,0.0238,0.0267,0.0036
1281,0.0051,0.0238,0.0267,0.0036
1282,0.0051,0.0238,0.0267,0.0036
1283,0.0051,0.0238,0.0267,0.0036
1284,0.0048,0.0308,0.0323,0.0047
1285,0.0051,0.0238,0.0267,0.0036
1286,0.0051,0.0238,0.0267,0.0036
1287,0.0051,0.0238,0.0267,0.0036
1288,0.0058,0.0309,0.0320,0.0033
1289,0.0048,0.0308,0.0323,0.0047
1290,0.0055,0.0447,0.0539,0.0087
1291,0.0051,0.0238,0.0267,0.0036
1292,0.0051,0.0238,0.0267,0.0036
1293,0.0051,0.0238,0.0267,0.0036
1294,0.0051,0.0238,0.0267,0.0036
1295,0.0048,0.0308,0.0323,0.0047
1296,0.0051,0.0238,0.0267,0.0036
1297,0.0051,0.0238,0.0267,0.0036
1298,0.0051,0.0238,0.0267,0.0036
1299,0.0051,0.0238,0.0267,0.0036
1300,0.0053,0.0361,0.0365,0.0035
1301,0.0058,0.0450,0.0545,0.0139
1302,0.0051,0.0238,0.0267,0.0036
1303,0.0051,0.0238,0.0267,0.0036
1304,0.0051,0.0238,0.0267,0.0036
1305,0.0051,0.0238,0.0267,0.0036
1306,0.0048,0.0308,0.0323,0.0047
1307,0.0089,0.0272,0.0310,0.0049
1308,0.0074,0.0296,0.0345,0.0048
1309,0.0067,0.0321,0.0375,0.0046
1310,0.0066,0.0342,0.0402,0.0045
1311,0.0052,0.0356,0.0355,0.0036
1312,0.0056,0.0765,0.0783,0.0284
1313,0.0060,0.0297,0.0303,0.0033
1314,0.0062,0.0347,0.0410,0.0041
1315,0.0058,0.0333,0.0394,0.0040
1316,0.0054,0.0306,0.0362,0.0039
1317,0.0051,0.0265,0.0291,0.0048
1318,0.0049,0.0249,0.0288,0.0037
1319,0.0050,0.0238,0.0265,0.0036
1320,0.0052,0.0257,0.0284,0.0036
1321,0.0056,0.0291,0.0312,0.0035
1322,0.0050,0.0357,0.0355,0.0040
1323,0.0052,0.0465,0.0555,0.0054
1324,0.0062,0.0518,0.0610,0.0261
1325,0.0059,0.0325,0.0337,0.0033
1326,0.0062,0.0299,0.0303,0.0033
1327,0.0058,0.0309,0.0320,0.0033
1328,0.0059,0.0296,0.0305,0.0033
1329,0.0055,0.0364,0.0375,0.0033
1330,0.0062,0.0299,0.0303,0.0033
1331,0.0063,0.0309,0.0309,0.0034
1332,0.0073,0.0485,0.0501,0.0285
1333,0.0067,0.0455,0.0495,0.0245
1334,0.0059,0.0466,0.0526,0.0215
1335,0.0064,0.0607,0.0682,0.0329
1336,0.0059,0.0466,0.0526,0.0215
1337,0.0059,0.0466,0.0526,0.0215
1338,0.0059,0.0466,0.0526,0.0215
1339,0.0059,0.0466,0.0526,0.0215
1340,0.0059,0.0466,0.0526,0.0215
1341,0.0050,0.0303,0.0333,0.0037
1342,0.0050,0.0303,0.0333,0.0037
1343,0.0050,0.0303,0.0333,0.0037
1344,0.0050,0.0299,0.0333,0.0037
1345,0.0049,0.0279,0.0315,0.0045
1346,0.0068,0.0724,0.0761,0.0403
1347,0.0052,0.0274,0.0310,0.0036
1348,0.0056,0.0260,0.0294,0.0036
1349,0.0059,0.0255,0.0289,0.0036
1350,0.0059,0.0254,0.0289,0.0036
1351,0.0052,0.0269,0.0305,0.0036
1352,0.0058,0.0274,0.0303,0.0036
1353,0.0060,0.0292,0.0309,0.0036
1354,0.0062,0.0312,0.0316,0.0036
1355,0.0063,0.0325,0.0312,0.0037
1356,0.0050,0.0278,0.0310,0.0042
1357,0.0073,0.0822,0.0815,0.0479
1358,0.0071,0.0459,0.0411,0.0273
1359,0.0066,0.0401,0.0379,0.0227
1360,0.0062,0.0373,0.0361,0.0186
1361,0.0057,0.0361,0.0348,0.0150
1362,0.0059,0.0385,0.0386,0.0125
1363,0.0050,0.0361,0.0342,0.0093
1364,0.0049,0.0365,0.0344,0.0072
1365,0.0049,0.0363,0.0346,0.0056
1366,0.0049,0.0350,0.0342,0.0046
1367,0.0051,0.0297,0.0335,0.0034
1368,0.0097,0.0853,0.0787,0.0627
1369,0.0056,0.0260,0.0294,0.0036
1370,0.0053,0.0297,0.0337,0.0047
1371,0.0055,0.0302,0.0341,0.0067
1372,0.0057,0.0307,0.0339,0.0094
1373,0.0057,0.0283,0.0270,0.0167
1374,0.0062,0.0311,0.0323,0.0160
1375,0.0064,0.0310,0.0311,0.0194
1376,0.0067,0.0325,0.0311,0.0225
1377,0.0072,0.0343,0.0323,0.0253
1378,0.0103,0.0431,0.0495,0.0369
1379,0.0086,0.0904,0.0815,0.0629
1380,0.0086,0.0365,0.0391,0.0291
1381,0.0059,0.0255,0.0289,0.0036
1382,0.0050,0.0303,0.0333,0.0037
1383,0.0050,0.0303,0.0333,0.0037
1384,0.0048,0.0284,0.0324,0.0047
1385,0.0050,0.0303,0.0333,0.0037
1386,0.0050,0.0303,0.0333,0.0037
1387,0.0050,0.0303,0.0333,0.0037
1388,0.0050,0.0303,0.0333,0.0037
1389,0.0048,0.0284,0.0324,0.0047
1390,0.0058,0.0699,0.0720,0.0047
1391,0.0050,0.0303,0.0333,0.0037
1392,0.0050,0.0303,0.0333,0.0037
1393,0.0059,0.0254,0.0289,0.0036
1394,0.0050,0.0303,0.0333,0.0037
1395,0.0048,0.0284,0.0324,0.0047
1396,0.0050,0.0303,0.0333,0.0037
1397,0.0050,0.0303,0.0333,0.0037
1398,0.0050,0.0303,0.0333,0.0037
1399,0.0050,0.0303,0.0333,0.0037
1400,0.0048,0.0284,0.0324,0.0047
1401,0.0051,0.0463,0.0577,0.0054
1402,0.0050,0.0303,0.0333,0.0037
1403,0.0050,0.0303,0.0333,0.0037
1404,0.0050,0.0303,0.0333,0.0037
1405,0.0058,0.0259,0.0293,0.0036
1406,0.0048,0.0284,0.0324,0.0047
1407,0.0050,0.0303,0.0333,0.0037
1408,0.0050,0.0303,0.0333,0.0037
1409,0.0050,0.0303,0.0333,0.0037
1410,0.0050,0.0303,0.0333,0.0037
1411,0.0048,0.0284,0.0324,0.0047
1412,0.0051,0.0463,0.0577,0.0054
1413,0.0050,0.0303,0.0333,0.0037
1414,0.0050,0.0303,0.0333,0.0037
1415,0.0050,0.0303,0.0333,0.0037
1416,0.0050,0.0303,0.0333,0.0037
1417,0.0053,0.0268,0.0301,0.0035
1418,0.0050,0.0303,0.0333,0.0037
1419,0.0050,0.0303,0.0333,0.0037
1420,0.0050,0.0303,0.0333,0.0037
1421,0.0050,0.0303,0.0333,0.0037
1422,0.0048,0.0284,0.0324,0.0047
1423,0.0048,0.0602,0.0638,0.0049
1424,0.0089,0.0295,0.0319,0.0047
1425,0.0074,0.0298,0.0319,0.0045
1426,0.0067,0.0306,0.0327,0.0044
1427,0.0065,0.0314,0.0337,0.0043
1428,0.0052,0.0269,0.0305,0.0036
1429,0.0060,0.0292,0.0309,0.0036
1430,0.0061,0.0313,0.0341,0.0040
1431,0.0058,0.0308,0.0339,0.0040
1432,0.0054,0.0292,0.0323,0.0039
1433,0.0051,0.0320,0.0363,0.0048
1434,0.0049,0.0698,0.0710,0.0047
1435,0.0051,0.0463,0.0577,0.0054
1436,0.0049,0.0291,0.0320,0.0038
1437,0.0050,0.0299,0.0333,0.0037
1438,0.0052,0.0274,0.0310,0.0036
1439,0.0056,0.0260,0.0294,0.0036
1440,0.0050,0.0268,0.0307,0.0038
1441,0.0059,0.0254,0.0289,0.0036
1442,0.0062,0.0312,0.0316,0.0036
1443,0.0058,0.0259,0.0293,0.0036
1444,0.0058,0.0274,0.0303,0.0036
1445,0.0055,0.0268,0.0299,0.0034
1446,0.0051,0.0463,0.0577,0.0054
1447,0.0062,0.0312,0.0316,0.0036
1448,0.0063,0.0325,0.0312,0.0037
1449,0.0071,0.0459,0.0411,0.0273
1450,0.0066,0.0401,0.0379,0.0227
1451,0.0059,0.0440,0.0425,0.0215
1452,0.0059,0.0440,0.0425,0.0215
1453,0.0059,0.0440,0.0425,0.0215
1454,0.0059,0.0440,0.0425,0.0215
1455,0.0059,0.0440,0.0425,0.0215
1456,0.0059,0.0440,0.0425,0.0215
1457,0.0051,0.0463,0.0577,0.0054
1458,0.0050,0.0363,0.0404,0.0038
1459,0.0050,0.0363,0.0404,0.0038
1460,0.0050,0.0363,0.0404,0.0038
1461,0.0050,0.0349,0.0392,0.0038
1462,0.0049,0.0307,0.0357,0.0044
1463,0.0053,0.0321,0.0365,0.0037
1464,0.0056,0.0299,0.0342,0.0037
1465,0.0059,0.0290,0.0331,0.0038
1466,0.0059,0.0292,0.0332,0.0038
1467,0.0052,0.0310,0.0347,0.0036
1468,0.0051,0.0463,0.0577,0.0054
1469,0.0058,0.0335,0.0362,0.0038
1470,0.0060,0.0362,0.0376,0.0039
1471,0.0062,0.0383,0.0380,0.0040
1472,0.0063,0.0396,0.0373,0.0041
1473,0.0050,0.0294,0.0341,0.0042
1474,0.0070,0.0511,0.0439,0.0317
1475,0.0065,0.0443,0.0396,0.0266
1476,0.0062,0.0409,0.0378,0.0222
1477,0.0057,0.0401,0.0374,0.0182
1478,0.0059,0.0423,0.0410,0.0147
1479,0.0048,0.0602,0.0638,0.0049
1480,0.0051,0.0410,0.0392,0.0117
1481,0.0049,0.0420,0.0405,0.0093
1482,0.0049,0.0421,0.0411,0.0074
1483,0.0049,0.0405,0.0406,0.0058
1484,0.0052,0.0336,0.0382,0.0035
1485,0.0056,0.0299,0.0342,0.0037
1486,0.0053,0.0358,0.0413,0.0047
1487,0.0055,0.0357,0.0413,0.0071
1488,0.0057,0.0361,0.0411,0.0102
1489,0.0057,0.0299,0.0309,0.0180
1490,0.0051,0.0463,0.0577,0.0054
1491,0.0062,0.0352,0.0382,0.0176
1492,0.0064,0.0340,0.0361,0.0214
1493,0.0067,0.0348,0.0356,0.0249
1494,0.0072,0.0355,0.0361,0.0279
1495,0.0104,0.0498,0.0567,0.0396
1496,0.0086,0.0392,0.0445,0.0319
1497,0.0059,0.0290,0.0331,0.0038
1498,0.0050,0.0363,0.0404,0.0038
1499,0.0050,0.0363,0.0404,0.0038
1500,0.0048,0.0321,0.0375,0.0047
1501,0.0051,0.0463,0.0577,0.0054
1502,0.0050,0.0363,0.0404,0.0038
1503,0.0050,0.0363,0.0404,0.0038
1504,0.0050,0.0363,0.0404,0.0038
1505,0.0050,0.0363,0.0404,0.0038
1506,0.0048,0.0321,0.0375,0.0047
1507,0.0050,0.0363,0.0404,0.0038
1508,0.0050,0.0363,0.0404,0.0038
1509,0.0059,0.0292,0.0332,0.0038
1510,0.0050,0.0363,0.0404,0.0038
1511,0.0048,0.0321,0.0375,0.0047
1512,0.0059,0.0734,0.0736,0.0047
1513,0.0050,0.0363,0.0404,0.0038
1514,0.0050,0.0363,0.0404,0.0038
1515,0.0050,0.0363,0.0404,0.0038
1516,0.0050,0.0363,0.0404,0.0038
1517,0.0048,0.0321,0.0375,0.0047
1518,0.0050,0.0363,0.0404,0.0038
1519,0.0050,0.0363,0.0404,0.0038
1520,0.0050,0.0363,0.0404,0.0038
1521,0.0058,0.0310,0.0347,0.0037
1522,0.0048,0.0321,0.0375,0.0047
1523,0.0051,0.0463,0.0577,0.0054
1524,0.0050,0.0363,0.0404,0.0038
1525,0.0050,0.0363,0.0404,0.0038
1526,0.0050,0.0363,0.0404,0.0038
1527,0.0050,0.0363,0.0404,0.0038
1528,0.0048,0.0321,0.0375,0.0047
1529,0.0050,0.0363,0.0404,0.0038
1530,0.0050,0.0363,0.0404,0.0038
1531,0.0050,0.0363,0.0404,0.0038
1532,0.0050,0.0363,0.0404,0.0038
1533,0.0054,0.0307,0.0336,0.0034
1534,0.0048,0.0602,0.0638,0.0049
1535,0.0050,0.0363,0.0404,0.0038
1536,0.0050,0.0363,0.0404,0.0038
1537,0.0050,0.0363,0.0404,0.0038
1538,0.0050,0.0363,0.0404,0.0038
1539,0.0048,0.0321,0.0375,0.0047
1540,0.0089,0.0320,0.0366,0.0046
1541,0.0074,0.0318,0.0356,0.0045
1542,0.0067,0.0321,0.0354,0.0044
1543,0.0065,0.0327,0.0359,0.0043
1544,0.0052,0.0310,0.0347,0.0036
1545,0.0053,0.0527,0.0595,0.0052
1546,0.0051,0.0463,0.0577,0.0054
1547,0.0060,0.0362,0.0376,0.0039
1548,0.0061,0.0326,0.0361,0.0041
1549,0.0058,0.0323,0.0360,0.0041
1550,0.0054,0.0318,0.0357,0.0040
1551,0.0050,0.0369,0.0425,0.0048
1552,0.0049,0.0334,0.0375,0.0039
1553,0.0050,0.0349,0.0392,0.0038
1554,0.0053,0.0321,0.0365,0.0037
1555,0.0056,0.0299,0.0342,0.0037
1556,0.0050,0.0302,0.0351,0.0038
1557,0.0051,0.0463,0.0577,0.0054
1558,0.0059,0.0292,0.0332,0.0038
1559,0.0062,0.0383,0.0380,0.0040
1560,0.0058,0.0310,0.0347,0.0037
1561,0.0058,0.0335,0.0362,0.0038
1562,0.0055,0.0311,0.0333,0.0033
1563,0.0062,0.0383,0.0380,0.0040
1564,0.0063,0.0396,0.0373,0.0041
1565,0.0070,0.0511,0.0439,0.0317
1566,0.0065,0.0443,0.0396,0.0266
1567,0.0059,0.0484,0.0444,0.0245
1568,0.0051,0.0463,0.0577,0.0054
1569,0.0059,0.0484,0.0444,0.0245
1570,0.0059,0.0484,0.0444,0.0245
1571,0.0059,0.0484,0.0444,0.0245
1572,0.0059,0.0484,0.0444,0.0245
1573,0.0059,0.0484,0.0444,0.0245
1574,0.0046,0.0396,0.0498,0.0047
1575,0.0046,0.0396,0.0498,0.0047
1576,0.0060,0.0405,0.0585,0.0107
1577,0.0047,0.0394,0.0473,0.0047
1578,0.0049,0.0574,0.0583,0.0037
1579,0.0051,0.0463,0.0577,0.0054
1580,0.0061,0.0400,0.0537,0.0102
1581,0.0052,0.0523,0.0558,0.0041
1582,0.0055,0.0580,0.0591,0.0039
1583,0.0068,0.0481,0.0558,0.0094
1584,0.0053,0.0710,0.0647,0.0026
1585,0.0056,0.0641,0.0606,0.0045
1586,0.0074,0.0599,0.0615,0.0092
1587,0.0059,0.0672,0.0620,0.0053
1588,0.0061,0.0685,0.0627,0.0058
1589,0.0050,0.0626,0.0615,0.0037
1590,0.0048,0.0602,0.0638,0.0049
1591,0.0070,0.0869,0.0905,0.0609
1592,0.0066,0.0823,0.0906,0.0547
1593,0.0067,0.0627,0.0734,0.0529
1594,0.0053,0.0680,0.0837,0.0426
1595,0.0057,0.0703,0.0854,0.0315
1596,0.0066,0.0476,0.0643,0.0364
1597,0.0049,0.0471,0.0653,0.0257
1598,0.0049,0.0440,0.0606,0.0202
1599,0.0059,0.0396,0.0592,0.0216
1600,0.0049,0.0493,0.0540,0.0042
1601,0.0051,0.0463,0.0577,0.0054
1602,0.0052,0.0523,0.0558,0.0041
1603,0.0061,0.0425,0.0590,0.0062
1604,0.0049,0.0362,0.0457,0.0078
1605,0.0050,0.0369,0.0471,0.0132
1606,0.0052,0.0611,0.0661,0.0280
1607,0.0054,0.0421,0.0533,0.0256
1608,0.0057,0.0493,0.0597,0.0325
1609,0.0069,0.0440,0.0579,0.0309
1610,0.0065,0.0682,0.0722,0.0475
1611,0.0088,0.0803,0.0782,0.0628
1612,0.0051,0.0463,0.0577,0.0054
1613,0.0082,0.0703,0.0725,0.0529
1614,0.0055,0.0580,0.0591,0.0039
1615,0.0046,0.0396,0.0498,0.0047
1616,0.0060,0.0405,0.0585,0.0107
1617,0.0047,0.0492,0.0527,0.0038
1618,0.0046,0.0396,0.0498,0.0047
1619,0.0060,0.0405,0.0585,0.0107
1620,0.0046,0.0396,0.0498,0.0047
1621,0.0046,0.0396,0.0498,0.0047
1622,0.0047,0.0492,0.0527,0.0038
1623,0.0051,0.0463,0.0577,0.0054
1624,0.0046,0.0396,0.0498,0.0047
1625,0.0046,0.0396,0.0498,0.0047
1626,0.0068,0.0481,0.0558,0.0094
1627,0.0046,0.0396,0.0498,0.0047
1628,0.0047,0.0492,0.0527,0.0038
1629,0.0060,0.0405,0.0585,0.0107
1630,0.0046,0.0396,0.0498,0.0047
1631,0.0046,0.0396,0.0498,0.0047
1632,0.0060,0.0405,0.0585,0.0107
1633,0.0047,0.0492,0.0527,0.0038
1634,0.0059,0.0736,0.0723,0.0048
1635,0.0046,0.0396,0.0498,0.0047
1636,0.0060,0.0405,0.0585,0.0107
1637,0.0046,0.0396,0.0498,0.0047
1638,0.0056,0.0626,0.0603,0.0041
1639,0.0047,0.0492,0.0527,0.0038
1640,0.0046,0.0396,0.0498,0.0047
1641,0.0046,0.0396,0.0498,0.0047
1642,0.0060,0.0405,0.0585,0.0107
1643,0.0046,0.0396,0.0498,0.0047
1644,0.0047,0.0492,0.0527,0.0038
1645,0.0048,0.0602,0.0638,0.0049
1646,0.0060,0.0405,0.0585,0.0107
1647,0.0046,0.0396,0.0498,0.0047
1648,0.0046,0.0396,0.0498,0.0047
1649,0.0060,0.0405,0.0585,0.0107
1650,0.0054,0.0730,0.0660,0.0024
1651,0.0046,0.0396,0.0498,0.0047
1652,0.0060,0.0405,0.0585,0.0107
1653,0.0046,0.0396,0.0498,0.0047
1654,0.0046,0.0396,0.0498,0.0047
1655,0.0047,0.0492,0.0527,0.0038
1656,0.0055,0.0630,0.0673,0.0049
1657,0.0051,0.0463,0.0577,0.0054
1658,0.0080,0.0313,0.0553,0.0065
1659,0.0070,0.0355,0.0594,0.0063
1660,0.0090,0.0262,0.0459,0.0142
1661,0.0066,0.0420,0.0647,0.0058
1662,0.0053,0.0710,0.0647,0.0026
1663,0.0074,0.0599,0.0615,0.0092
1664,0.0062,0.0445,0.0649,0.0053
1665,0.0058,0.0439,0.0628,0.0052
1666,0.0067,0.0395,0.0608,0.0121
1667,0.0049,0.0405,0.0485,0.0037
1668,0.0051,0.0463,0.0577,0.0054
1669,0.0045,0.0399,0.0526,0.0048
1670,0.0059,0.0404,0.0565,0.0104
1671,0.0049,0.0434,0.0493,0.0044
1672,0.0052,0.0523,0.0558,0.0041
1673,0.0051,0.0674,0.0631,0.0031
1674,0.0056,0.0614,0.0606,0.0039
1675,0.0059,0.0672,0.0620,0.0053
1676,0.0073,0.0556,0.0610,0.0092
1677,0.0056,0.0641,0.0606,0.0045
1678,0.0056,0.0749,0.0673,0.0025
1679,0.0051,0.0463,0.0577,0.0054
1680,0.0074,0.0602,0.0602,0.0094
1681,0.0061,0.0685,0.0627,0.0058
1682,0.0070,0.0869,0.0905,0.0609
1683,0.0078,0.0722,0.0776,0.0596
1684,0.0056,0.0804,0.0932,0.0434
1685,0.0056,0.0804,0.0932,0.0434
1686,0.0056,0.0804,0.0932,0.0434
1687,0.0056,0.0804,0.0932,0.0434
1688,0.0056,0.0804,0.0932,0.0434
1689,0.0056,0.0804,0.0932,0.0434
1690,0.0051,0.0463,0.0577,0.0054
1691,0.0046,0.0307,0.0375,0.0036
1692,0.0046,0.0307,0.0375,0.0036
1693,0.0060,0.0307,0.0439,0.0085
1694,0.0047,0.0310,0.0364,0.0035
1695,0.0049,0.0452,0.0458,0.0038
1696,0.0060,0.0306,0.0401,0.0078
1697,0.0053,0.0405,0.0430,0.0031
1698,0.0056,0.0447,0.0454,0.0030
1699,0.0069,0.0377,0.0434,0.0074
1700,0.0053,0.0559,0.0512,0.0026
1701,0.0048,0.0602,0.0638,0.0049
1702,0.0056,0.0502,0.0478,0.0035
1703,0.0074,0.0463,0.0476,0.0073
1704,0.0059,0.0535,0.0497,0.0041
1705,0.0061,0.0549,0.0504,0.0045
1706,0.0050,0.0490,0.0480,0.0037
1707,0.0067,0.0708,0.0735,0.0485
1708,0.0065,0.0667,0.0735,0.0433
1709,0.0067,0.0522,0.0593,0.0410
1710,0.0055,0.0555,0.0678,0.0334
1711,0.0058,0.0577,0.0698,0.0249
1712,0.0051,0.0463,0.0577,0.0054
1713,0.0066,0.0418,0.0515,0.0278
1714,0.0048,0.0390,0.0517,0.0198
1715,0.0048,0.0360,0.0471,0.0153
1716,0.0059,0.0317,0.0449,0.0166
1717,0.0049,0.0396,0.0431,0.0032
1718,0.0053,0.0405,0.0430,0.0031
1719,0.0061,0.0321,0.0444,0.0053
1720,0.0049,0.0285,0.0349,0.0070
1721,0.0051,0.0293,0.0362,0.0114
1722,0.0052,0.0476,0.0513,0.0239
1723,0.0051,0.0463,0.0577,0.0054
1724,0.0054,0.0340,0.0419,0.0215
1725,0.0057,0.0396,0.0471,0.0272
1726,0.0069,0.0357,0.0451,0.0251
1727,0.0065,0.0545,0.0575,0.0394
1728,0.0089,0.0667,0.0669,0.0530
1729,0.0082,0.0587,0.0590,0.0426
1730,0.0056,0.0447,0.0454,0.0030
1731,0.0046,0.0307,0.0375,0.0036
1732,0.0060,0.0307,0.0439,0.0085
1733,0.0047,0.0390,0.0415,0.0038
1734,0.0051,0.0463,0.0577,0.0054
1735,0.0046,0.0307,0.0375,0.0036
1736,0.0060,0.0307,0.0439,0.0085
1737,0.0046,0.0307,0.0375,0.0036
1738,0.0046,0.0307,0.0375,0.0036
1739,0.0047,0.0390,0.0415,0.0038
1740,0.0046,0.0307,0.0375,0.0036
1741,0.0046,0.0307,0.0375,0.0036
1742,0.0069,0.0377,0.0434,0.0074
1743,0.0046,0.0307,0.0375,0.0036
1744,0.0047,0.0390,0.0415,0.0038
1745,0.0051,0.0463,0.0577,0.0054
1746,0.0060,0.0307,0.0439,0.0085
1747,0.0046,0.0307,0.0375,0.0036
1748,0.0046,0.0307,0.0375,0.0036
1749,0.0060,0.0307,0.0439,0.0085
1750,0.0047,0.0390,0.0415,0.0038
1751,0.0046,0.0307,0.0375,0.0036
1752,0.0060,0.0307,0.0439,0.0085
1753,0.0046,0.0307,0.0375,0.0036
1754,0.0056,0.0485,0.0469,0.0032
1755,0.0047,0.0390,0.0415,0.0038
1756,0.0054,0.0849,0.0795,0.0035
1757,0.0046,0.0307,0.0375,0.0036
1758,0.0046,0.0307,0.0375,0.0036
1759,0.0060,0.0307,0.0439,0.0085
1760,0.0046,0.0307,0.0375,0.0036
1761,0.0047,0.0390,0.0415,0.0038
1762,0.0060,0.0307,0.0439,0.0085
1763,0.0046,0.0307,0.0375,0.0036
1764,0.0046,0.0307,0.0375,0.0036
1765,0.0060,0.0307,0.0439,0.0085
1766,0.0054,0.0571,0.0518,0.0024
1767,0.0058,0.0699,0.0720,0.0047
1768,0.0051,0.0463,0.0577,0.0054
1769,0.0046,0.0307,0.0375,0.0036
1770,0.0060,0.0307,0.0439,0.0085
1771,0.0046,0.0307,0.0375,0.0036
1772,0.0046,0.0307,0.0375,0.0036
1773,0.0047,0.0390,0.0415,0.0038
1774,0.0080,0.0252,0.0419,0.0055
1775,0.0069,0.0283,0.0455,0.0052
1776,0.0090,0.0244,0.0355,0.0118
1777,0.0066,0.0338,0.0504,0.0048
1778,0.0053,0.0559,0.0512,0.0026
1779,0.0051,0.0463,0.0577,0.0054
1780,0.0074,0.0463,0.0476,0.0073
1781,0.0062,0.0351,0.0503,0.0043
1782,0.0058,0.0340,0.0480,0.0041
1783,0.0067,0.0307,0.0462,0.0097
1784,0.0049,0.0330,0.0387,0.0037
1785,0.0045,0.0301,0.0389,0.0037
1786,0.0059,0.0304,0.0420,0.0081
1787,0.0049,0.0338,0.0381,0.0034
1788,0.0053,0.0405,0.0430,0.0031
1789,0.0050,0.0527,0.0494,0.0032
1790,0.0051,0.0463,0.0577,0.0054
1791,0.0056,0.0470,0.0464,0.0030
1792,0.0059,0.0535,0.0497,0.0041
1793,0.0073,0.0428,0.0470,0.0072
1794,0.0056,0.0502,0.0478,0.0035
1795,0.0055,0.0588,0.0530,0.0024
1796,0.0074,0.0475,0.0475,0.0074
1797,0.0061,0.0549,0.0504,0.0045
1798,0.0067,0.0708,0.0735,0.0485
1799,0.0077,0.0584,0.0623,0.0461
1800,0.0056,0.0666,0.0768,0.0351
1801,0.0051,0.0463,0.0577,0.0054
1802,0.0056,0.0666,0.0768,0.0351
1803,0.0056,0.0666,0.0768,0.0351
1804,0.0056,0.0666,0.0768,0.0351
1805,0.0056,0.0666,0.0768,0.0351
1806,0.0056,0.0666,0.0768,0.0351
1807,0.0046,0.0277,0.0295,0.0024
1808,0.0046,0.0277,0.0295,0.0024
1809,0.0061,0.0215,0.0237,0.0049
1810,0.0046,0.0279,0.0302,0.0024
1811,0.0049,0.0277,0.0305,0.0036
1812,0.0048,0.0602,0.0638,0.0049
1813,0.0060,0.0262,0.0265,0.0047
1814,0.0053,0.0251,0.0278,0.0024
1815,0.0056,0.0257,0.0278,0.0025
1816,0.0070,0.0248,0.0267,0.0048
1817,0.0052,0.0364,0.0368,0.0027
1818,0.0055,0.0345,0.0359,0.0030
1819,0.0074,0.0310,0.0318,0.0054
1820,0.0059,0.0412,0.0403,0.0033
1821,0.0060,0.0439,0.0412,0.0035
1822,0.0050,0.0292,0.0314,0.0035
1823,0.0088,0.0396,0.0629,0.0067
1824,0.0063,0.0507,0.0478,0.0310
1825,0.0063,0.0454,0.0459,0.0268
1826,0.0067,0.0439,0.0412,0.0216
1827,0.0057,0.0382,0.0414,0.0192
1828,0.0060,0.0418,0.0460,0.0158
1829,0.0065,0.0450,0.0411,0.0136
1830,0.0046,0.0356,0.0358,0.0102
1831,0.0046,0.0349,0.0343,0.0077
1832,0.0059,0.0297,0.0297,0.0077
1833,0.0051,0.0294,0.0326,0.0023
1834,0.0074,0.0453,0.0687,0.0065
1835,0.0053,0.0251,0.0278,0.0024
1836,0.0061,0.0203,0.0233,0.0044
1837,0.0049,0.0276,0.0308,0.0060
1838,0.0050,0.0300,0.0331,0.0090
1839,0.0052,0.0284,0.0317,0.0179
1840,0.0054,0.0314,0.0342,0.0161
1841,0.0057,0.0316,0.0350,0.0199
1842,0.0069,0.0314,0.0329,0.0166
1843,0.0064,0.0365,0.0392,0.0271
1844,0.0092,0.0565,0.0608,0.0390
1845,0.0068,0.0495,0.0723,0.0063
1846,0.0081,0.0410,0.0403,0.0251
1847,0.0056,0.0257,0.0278,0.0025
1848,0.0046,0.0277,0.0295,0.0024
1849,0.0061,0.0215,0.0237,0.0049
1850,0.0048,0.0272,0.0309,0.0037
1851,0.0046,0.0277,0.0295,0.0024
1852,0.0061,0.0215,0.0237,0.0049
1853,0.0046,0.0277,0.0295,0.0024
1854,0.0046,0.0277,0.0295,0.0024
1855,0.0048,0.0272,0.0309,0.0037
1856,0.0066,0.0536,0.0760,0.0062
1857,0.0046,0.0277,0.0295,0.0024
1858,0.0046,0.0277,0.0295,0.0024
1859,0.0070,0.0248,0.0267,0.0048
1860,0.0046,0.0277,0.0295,0.0024
1861,0.0048,0.0272,0.0309,0.0037
1862,0.0061,0.0215,0.0237,0.0049
1863,0.0046,0.0277,0.0295,0.0024
1864,0.0046,0.0277,0.0295,0.0024
1865,0.0061,0.0215,0.0237,0.0049
1866,0.0048,0.0272,0.0309,0.0037
1867,0.0053,0.0831,0.0777,0.0036
1868,0.0046,0.0277,0.0295,0.0024
1869,0.0061,0.0215,0.0237,0.0049
1870,0.0046,0.0277,0.0295,0.0024
1871,0.0055,0.0307,0.0323,0.0028
1872,0.0048,0.0272,0.0309,0.0037
1873,0.0046,0.0277,0.0295,0.0024
1874,0.0046,0.0277,0.0295,0.0024
1875,0.0061,0.0215,0.0237,0.0049
1876,0.0046,0.0277,0.0295,0.0024
1877,0.0048,0.0272,0.0309,0.0037
1878,0.0059,0.0734,0.0736,0.0047
1879,0.0060,0.0740,0.0708,0.0054
1880,0.0061,0.0215,0.0237,0.0049
1881,0.0046,0.0277,0.0295,0.0024
1882,0.0046,0.0277,0.0295,0.0024
1883,0.0061,0.0215,0.0237,0.0049
1884,0.0053,0.0377,0.0371,0.0026
1885,0.0046,0.0277,0.0295,0.0024
1886,0.0061,0.0215,0.0237,0.0049
1887,0.0046,0.0277,0.0295,0.0024
1888,0.0046,0.0277,0.0295,0.0024
1889,0.0048,0.0272,0.0309,0.0037
1890,0.0062,0.0566,0.0772,0.0058
1891,0.0080,0.0215,0.0241,0.0040
1892,0.0069,0.0210,0.0242,0.0037
1893,0.0090,0.0298,0.0314,0.0078
1894,0.0066,0.0222,0.0263,0.0032
1895,0.0052,0.0364,0.0368,0.0027
1896,0.0074,0.0310,0.0318,0.0054
1897,0.0063,0.0219,0.0261,0.0029
1898,0.0058,0.0207,0.0244,0.0027
1899,0.0068,0.0214,0.0244,0.0058
1900,0.0049,0.0319,0.0357,0.0037
1901,0.0058,0.0564,0.0758,0.0057
1902,0.0045,0.0237,0.0255,0.0024
1903,0.0059,0.0233,0.0245,0.0048
1904,0.0049,0.0255,0.0283,0.0024
1905,0.0053,0.0251,0.0278,0.0024
1906,0.0049,0.0323,0.0342,0.0031
1907,0.0056,0.0275,0.0294,0.0027
1908,0.0059,0.0412,0.0403,0.0033
1909,0.0074,0.0257,0.0277,0.0049
1910,0.0055,0.0345,0.0359,0.0030
1911,0.0054,0.0387,0.0370,0.0025
1912,0.0053,0.0543,0.0720,0.0056
1913,0.0074,0.0367,0.0366,0.0056
1914,0.0060,0.0439,0.0412,0.0035
1915,0.0063,0.0507,0.0478,0.0310
1916,0.0074,0.0444,0.0421,0.0244
1917,0.0056,0.0494,0.0511,0.0246
1918,0.0056,0.0494,0.0511,0.0246
1919,0.0056,0.0494,0.0511,0.0246
1920,0.0056,0.0494,0.0511,0.0246
1921,0.0056,0.0494,0.0511,0.0246
1922,0.0056,0.0494,0.0511,0.0246
1923,0.0051,0.0466,0.0549,0.0049
1924,0.0046,0.0398,0.0433,0.0025
1925,0.0046,0.0398,0.0433,0.0025
1926,0.0061,0.0310,0.0318,0.0044
1927,0.0046,0.0400,0.0441,0.0025
1928,0.0049,0.0325,0.0388,0.0034
1929,0.0060,0.0386,0.0391,0.0048
1930,0.0054,0.0327,0.0374,0.0027
1931,0.0056,0.0314,0.0359,0.0030
1932,0.0071,0.0339,0.0357,0.0051
1933,0.0051,0.0431,0.0464,0.0027
1934,0.0049,0.0488,0.0626,0.0054
1935,0.0055,0.0446,0.0476,0.0036
1936,0.0074,0.0412,0.0420,0.0063
1937,0.0059,0.0530,0.0527,0.0040
1938,0.0060,0.0558,0.0531,0.0043
1939,0.0049,0.0324,0.0385,0.0032
1940,0.0060,0.0558,0.0465,0.0327
1941,0.0061,0.0483,0.0421,0.0279
1942,0.0066,0.0548,0.0477,0.0223
1943,0.0057,0.0428,0.0396,0.0194
1944,0.0062,0.0463,0.0450,0.0165
1945,0.0052,0.0465,0.0555,0.0054
1946,0.0064,0.0587,0.0533,0.0137
1947,0.0047,0.0462,0.0436,0.0099
1948,0.0046,0.0465,0.0443,0.0076
1949,0.0059,0.0418,0.0408,0.0055
1950,0.0051,0.0376,0.0426,0.0026
1951,0.0054,0.0327,0.0374,0.0027
1952,0.0061,0.0274,0.0296,0.0043
1953,0.0049,0.0397,0.0454,0.0062
1954,0.0050,0.0420,0.0473,0.0095
1955,0.0052,0.0325,0.0379,0.0177
1956,0.0053,0.0527,0.0595,0.0052
1957,0.0054,0.0423,0.0464,0.0169
1958,0.0057,0.0400,0.0441,0.0206
1959,0.0068,0.0417,0.0439,0.0174
1960,0.0064,0.0396,0.0443,0.0268
1961,0.0095,0.0677,0.0725,0.0383
1962,0.0081,0.0400,0.0424,0.0227
1963,0.0056,0.0314,0.0359,0.0030
1964,0.0046,0.0398,0.0433,0.0025
1965,0.0061,0.0310,0.0318,0.0044
1966,0.0048,0.0348,0.0413,0.0036
1967,0.0055,0.0630,0.0673,0.0049
1968,0.0046,0.0398,0.0433,0.0025
1969,0.0061,0.0310,0.0318,0.0044
1970,0.0046,0.0398,0.0433,0.0025
1971,0.0046,0.0398,0.0433,0.0025
1972,0.0048,0.0348,0.0413,0.0036
1973,0.0046,0.0398,0.0433,0.0025
1974,0.0046,0.0398,0.0433,0.0025
1975,0.0071,0.0339,0.0357,0.0051
1976,0.0046,0.0398,0.0433,0.0025
1977,0.0048,0.0348,0.0413,0.0036
1978,0.0051,0.0803,0.0765,0.0040
1979,0.0061,0.0310,0.0318,0.0044
1980,0.0046,0.0398,0.0433,0.0025
1981,0.0046,0.0398,0.0433,0.0025
1982,0.0061,0.0310,0.0318,0.0044
1983,0.0048,0.0348,0.0413,0.0036
1984,0.0046,0.0398,0.0433,0.0025
1985,0.0061,0.0310,0.0318,0.0044
1986,0.0046,0.0398,0.0433,0.0025
1987,0.0055,0.0390,0.0429,0.0034
1988,0.0048,0.0348,0.0413,0.0036
1989,0.0053,0.0831,0.0777,0.0036
1990,0.0059,0.0734,0.0736,0.0047
1991,0.0046,0.0398,0.0433,0.0025
1992,0.0046,0.0398,0.0433,0.0025
1993,0.0061,0.0310,0.0318,0.0044
1994,0.0046,0.0398,0.0433,0.0025
1995,0.0048,0.0348,0.0413,0.0036
1996,0.0061,0.0310,0.0318,0.0044
1997,0.0046,0.0398,0.0433,0.0025
1998,0.0046,0.0398,0.0433,0.0025
1999,0.0061,0.0310,0.0318,0.0044
2000,0.0053,0.0444,0.0460,0.0026
2001,0.0062,0.0746,0.0711,0.0059
2002,0.0046,0.0398,0.0433,0.0025
2003,0.0061,0.0310,0.0318,0.0044
2004,0.0046,0.0398,0.0433,0.0025
2005,0.0046,0.0398,0.0433,0.0025
2006,0.0048,0.0348,0.0413,0.0036
2007,0.0080,0.0280,0.0308,0.0033
2008,0.0069,0.0258,0.0276,0.0031
2009,0.0090,0.0395,0.0454,0.0057
2010,0.0065,0.0240,0.0250,0.0027
2011,0.0051,0.0431,0.0464,0.0027
2012,0.0059,0.0736,0.0723,0.0048
2013,0.0074,0.0412,0.0420,0.0063
2014,0.0062,0.0237,0.0250,0.0025
2015,0.0058,0.0245,0.0261,0.0024
2016,0.0068,0.0270,0.0283,0.0044
2017,0.0048,0.0424,0.0485,0.0037
2018,0.0045,0.0349,0.0379,0.0025
2019,0.0059,0.0345,0.0351,0.0045
2020,0.0050,0.0351,0.0397,0.0026
2021,0.0054,0.0327,0.0374,0.0027
2022,0.0049,0.0377,0.0431,0.0029
2023,0.0059,0.0734,0.0709,0.0051
2024,0.0056,0.0334,0.0378,0.0032
2025,0.0059,0.0530,0.0527,0.0040
2026,0.0075,0.0335,0.0353,0.0055
2027,0.0055,0.0446,0.0476,0.0036
2028,0.0054,0.0453,0.0450,0.0026
2029,0.0074,0.0492,0.0491,0.0066
2030,0.0060,0.0558,0.0531,0.0043
2031,0.0060,0.0558,0.0465,0.0327
2032,0.0071,0.0536,0.0469,0.0247
2033,0.0056,0.0538,0.0485,0.0264
2034,0.0056,0.0870,0.0817,0.0035
2035,0.0056,0.0538,0.0485,0.0264
2036,0.0056,0.0538,0.0485,0.0264
2037,0.0056,0.0538,0.0485,0.0264
2038,0.0056,0.0538,0.0485,0.0264
2039,0.0056,0.0538,0.0485,0.0264
2040,0.0046,0.0467,0.0516,0.0027
2041,0.0046,0.0467,0.0516,0.0027
2042,0.0061,0.0369,0.0394,0.0048
2043,0.0046,0.0459,0.0512,0.0027
2044,0.0049,0.0389,0.0462,0.0034
2045,0.0062,0.0746,0.0711,0.0059
2046,0.0060,0.0455,0.0475,0.0054
2047,0.0054,0.0395,0.0450,0.0029
2048,0.0057,0.0382,0.0434,0.0032
2049,0.0071,0.0414,0.0440,0.0057
2050,0.0051,0.0506,0.0540,0.0026
2051,0.0055,0.0521,0.0552,0.0039
2052,0.0075,0.0490,0.0501,0.0070
2053,0.0059,0.0613,0.0608,0.0045
2054,0.0060,0.0642,0.0612,0.0048
2055,0.0049,0.0383,0.0452,0.0031
2056,0.0063,0.0755,0.0720,0.0064
2057,0.0058,0.0629,0.0520,0.0375
2058,0.0060,0.0548,0.0470,0.0322
2059,0.0065,0.0628,0.0554,0.0274
2060,0.0057,0.0489,0.0450,0.0227
2061,0.0062,0.0518,0.0499,0.0187
2062,0.0064,0.0652,0.0610,0.0171
2063,0.0047,0.0527,0.0510,0.0120
2064,0.0046,0.0531,0.0522,0.0093
2065,0.0059,0.0483,0.0491,0.0070
2066,0.0051,0.0443,0.0502,0.0028
2067,0.0078,0.0937,0.0983,0.0625
2068,0.0054,0.0395,0.0450,0.0029
2069,0.0061,0.0330,0.0368,0.0044
2070,0.0049,0.0464,0.0537,0.0067
2071,0.0050,0.0485,0.0554,0.0104
2072,0.0052,0.0389,0.0453,0.0191
2073,0.0054,0.0483,0.0537,0.0187
2074,0.0057,0.0460,0.0512,0.0228
2075,0.0069,0.0470,0.0508,0.0198
2076,0.0064,0.0448,0.0505,0.0295
2077,0.0097,0.0758,0.0803,0.0412
2078,0.0070,0.0900,0.0990,0.0561
2079,0.0081,0.0438,0.0480,0.0260
2080,0.0057,0.0382,0.0434,0.0032
2081,0.0046,0.0467,0.0516,0.0027
2082,0.0061,0.0369,0.0394,0.0048
2083,0.0048,0.0416,0.0493,0.0036
2084,0.0046,0.0467,0.0516,0.0027
2085,0.0061,0.0369,0.0394,0.0048
2086,0.0046,0.0467,0.0516,0.0027
2087,0.0046,0.0467,0.0516,0.0027
2088,0.0048,0.0416,0.0493,0.0036
2089,0.0059,0.0862,0.1004,0.0437
2090,0.0046,0.0467,0.0516,0.0027
2091,0.0046,0.0467,0.0516,0.0027
2092,0.0071,0.0414,0.0440,0.0057
2093,0.0046,0.0467,0.0516,0.0027
2094,0.0048,0.0416,0.0493,0.0036
2095,0.0061,0.0369,0.0394,0.0048
2096,0.0046,0.0467,0.0516,0.0027
2097,0.0046,0.0467,0.0516,0.0027
2098,0.0061,0.0369,0.0394,0.0048
2099,0.0048,0.0416,0.0493,0.0036
Highest RMSE Cases
Vdc  Max RMSE=  0.0104 at Case 1495; 0 > 0.05
Idc  Max RMSE=  0.0937 at Case 557; 421 > 0.05
Id   Max RMSE=  0.1005 at Case 659; 656 > 0.05
Iq   Max RMSE=  0.0629 at Case 1379; 32 > 0.05
Total Error Summary
Vdc  RMSE=  0.0058
Idc  RMSE=  0.0434
Id   RMSE=  0.0475
Iq   RMSE=  0.0154
