Read Model from: ./ucf7s2ndx/
Export Model to: ./ucf7s2ndx/ucf7s2ndx_fhf.json
idx_in [0, 1, 2, 3, 4, 5, 6]
idx_out [7, 8, 9, 10]
make_mimo_block stable2ndx
H1s[0][0]  Real Poles: [-72.5556761 -72.5556761] Freqs [Hz]: [3.946727845570531]
H1s[0][1]  Real Poles: [-147.74990642  -51.92671887] Freqs [Hz]: []
H1s[0][2]  Real Poles: [-147.25282689  -52.7166792 ] Freqs [Hz]: []
H1s[0][3]  Real Poles: [-109.68069356  -69.6610697 ] Freqs [Hz]: []
H1s[1][0]  Real Poles: [-66.87458456 -66.87458456] Freqs [Hz]: [5.245878255020409]
H1s[1][1]  Real Poles: [-112.95633018 -112.95633018] Freqs [Hz]: [4.783593975738498]
H1s[1][2]  Real Poles: [-146.55766418  -52.98128998] Freqs [Hz]: []
H1s[1][3]  Real Poles: [-63.67284358 -63.67284358] Freqs [Hz]: [5.338769524211722]
H1s[2][0]  Real Poles: [-94.99148726 -94.99148726] Freqs [Hz]: [3.375589798916786]
H1s[2][1]  Real Poles: [-106.48887157 -106.48887157] Freqs [Hz]: [5.629043656055592]
H1s[2][2]  Real Poles: [-122.16432393 -122.16432393] Freqs [Hz]: [4.906413543975918]
H1s[2][3]  Real Poles: [-117.22755283 -117.22755283] Freqs [Hz]: [6.050669955561801]
H1s[3][0]  Real Poles: [-64.27904069 -64.27904069] Freqs [Hz]: [6.795354133443909]
H1s[3][1]  Real Poles: [-103.8265686   -91.20642809] Freqs [Hz]: []
H1s[3][2]  Real Poles: [-73.07049036 -73.07049036] Freqs [Hz]: [5.251624418211096]
H1s[3][3]  Real Poles: [-83.13229978 -83.13229978] Freqs [Hz]: [2.9027517420008735]
model_folder = ./ucf7s2ndx/
model_root = ucf7s2ndx
data_path = d:/data/ucf3/ucf7.hdf5
idx_in [0, 1, 2, 3, 4, 5, 6]
idx_out [7, 8, 9, 10]
read 3600 dataframes
dt=0.010000 data_len=401 n_io=11 n_case=3600
['G', 'Ud', 'Uq', 'Vd', 'Vq', 'GVrms', 'Ctrl'] ['Vdc', 'Idc', 'Id', 'Iq'] (3600, 401, 11)
make_mimo_block stable2ndx
prepending initial conditions (3600, 100, 11) (3600, 401, 11) float32 float32
results in (3600, 501, 11)
Idx,Vdc,Idc,Id,Iq
#,RMSE,RMSE,RMSE,RMSE
Total,0.0072,0.0639,0.0774,0.0165
0,0.0074,0.0837,0.1156,0.0080
1,0.0074,0.0837,0.1156,0.0080
2,0.0068,0.1101,0.1221,0.0085
3,0.0065,0.0676,0.0930,0.0065
4,0.0074,0.0939,0.1260,0.0091
5,0.0074,0.0939,0.1260,0.0091
6,0.0074,0.0939,0.1260,0.0091
7,0.0077,0.0996,0.1279,0.0090
8,0.0077,0.0996,0.1279,0.0090
9,0.0081,0.1097,0.1316,0.0085
10,0.0083,0.1205,0.1359,0.0079
11,0.0079,0.1285,0.1385,0.0076
12,0.0072,0.1309,0.1386,0.0078
13,0.0067,0.1287,0.1369,0.0084
14,0.0065,0.0676,0.0930,0.0065
15,0.0068,0.1227,0.1333,0.0095
16,0.0077,0.1159,0.1293,0.0108
17,0.0097,0.1084,0.1246,0.0123
18,0.0126,0.1013,0.1197,0.0141
19,0.0081,0.1097,0.1316,0.0085
20,0.0069,0.1320,0.1199,0.0776
21,0.0057,0.1217,0.1183,0.0684
22,0.0067,0.1128,0.1171,0.0597
23,0.0077,0.1051,0.1159,0.0519
24,0.0082,0.0978,0.1152,0.0446
25,0.0065,0.0676,0.0930,0.0065
26,0.0080,0.0921,0.1152,0.0379
27,0.0081,0.0885,0.1160,0.0316
28,0.0080,0.0875,0.1179,0.0256
29,0.0077,0.0885,0.1207,0.0196
30,0.0076,0.0908,0.1233,0.0142
31,0.0083,0.1205,0.1359,0.0079
32,0.0074,0.0964,0.1276,0.0057
33,0.0074,0.0982,0.1283,0.0070
34,0.0081,0.0991,0.1275,0.0117
35,0.0088,0.0996,0.1258,0.0176
36,0.0070,0.0720,0.0945,0.0064
37,0.0093,0.1006,0.1231,0.0242
38,0.0101,0.1026,0.1200,0.0317
39,0.0110,0.1053,0.1160,0.0400
40,0.0118,0.1040,0.1099,0.0486
41,0.0126,0.0990,0.1019,0.0572
42,0.0134,0.0920,0.0937,0.0653
43,0.0079,0.1285,0.1385,0.0076
44,0.0074,0.0939,0.1260,0.0091
45,0.0074,0.0939,0.1260,0.0091
46,0.0074,0.0939,0.1260,0.0091
47,0.0070,0.0720,0.0945,0.0064
48,0.0074,0.0939,0.1260,0.0091
49,0.0074,0.0939,0.1260,0.0091
50,0.0074,0.0939,0.1260,0.0091
51,0.0074,0.0939,0.1260,0.0091
52,0.0074,0.0939,0.1260,0.0091
53,0.0074,0.0939,0.1260,0.0091
54,0.0074,0.0939,0.1260,0.0091
55,0.0072,0.1309,0.1386,0.0078
56,0.0074,0.0939,0.1260,0.0091
57,0.0074,0.0939,0.1260,0.0091
58,0.0076,0.0807,0.0976,0.0059
59,0.0074,0.0939,0.1260,0.0091
60,0.0074,0.0939,0.1260,0.0091
61,0.0074,0.0939,0.1260,0.0091
62,0.0074,0.0939,0.1260,0.0091
63,0.0074,0.0939,0.1260,0.0091
64,0.0074,0.0939,0.1260,0.0091
65,0.0074,0.0939,0.1260,0.0091
66,0.0074,0.0939,0.1260,0.0091
67,0.0067,0.1287,0.1369,0.0084
68,0.0074,0.0939,0.1260,0.0091
69,0.0080,0.0899,0.1008,0.0054
70,0.0074,0.0939,0.1260,0.0091
71,0.0074,0.0939,0.1260,0.0091
72,0.0074,0.0939,0.1260,0.0091
73,0.0074,0.0939,0.1260,0.0091
74,0.0074,0.0939,0.1260,0.0091
75,0.0074,0.0939,0.1260,0.0091
76,0.0074,0.0939,0.1260,0.0091
77,0.0074,0.0939,0.1260,0.0091
78,0.0074,0.0939,0.1260,0.0091
79,0.0068,0.1227,0.1333,0.0095
80,0.0075,0.0964,0.1025,0.0052
81,0.0074,0.0939,0.1260,0.0091
82,0.0074,0.0939,0.1260,0.0091
83,0.0074,0.0939,0.1260,0.0091
84,0.0074,0.0939,0.1260,0.0091
85,0.0074,0.0939,0.1260,0.0091
86,0.0085,0.0573,0.1076,0.0089
87,0.0083,0.0599,0.1095,0.0090
88,0.0080,0.0627,0.1114,0.0090
89,0.0079,0.0656,0.1133,0.0091
90,0.0067,0.1287,0.1369,0.0084
91,0.0067,0.0975,0.1023,0.0053
92,0.0077,0.1159,0.1293,0.0108
93,0.0076,0.0732,0.1172,0.0091
94,0.0076,0.0760,0.1188,0.0091
95,0.0075,0.0803,0.1206,0.0091
96,0.0074,0.0851,0.1226,0.0091
97,0.0074,0.0889,0.1243,0.0091
98,0.0077,0.0996,0.1279,0.0090
99,0.0081,0.1097,0.1316,0.0085
100,0.0083,0.1205,0.1359,0.0079
101,0.0079,0.1285,0.1385,0.0076
102,0.0062,0.0939,0.1001,0.0058
103,0.0072,0.1309,0.1386,0.0078
104,0.0097,0.1084,0.1246,0.0123
105,0.0067,0.1287,0.1369,0.0084
106,0.0068,0.1227,0.1333,0.0095
107,0.0077,0.1159,0.1293,0.0108
108,0.0097,0.1084,0.1246,0.0123
109,0.0126,0.1013,0.1197,0.0141
110,0.0069,0.1320,0.1199,0.0776
111,0.0057,0.1217,0.1183,0.0684
112,0.0067,0.1128,0.1171,0.0597
113,0.0074,0.1044,0.1186,0.0096
114,0.0063,0.0879,0.0968,0.0067
115,0.0065,0.0778,0.1032,0.0075
116,0.0065,0.0778,0.1032,0.0075
117,0.0065,0.0778,0.1032,0.0075
118,0.0069,0.0830,0.1050,0.0074
119,0.0069,0.0830,0.1050,0.0074
120,0.0074,0.0922,0.1083,0.0069
121,0.0076,0.1022,0.1119,0.0064
122,0.0071,0.1093,0.1138,0.0061
123,0.0063,0.1106,0.1137,0.0062
124,0.0060,0.1068,0.1113,0.0068
125,0.0073,0.0820,0.0935,0.0078
126,0.0063,0.1003,0.1077,0.0077
127,0.0077,0.0933,0.1037,0.0089
128,0.0099,0.0859,0.0992,0.0103
129,0.0130,0.0803,0.0948,0.0119
130,0.0074,0.0922,0.1083,0.0069
131,0.0069,0.1078,0.0963,0.0620
132,0.0056,0.0996,0.0952,0.0541
133,0.0066,0.0923,0.0941,0.0471
134,0.0077,0.0862,0.0931,0.0408
135,0.0081,0.0798,0.0923,0.0350
136,0.0093,0.0769,0.0899,0.0091
137,0.0080,0.0746,0.0922,0.0297
138,0.0079,0.0718,0.0933,0.0247
139,0.0075,0.0709,0.0953,0.0199
140,0.0072,0.0718,0.0978,0.0154
141,0.0068,0.0744,0.1006,0.0112
142,0.0076,0.1022,0.1119,0.0064
143,0.0064,0.0803,0.1050,0.0056
144,0.0065,0.0823,0.1058,0.0067
145,0.0069,0.0840,0.1054,0.0101
146,0.0076,0.0852,0.1040,0.0145
147,0.0122,0.0746,0.0867,0.0108
148,0.0083,0.0857,0.1013,0.0195
149,0.0089,0.0873,0.0983,0.0253
150,0.0097,0.0897,0.0946,0.0321
151,0.0102,0.0881,0.0888,0.0391
152,0.0109,0.0825,0.0814,0.0461
153,0.0116,0.0767,0.0751,0.0528
154,0.0071,0.1093,0.1138,0.0061
155,0.0065,0.0778,0.1032,0.0075
156,0.0065,0.0778,0.1032,0.0075
157,0.0065,0.0778,0.1032,0.0075
158,0.0076,0.0807,0.0976,0.0059
159,0.0065,0.0778,0.1032,0.0075
160,0.0065,0.0778,0.1032,0.0075
161,0.0065,0.0778,0.1032,0.0075
162,0.0065,0.0778,0.1032,0.0075
163,0.0065,0.0778,0.1032,0.0075
164,0.0065,0.0778,0.1032,0.0075
165,0.0065,0.0778,0.1032,0.0075
166,0.0063,0.1106,0.1137,0.0062
167,0.0065,0.0778,0.1032,0.0075
168,0.0065,0.0778,0.1032,0.0075
169,0.0067,0.0999,0.0884,0.0607
170,0.0065,0.0778,0.1032,0.0075
171,0.0065,0.0778,0.1032,0.0075
172,0.0065,0.0778,0.1032,0.0075
173,0.0065,0.0778,0.1032,0.0075
174,0.0065,0.0778,0.1032,0.0075
175,0.0065,0.0778,0.1032,0.0075
176,0.0065,0.0778,0.1032,0.0075
177,0.0065,0.0778,0.1032,0.0075
178,0.0060,0.1068,0.1113,0.0068
179,0.0065,0.0778,0.1032,0.0075
180,0.0057,0.0924,0.0874,0.0530
181,0.0065,0.0778,0.1032,0.0075
182,0.0065,0.0778,0.1032,0.0075
183,0.0065,0.0778,0.1032,0.0075
184,0.0065,0.0778,0.1032,0.0075
185,0.0065,0.0778,0.1032,0.0075
186,0.0065,0.0778,0.1032,0.0075
187,0.0065,0.0778,0.1032,0.0075
188,0.0065,0.0778,0.1032,0.0075
189,0.0065,0.0778,0.1032,0.0075
190,0.0063,0.1003,0.1077,0.0077
191,0.0069,0.0861,0.0865,0.0460
192,0.0065,0.0778,0.1032,0.0075
193,0.0065,0.0778,0.1032,0.0075
194,0.0065,0.0778,0.1032,0.0075
195,0.0065,0.0778,0.1032,0.0075
196,0.0065,0.0778,0.1032,0.0075
197,0.0079,0.0476,0.0892,0.0078
198,0.0076,0.0499,0.0907,0.0078
199,0.0074,0.0518,0.0921,0.0078
200,0.0072,0.0544,0.0935,0.0078
201,0.0060,0.1068,0.1113,0.0068
202,0.0080,0.0805,0.0856,0.0397
203,0.0077,0.0933,0.1037,0.0089
204,0.0068,0.0599,0.0965,0.0077
205,0.0067,0.0623,0.0977,0.0078
206,0.0066,0.0666,0.0993,0.0077
207,0.0066,0.0700,0.1005,0.0076
208,0.0066,0.0731,0.1017,0.0077
209,0.0069,0.0830,0.1050,0.0074
210,0.0074,0.0922,0.1083,0.0069
211,0.0076,0.1022,0.1119,0.0064
212,0.0071,0.1093,0.1138,0.0061
213,0.0084,0.0746,0.0848,0.0340
214,0.0063,0.1106,0.1137,0.0062
215,0.0099,0.0859,0.0992,0.0103
216,0.0060,0.1068,0.1113,0.0068
217,0.0063,0.1003,0.1077,0.0077
218,0.0077,0.0933,0.1037,0.0089
219,0.0099,0.0859,0.0992,0.0103
220,0.0130,0.0803,0.0948,0.0119
221,0.0069,0.1078,0.0963,0.0620
222,0.0056,0.0996,0.0952,0.0541
223,0.0066,0.0923,0.0941,0.0471
224,0.0091,0.0983,0.1145,0.0111
225,0.0082,0.0692,0.0843,0.0288
226,0.0049,0.0447,0.0574,0.0050
227,0.0049,0.0447,0.0574,0.0050
228,0.0049,0.0447,0.0574,0.0050
229,0.0054,0.0488,0.0582,0.0048
230,0.0054,0.0488,0.0582,0.0048
231,0.0061,0.0561,0.0604,0.0044
232,0.0062,0.0643,0.0629,0.0040
233,0.0054,0.0694,0.0644,0.0037
234,0.0050,0.0687,0.0629,0.0038
235,0.0051,0.0635,0.0602,0.0042
236,0.0080,0.0657,0.0850,0.0238
237,0.0061,0.0553,0.0566,0.0048
238,0.0081,0.0480,0.0533,0.0057
239,0.0108,0.0451,0.0510,0.0068
240,0.0141,0.0491,0.0507,0.0081
241,0.0061,0.0561,0.0604,0.0044
242,0.0072,0.0652,0.0518,0.0314
243,0.0056,0.0605,0.0512,0.0271
244,0.0064,0.0582,0.0511,0.0235
245,0.0075,0.0544,0.0503,0.0205
246,0.0080,0.0513,0.0497,0.0178
247,0.0076,0.0635,0.0864,0.0190
248,0.0078,0.0464,0.0489,0.0153
249,0.0073,0.0425,0.0493,0.0126
250,0.0067,0.0396,0.0505,0.0100
251,0.0062,0.0384,0.0522,0.0077
252,0.0054,0.0408,0.0546,0.0058
253,0.0062,0.0643,0.0629,0.0040
254,0.0046,0.0487,0.0596,0.0055
255,0.0048,0.0517,0.0607,0.0069
256,0.0054,0.0538,0.0607,0.0085
257,0.0061,0.0550,0.0596,0.0102
258,0.0072,0.0633,0.0884,0.0145
259,0.0067,0.0564,0.0578,0.0119
260,0.0072,0.0585,0.0553,0.0140
261,0.0078,0.0594,0.0521,0.0168
262,0.0082,0.0578,0.0479,0.0203
263,0.0086,0.0531,0.0445,0.0240
264,0.0084,0.0534,0.0476,0.0277
265,0.0054,0.0694,0.0644,0.0037
266,0.0049,0.0447,0.0574,0.0050
267,0.0049,0.0447,0.0574,0.0050
268,0.0049,0.0447,0.0574,0.0050
269,0.0068,0.0650,0.0907,0.0102
270,0.0049,0.0447,0.0574,0.0050
271,0.0049,0.0447,0.0574,0.0050
272,0.0049,0.0447,0.0574,0.0050
273,0.0049,0.0447,0.0574,0.0050
274,0.0049,0.0447,0.0574,0.0050
275,0.0049,0.0447,0.0574,0.0050
276,0.0049,0.0447,0.0574,0.0050
277,0.0050,0.0687,0.0629,0.0038
278,0.0049,0.0447,0.0574,0.0050
279,0.0049,0.0447,0.0574,0.0050
280,0.0080,0.0899,0.1008,0.0054
281,0.0049,0.0447,0.0574,0.0050
282,0.0049,0.0447,0.0574,0.0050
283,0.0049,0.0447,0.0574,0.0050
284,0.0049,0.0447,0.0574,0.0050
285,0.0049,0.0447,0.0574,0.0050
286,0.0049,0.0447,0.0574,0.0050
287,0.0049,0.0447,0.0574,0.0050
288,0.0049,0.0447,0.0574,0.0050
289,0.0051,0.0635,0.0602,0.0042
290,0.0049,0.0447,0.0574,0.0050
291,0.0063,0.0695,0.0945,0.0047
292,0.0049,0.0447,0.0574,0.0050
293,0.0049,0.0447,0.0574,0.0050
294,0.0049,0.0447,0.0574,0.0050
295,0.0049,0.0447,0.0574,0.0050
296,0.0049,0.0447,0.0574,0.0050
297,0.0049,0.0447,0.0574,0.0050
298,0.0049,0.0447,0.0574,0.0050
299,0.0049,0.0447,0.0574,0.0050
300,0.0049,0.0447,0.0574,0.0050
301,0.0061,0.0553,0.0566,0.0048
302,0.0064,0.0712,0.0951,0.0065
303,0.0049,0.0447,0.0574,0.0050
304,0.0049,0.0447,0.0574,0.0050
305,0.0049,0.0447,0.0574,0.0050
306,0.0049,0.0447,0.0574,0.0050
307,0.0049,0.0447,0.0574,0.0050
308,0.0071,0.0283,0.0520,0.0059
309,0.0067,0.0287,0.0526,0.0058
310,0.0063,0.0299,0.0531,0.0058
311,0.0060,0.0316,0.0539,0.0057
312,0.0051,0.0635,0.0602,0.0042
313,0.0068,0.0726,0.0946,0.0103
314,0.0081,0.0480,0.0533,0.0057
315,0.0055,0.0339,0.0548,0.0055
316,0.0053,0.0356,0.0552,0.0054
317,0.0051,0.0374,0.0559,0.0053
318,0.0050,0.0401,0.0564,0.0052
319,0.0050,0.0420,0.0568,0.0051
320,0.0054,0.0488,0.0582,0.0048
321,0.0061,0.0561,0.0604,0.0044
322,0.0062,0.0643,0.0629,0.0040
323,0.0054,0.0694,0.0644,0.0037
324,0.0075,0.0736,0.0932,0.0148
325,0.0050,0.0687,0.0629,0.0038
326,0.0108,0.0451,0.0510,0.0068
327,0.0051,0.0635,0.0602,0.0042
328,0.0061,0.0553,0.0566,0.0048
329,0.0081,0.0480,0.0533,0.0057
330,0.0108,0.0451,0.0510,0.0068
331,0.0141,0.0491,0.0507,0.0081
332,0.0072,0.0652,0.0518,0.0314
333,0.0056,0.0605,0.0512,0.0271
334,0.0064,0.0582,0.0511,0.0235
335,0.0119,0.0934,0.1105,0.0129
336,0.0082,0.0741,0.0907,0.0198
337,0.0041,0.0198,0.0233,0.0037
338,0.0041,0.0198,0.0233,0.0037
339,0.0041,0.0198,0.0233,0.0037
340,0.0046,0.0232,0.0235,0.0035
341,0.0046,0.0232,0.0235,0.0035
342,0.0054,0.0294,0.0248,0.0032
343,0.0052,0.0353,0.0260,0.0030
344,0.0046,0.0390,0.0268,0.0028
345,0.0044,0.0378,0.0252,0.0029
346,0.0050,0.0307,0.0232,0.0030
347,0.0088,0.0758,0.0880,0.0257
348,0.0066,0.0225,0.0224,0.0033
349,0.0088,0.0220,0.0254,0.0039
350,0.0118,0.0330,0.0315,0.0047
351,0.0153,0.0505,0.0404,0.0057
352,0.0054,0.0294,0.0248,0.0032
353,0.0074,0.0491,0.0318,0.0131
354,0.0056,0.0489,0.0329,0.0135
355,0.0063,0.0503,0.0340,0.0138
356,0.0073,0.0497,0.0339,0.0138
357,0.0079,0.0477,0.0328,0.0131
358,0.0096,0.0784,0.0847,0.0323
359,0.0076,0.0424,0.0299,0.0119
360,0.0070,0.0354,0.0267,0.0100
361,0.0065,0.0277,0.0236,0.0076
362,0.0057,0.0199,0.0215,0.0051
363,0.0046,0.0175,0.0218,0.0033
364,0.0052,0.0353,0.0260,0.0030
365,0.0039,0.0244,0.0255,0.0057
366,0.0043,0.0289,0.0268,0.0080
367,0.0050,0.0323,0.0277,0.0098
368,0.0058,0.0346,0.0273,0.0111
369,0.0101,0.0775,0.0798,0.0393
370,0.0064,0.0370,0.0261,0.0117
371,0.0069,0.0390,0.0249,0.0116
372,0.0077,0.0396,0.0238,0.0110
373,0.0082,0.0394,0.0254,0.0106
374,0.0083,0.0397,0.0324,0.0105
375,0.0075,0.0504,0.0481,0.0112
376,0.0046,0.0390,0.0268,0.0028
377,0.0041,0.0198,0.0233,0.0037
378,0.0041,0.0198,0.0233,0.0037
379,0.0041,0.0198,0.0233,0.0037
380,0.0108,0.0732,0.0740,0.0462
381,0.0041,0.0198,0.0233,0.0037
382,0.0041,0.0198,0.0233,0.0037
383,0.0041,0.0198,0.0233,0.0037
384,0.0041,0.0198,0.0233,0.0037
385,0.0041,0.0198,0.0233,0.0037
386,0.0041,0.0198,0.0233,0.0037
387,0.0041,0.0198,0.0233,0.0037
388,0.0044,0.0378,0.0252,0.0029
389,0.0041,0.0198,0.0233,0.0037
390,0.0041,0.0198,0.0233,0.0037
391,0.0115,0.0710,0.0705,0.0527
392,0.0041,0.0198,0.0233,0.0037
393,0.0041,0.0198,0.0233,0.0037
394,0.0041,0.0198,0.0233,0.0037
395,0.0041,0.0198,0.0233,0.0037
396,0.0041,0.0198,0.0233,0.0037
397,0.0041,0.0198,0.0233,0.0037
398,0.0041,0.0198,0.0233,0.0037
399,0.0041,0.0198,0.0233,0.0037
400,0.0050,0.0307,0.0232,0.0030
401,0.0041,0.0198,0.0233,0.0037
402,0.0075,0.0964,0.1025,0.0052
403,0.0041,0.0198,0.0233,0.0037
404,0.0041,0.0198,0.0233,0.0037
405,0.0041,0.0198,0.0233,0.0037
406,0.0041,0.0198,0.0233,0.0037
407,0.0041,0.0198,0.0233,0.0037
408,0.0041,0.0198,0.0233,0.0037
409,0.0041,0.0198,0.0233,0.0037
410,0.0041,0.0198,0.0233,0.0037
411,0.0041,0.0198,0.0233,0.0037
412,0.0066,0.0225,0.0224,0.0033
413,0.0065,0.0676,0.0930,0.0065
414,0.0041,0.0198,0.0233,0.0037
415,0.0041,0.0198,0.0233,0.0037
416,0.0041,0.0198,0.0233,0.0037
417,0.0041,0.0198,0.0233,0.0037
418,0.0041,0.0198,0.0233,0.0037
419,0.0068,0.0144,0.0244,0.0049
420,0.0063,0.0150,0.0244,0.0048
421,0.0058,0.0146,0.0241,0.0047
422,0.0054,0.0149,0.0242,0.0045
423,0.0050,0.0307,0.0232,0.0030
424,0.0065,0.0676,0.0930,0.0065
425,0.0088,0.0220,0.0254,0.0039
426,0.0047,0.0156,0.0239,0.0043
427,0.0045,0.0158,0.0236,0.0042
428,0.0043,0.0165,0.0234,0.0041
429,0.0042,0.0173,0.0232,0.0040
430,0.0041,0.0182,0.0232,0.0039
431,0.0046,0.0232,0.0235,0.0035
432,0.0054,0.0294,0.0248,0.0032
433,0.0052,0.0353,0.0260,0.0030
434,0.0046,0.0390,0.0268,0.0028
435,0.0065,0.0676,0.0930,0.0065
436,0.0044,0.0378,0.0252,0.0029
437,0.0118,0.0330,0.0315,0.0047
438,0.0050,0.0307,0.0232,0.0030
439,0.0066,0.0225,0.0224,0.0033
440,0.0088,0.0220,0.0254,0.0039
441,0.0118,0.0330,0.0315,0.0047
442,0.0153,0.0505,0.0404,0.0057
443,0.0074,0.0491,0.0318,0.0131
444,0.0056,0.0489,0.0329,0.0135
445,0.0063,0.0503,0.0340,0.0138
446,0.0083,0.0982,0.1208,0.0075
447,0.0065,0.0676,0.0930,0.0065
448,0.0038,0.0113,0.0118,0.0033
449,0.0038,0.0113,0.0118,0.0033
450,0.0038,0.0113,0.0118,0.0033
451,0.0043,0.0140,0.0119,0.0031
452,0.0043,0.0140,0.0119,0.0031
453,0.0051,0.0186,0.0121,0.0029
454,0.0048,0.0238,0.0125,0.0028
455,0.0044,0.0276,0.0130,0.0027
456,0.0043,0.0264,0.0123,0.0028
457,0.0051,0.0178,0.0135,0.0028
458,0.0065,0.0676,0.0930,0.0065
459,0.0069,0.0129,0.0184,0.0029
460,0.0093,0.0216,0.0265,0.0033
461,0.0123,0.0385,0.0361,0.0040
462,0.0158,0.0581,0.0472,0.0049
463,0.0051,0.0186,0.0121,0.0029
464,0.0074,0.0513,0.0343,0.0130
465,0.0056,0.0523,0.0360,0.0151
466,0.0063,0.0550,0.0376,0.0162
467,0.0073,0.0547,0.0378,0.0164
468,0.0079,0.0531,0.0365,0.0156
469,0.0065,0.0676,0.0930,0.0065
470,0.0076,0.0472,0.0328,0.0141
471,0.0069,0.0395,0.0283,0.0118
472,0.0063,0.0303,0.0229,0.0089
473,0.0054,0.0197,0.0172,0.0059
474,0.0044,0.0124,0.0132,0.0032
475,0.0048,0.0238,0.0125,0.0028
476,0.0038,0.0153,0.0126,0.0059
477,0.0042,0.0208,0.0142,0.0086
478,0.0051,0.0251,0.0156,0.0110
479,0.0060,0.0279,0.0160,0.0127
480,0.0065,0.0676,0.0930,0.0065
481,0.0066,0.0307,0.0162,0.0136
482,0.0071,0.0329,0.0168,0.0137
483,0.0080,0.0342,0.0190,0.0129
484,0.0086,0.0356,0.0251,0.0117
485,0.0087,0.0389,0.0364,0.0104
486,0.0077,0.0543,0.0547,0.0097
487,0.0044,0.0276,0.0130,0.0027
488,0.0038,0.0113,0.0118,0.0033
489,0.0038,0.0113,0.0118,0.0033
490,0.0038,0.0113,0.0118,0.0033
491,0.0065,0.0676,0.0930,0.0065
492,0.0038,0.0113,0.0118,0.0033
493,0.0038,0.0113,0.0118,0.0033
494,0.0038,0.0113,0.0118,0.0033
495,0.0038,0.0113,0.0118,0.0033
496,0.0038,0.0113,0.0118,0.0033
497,0.0038,0.0113,0.0118,0.0033
498,0.0038,0.0113,0.0118,0.0033
499,0.0043,0.0264,0.0123,0.0028
500,0.0038,0.0113,0.0118,0.0033
501,0.0038,0.0113,0.0118,0.0033
502,0.0065,0.0676,0.0930,0.0065
503,0.0038,0.0113,0.0118,0.0033
504,0.0038,0.0113,0.0118,0.0033
505,0.0038,0.0113,0.0118,0.0033
506,0.0038,0.0113,0.0118,0.0033
507,0.0038,0.0113,0.0118,0.0033
508,0.0038,0.0113,0.0118,0.0033
509,0.0038,0.0113,0.0118,0.0033
510,0.0038,0.0113,0.0118,0.0033
511,0.0051,0.0178,0.0135,0.0028
512,0.0038,0.0113,0.0118,0.0033
513,0.0065,0.0676,0.0930,0.0065
514,0.0038,0.0113,0.0118,0.0033
515,0.0038,0.0113,0.0118,0.0033
516,0.0038,0.0113,0.0118,0.0033
517,0.0038,0.0113,0.0118,0.0033
518,0.0038,0.0113,0.0118,0.0033
519,0.0038,0.0113,0.0118,0.0033
520,0.0038,0.0113,0.0118,0.0033
521,0.0038,0.0113,0.0118,0.0033
522,0.0038,0.0113,0.0118,0.0033
523,0.0069,0.0129,0.0184,0.0029
524,0.0067,0.0975,0.1023,0.0053
525,0.0038,0.0113,0.0118,0.0033
526,0.0038,0.0113,0.0118,0.0033
527,0.0038,0.0113,0.0118,0.0033
528,0.0038,0.0113,0.0118,0.0033
529,0.0038,0.0113,0.0118,0.0033
530,0.0068,0.0108,0.0140,0.0046
531,0.0062,0.0107,0.0136,0.0044
532,0.0057,0.0103,0.0133,0.0043
533,0.0052,0.0101,0.0131,0.0042
534,0.0051,0.0178,0.0135,0.0028
535,0.0065,0.0676,0.0930,0.0065
536,0.0093,0.0216,0.0265,0.0033
537,0.0045,0.0100,0.0125,0.0040
538,0.0042,0.0100,0.0123,0.0038
539,0.0040,0.0103,0.0122,0.0037
540,0.0039,0.0105,0.0120,0.0036
541,0.0038,0.0106,0.0119,0.0035
542,0.0043,0.0140,0.0119,0.0031
543,0.0051,0.0186,0.0121,0.0029
544,0.0048,0.0238,0.0125,0.0028
545,0.0044,0.0276,0.0130,0.0027
546,0.0065,0.0676,0.0930,0.0065
547,0.0043,0.0264,0.0123,0.0028
548,0.0123,0.0385,0.0361,0.0040
549,0.0051,0.0178,0.0135,0.0028
550,0.0069,0.0129,0.0184,0.0029
551,0.0093,0.0216,0.0265,0.0033
552,0.0123,0.0385,0.0361,0.0040
553,0.0158,0.0581,0.0472,0.0049
554,0.0074,0.0513,0.0343,0.0130
555,0.0056,0.0523,0.0360,0.0151
556,0.0063,0.0550,0.0376,0.0162
557,0.0066,0.1234,0.1114,0.0763
558,0.0065,0.0676,0.0930,0.0065
559,0.0065,0.0676,0.0930,0.0065
560,0.0065,0.0676,0.0930,0.0065
561,0.0065,0.0676,0.0930,0.0065
562,0.0065,0.0676,0.0930,0.0065
563,0.0065,0.0676,0.0930,0.0065
564,0.0065,0.0676,0.0930,0.0065
565,0.0065,0.0676,0.0930,0.0065
566,0.0062,0.0939,0.1001,0.0058
567,0.0065,0.0676,0.0930,0.0065
568,0.0058,0.1135,0.1099,0.0671
569,0.0065,0.0676,0.0930,0.0065
570,0.0065,0.0676,0.0930,0.0065
571,0.0065,0.0676,0.0930,0.0065
572,0.0065,0.0676,0.0930,0.0065
573,0.0065,0.0676,0.0930,0.0065
574,0.0065,0.0676,0.0930,0.0065
575,0.0065,0.0676,0.0930,0.0065
576,0.0065,0.0676,0.0930,0.0065
577,0.0065,0.0676,0.0930,0.0065
578,0.0063,0.0879,0.0968,0.0067
579,0.0070,0.1054,0.1089,0.0586
580,0.0065,0.0676,0.0930,0.0065
581,0.0065,0.0676,0.0930,0.0065
582,0.0065,0.0676,0.0930,0.0065
583,0.0065,0.0676,0.0930,0.0065
584,0.0065,0.0676,0.0930,0.0065
585,0.0076,0.0411,0.0806,0.0068
586,0.0072,0.0431,0.0820,0.0068
587,0.0070,0.0447,0.0832,0.0068
588,0.0068,0.0468,0.0844,0.0068
589,0.0062,0.0939,0.1001,0.0058
590,0.0080,0.0981,0.1076,0.0508
591,0.0073,0.0820,0.0935,0.0078
592,0.0064,0.0517,0.0871,0.0067
593,0.0064,0.0537,0.0881,0.0067
594,0.0063,0.0576,0.0896,0.0066
595,0.0064,0.0606,0.0907,0.0066
596,0.0065,0.0633,0.0916,0.0066
597,0.0070,0.0720,0.0945,0.0064
598,0.0076,0.0807,0.0976,0.0059
599,0.0080,0.0899,0.1008,0.0054
600,0.0075,0.0964,0.1025,0.0052
601,0.0085,0.0911,0.1068,0.0435
602,0.0067,0.0975,0.1023,0.0053
603,0.0093,0.0769,0.0899,0.0091
604,0.0062,0.0939,0.1001,0.0058
605,0.0063,0.0879,0.0968,0.0067
606,0.0073,0.0820,0.0935,0.0078
607,0.0093,0.0769,0.0899,0.0091
608,0.0122,0.0746,0.0867,0.0108
609,0.0067,0.0999,0.0884,0.0607
610,0.0057,0.0924,0.0874,0.0530
611,0.0069,0.0861,0.0865,0.0460
612,0.0074,0.0837,0.1156,0.0080
613,0.0082,0.0852,0.1066,0.0368
614,0.0049,0.0348,0.0478,0.0041
615,0.0049,0.0348,0.0478,0.0041
616,0.0049,0.0348,0.0478,0.0041
617,0.0056,0.0381,0.0484,0.0039
618,0.0056,0.0381,0.0484,0.0039
619,0.0064,0.0443,0.0502,0.0036
620,0.0066,0.0517,0.0522,0.0033
621,0.0059,0.0563,0.0535,0.0032
622,0.0053,0.0553,0.0521,0.0033
623,0.0052,0.0507,0.0501,0.0035
624,0.0083,0.0812,0.1071,0.0306
625,0.0058,0.0440,0.0478,0.0039
626,0.0074,0.0404,0.0465,0.0047
627,0.0100,0.0436,0.0471,0.0056
628,0.0132,0.0539,0.0501,0.0069
629,0.0064,0.0443,0.0502,0.0036
630,0.0068,0.0616,0.0476,0.0304
631,0.0056,0.0584,0.0475,0.0263
632,0.0067,0.0577,0.0478,0.0228
633,0.0079,0.0550,0.0472,0.0201
634,0.0084,0.0524,0.0465,0.0175
635,0.0081,0.0794,0.1086,0.0246
636,0.0080,0.0474,0.0450,0.0150
637,0.0075,0.0422,0.0443,0.0124
638,0.0069,0.0370,0.0441,0.0098
639,0.0063,0.0329,0.0445,0.0073
640,0.0055,0.0327,0.0459,0.0052
641,0.0066,0.0517,0.0522,0.0033
642,0.0046,0.0378,0.0494,0.0047
643,0.0048,0.0404,0.0502,0.0063
644,0.0053,0.0423,0.0501,0.0082
645,0.0060,0.0436,0.0491,0.0100
646,0.0077,0.0796,0.1111,0.0187
647,0.0065,0.0452,0.0476,0.0119
648,0.0070,0.0476,0.0457,0.0142
649,0.0077,0.0489,0.0435,0.0170
650,0.0081,0.0487,0.0416,0.0204
651,0.0084,0.0473,0.0421,0.0240
652,0.0083,0.0543,0.0506,0.0277
653,0.0059,0.0563,0.0535,0.0032
654,0.0049,0.0348,0.0478,0.0041
655,0.0049,0.0348,0.0478,0.0041
656,0.0049,0.0348,0.0478,0.0041
657,0.0075,0.0812,0.1133,0.0132
658,0.0049,0.0348,0.0478,0.0041
659,0.0049,0.0348,0.0478,0.0041
660,0.0049,0.0348,0.0478,0.0041
661,0.0049,0.0348,0.0478,0.0041
662,0.0049,0.0348,0.0478,0.0041
663,0.0049,0.0348,0.0478,0.0041
664,0.0049,0.0348,0.0478,0.0041
665,0.0053,0.0553,0.0521,0.0033
666,0.0049,0.0348,0.0478,0.0041
667,0.0049,0.0348,0.0478,0.0041
668,0.0087,0.1083,0.1247,0.0069
669,0.0049,0.0348,0.0478,0.0041
670,0.0049,0.0348,0.0478,0.0041
671,0.0049,0.0348,0.0478,0.0041
672,0.0049,0.0348,0.0478,0.0041
673,0.0049,0.0348,0.0478,0.0041
674,0.0049,0.0348,0.0478,0.0041
675,0.0049,0.0348,0.0478,0.0041
676,0.0049,0.0348,0.0478,0.0041
677,0.0052,0.0507,0.0501,0.0035
678,0.0049,0.0348,0.0478,0.0041
679,0.0073,0.0857,0.1171,0.0048
680,0.0049,0.0348,0.0478,0.0041
681,0.0049,0.0348,0.0478,0.0041
682,0.0049,0.0348,0.0478,0.0041
683,0.0049,0.0348,0.0478,0.0041
684,0.0049,0.0348,0.0478,0.0041
685,0.0049,0.0348,0.0478,0.0041
686,0.0049,0.0348,0.0478,0.0041
687,0.0049,0.0348,0.0478,0.0041
688,0.0049,0.0348,0.0478,0.0041
689,0.0058,0.0440,0.0478,0.0039
690,0.0073,0.0872,0.1176,0.0070
691,0.0049,0.0348,0.0478,0.0041
692,0.0049,0.0348,0.0478,0.0041
693,0.0049,0.0348,0.0478,0.0041
694,0.0049,0.0348,0.0478,0.0041
695,0.0049,0.0348,0.0478,0.0041
696,0.0070,0.0226,0.0437,0.0050
697,0.0065,0.0227,0.0441,0.0049
698,0.0061,0.0236,0.0445,0.0049
699,0.0057,0.0248,0.0452,0.0047
700,0.0052,0.0507,0.0501,0.0035
701,0.0080,0.0879,0.1167,0.0120
702,0.0074,0.0404,0.0465,0.0047
703,0.0052,0.0264,0.0458,0.0046
704,0.0050,0.0278,0.0461,0.0045
705,0.0049,0.0289,0.0466,0.0044
706,0.0049,0.0314,0.0471,0.0043
707,0.0050,0.0327,0.0474,0.0042
708,0.0056,0.0381,0.0484,0.0039
709,0.0064,0.0443,0.0502,0.0036
710,0.0066,0.0517,0.0522,0.0033
711,0.0059,0.0563,0.0535,0.0032
712,0.0087,0.0881,0.1150,0.0180
713,0.0053,0.0553,0.0521,0.0033
714,0.0100,0.0436,0.0471,0.0056
715,0.0052,0.0507,0.0501,0.0035
716,0.0058,0.0440,0.0478,0.0039
717,0.0074,0.0404,0.0465,0.0047
718,0.0100,0.0436,0.0471,0.0056
719,0.0132,0.0539,0.0501,0.0069
720,0.0068,0.0616,0.0476,0.0304
721,0.0056,0.0584,0.0475,0.0263
722,0.0067,0.0577,0.0478,0.0228
723,0.0077,0.0887,0.1173,0.0080
724,0.0092,0.0892,0.1125,0.0247
725,0.0041,0.0132,0.0176,0.0030
726,0.0041,0.0132,0.0176,0.0030
727,0.0041,0.0132,0.0176,0.0030
728,0.0048,0.0142,0.0176,0.0029
729,0.0048,0.0142,0.0176,0.0029
730,0.0057,0.0181,0.0181,0.0028
731,0.0055,0.0229,0.0186,0.0028
732,0.0049,0.0259,0.0193,0.0029
733,0.0046,0.0245,0.0188,0.0029
734,0.0048,0.0192,0.0205,0.0028
735,0.0100,0.0912,0.1096,0.0321
736,0.0060,0.0180,0.0246,0.0028
737,0.0081,0.0282,0.0319,0.0031
738,0.0109,0.0445,0.0408,0.0037
739,0.0143,0.0642,0.0514,0.0046
740,0.0057,0.0181,0.0181,0.0028
741,0.0070,0.0535,0.0372,0.0134
742,0.0056,0.0548,0.0389,0.0142
743,0.0066,0.0573,0.0404,0.0148
744,0.0077,0.0575,0.0407,0.0149
745,0.0083,0.0559,0.0396,0.0143
746,0.0109,0.0938,0.1060,0.0403
747,0.0079,0.0505,0.0363,0.0130
748,0.0072,0.0432,0.0322,0.0111
749,0.0066,0.0346,0.0274,0.0086
750,0.0058,0.0244,0.0226,0.0059
751,0.0047,0.0169,0.0193,0.0036
752,0.0055,0.0229,0.0186,0.0028
753,0.0039,0.0148,0.0177,0.0048
754,0.0042,0.0183,0.0180,0.0071
755,0.0049,0.0219,0.0187,0.0091
756,0.0056,0.0248,0.0189,0.0106
757,0.0117,0.0932,0.1006,0.0488
758,0.0062,0.0278,0.0191,0.0113
759,0.0067,0.0306,0.0201,0.0114
760,0.0074,0.0327,0.0227,0.0109
761,0.0079,0.0357,0.0290,0.0106
762,0.0080,0.0412,0.0400,0.0106
763,0.0073,0.0585,0.0580,0.0112
764,0.0049,0.0259,0.0193,0.0029
765,0.0041,0.0132,0.0176,0.0030
766,0.0041,0.0132,0.0176,0.0030
767,0.0041,0.0132,0.0176,0.0030
768,0.0125,0.0891,0.0936,0.0572
769,0.0041,0.0132,0.0176,0.0030
770,0.0041,0.0132,0.0176,0.0030
771,0.0041,0.0132,0.0176,0.0030
772,0.0041,0.0132,0.0176,0.0030
773,0.0041,0.0132,0.0176,0.0030
774,0.0041,0.0132,0.0176,0.0030
775,0.0041,0.0132,0.0176,0.0030
776,0.0046,0.0245,0.0188,0.0029
777,0.0041,0.0132,0.0176,0.0030
778,0.0041,0.0132,0.0176,0.0030
779,0.0134,0.0848,0.0875,0.0652
780,0.0041,0.0132,0.0176,0.0030
781,0.0041,0.0132,0.0176,0.0030
782,0.0041,0.0132,0.0176,0.0030
783,0.0041,0.0132,0.0176,0.0030
784,0.0041,0.0132,0.0176,0.0030
785,0.0041,0.0132,0.0176,0.0030
786,0.0041,0.0132,0.0176,0.0030
787,0.0041,0.0132,0.0176,0.0030
788,0.0048,0.0192,0.0205,0.0028
789,0.0041,0.0132,0.0176,0.0030
790,0.0083,0.1159,0.1271,0.0066
791,0.0041,0.0132,0.0176,0.0030
792,0.0041,0.0132,0.0176,0.0030
793,0.0041,0.0132,0.0176,0.0030
794,0.0041,0.0132,0.0176,0.0030
795,0.0041,0.0132,0.0176,0.0030
796,0.0041,0.0132,0.0176,0.0030
797,0.0041,0.0132,0.0176,0.0030
798,0.0041,0.0132,0.0176,0.0030
799,0.0041,0.0132,0.0176,0.0030
800,0.0060,0.0180,0.0246,0.0028
801,0.0074,0.0837,0.1156,0.0080
802,0.0041,0.0132,0.0176,0.0030
803,0.0041,0.0132,0.0176,0.0030
804,0.0041,0.0132,0.0176,0.0030
805,0.0041,0.0132,0.0176,0.0030
806,0.0041,0.0132,0.0176,0.0030
807,0.0068,0.0120,0.0173,0.0041
808,0.0062,0.0122,0.0173,0.0040
809,0.0057,0.0121,0.0171,0.0039
810,0.0052,0.0120,0.0172,0.0037
811,0.0048,0.0192,0.0205,0.0028
812,0.0074,0.0837,0.1156,0.0080
813,0.0081,0.0282,0.0319,0.0031
814,0.0045,0.0122,0.0170,0.0035
815,0.0044,0.0121,0.0169,0.0034
816,0.0042,0.0122,0.0170,0.0033
817,0.0041,0.0127,0.0171,0.0032
818,0.0041,0.0130,0.0174,0.0031
819,0.0048,0.0142,0.0176,0.0029
820,0.0057,0.0181,0.0181,0.0028
821,0.0055,0.0229,0.0186,0.0028
822,0.0049,0.0259,0.0193,0.0029
823,0.0074,0.0837,0.1156,0.0080
824,0.0046,0.0245,0.0188,0.0029
825,0.0109,0.0445,0.0408,0.0037
826,0.0048,0.0192,0.0205,0.0028
827,0.0060,0.0180,0.0246,0.0028
828,0.0081,0.0282,0.0319,0.0031
829,0.0109,0.0445,0.0408,0.0037
830,0.0143,0.0642,0.0514,0.0046
831,0.0070,0.0535,0.0372,0.0134
832,0.0056,0.0548,0.0389,0.0142
833,0.0066,0.0573,0.0404,0.0148
834,0.0077,0.0887,0.1173,0.0080
835,0.0074,0.0837,0.1156,0.0080
836,0.0039,0.0119,0.0153,0.0028
837,0.0039,0.0119,0.0153,0.0028
838,0.0039,0.0119,0.0153,0.0028
839,0.0045,0.0102,0.0152,0.0028
840,0.0045,0.0102,0.0152,0.0028
841,0.0054,0.0101,0.0149,0.0028
842,0.0052,0.0128,0.0143,0.0029
843,0.0047,0.0153,0.0146,0.0031
844,0.0044,0.0145,0.0164,0.0031
845,0.0049,0.0120,0.0220,0.0029
846,0.0074,0.0837,0.1156,0.0080
847,0.0063,0.0193,0.0294,0.0028
848,0.0085,0.0346,0.0389,0.0028
849,0.0113,0.0532,0.0492,0.0032
850,0.0148,0.0733,0.0608,0.0039
851,0.0054,0.0101,0.0149,0.0028
852,0.0071,0.0589,0.0434,0.0144
853,0.0056,0.0608,0.0454,0.0166
854,0.0066,0.0643,0.0473,0.0177
855,0.0076,0.0645,0.0477,0.0179
856,0.0083,0.0631,0.0466,0.0171
857,0.0074,0.0837,0.1156,0.0080
858,0.0078,0.0572,0.0428,0.0156
859,0.0071,0.0495,0.0380,0.0132
860,0.0065,0.0400,0.0324,0.0103
861,0.0056,0.0289,0.0259,0.0071
862,0.0045,0.0194,0.0200,0.0040
863,0.0052,0.0128,0.0143,0.0029
864,0.0037,0.0101,0.0126,0.0050
865,0.0042,0.0130,0.0116,0.0077
866,0.0049,0.0171,0.0123,0.0102
867,0.0058,0.0206,0.0138,0.0121
868,0.0074,0.0837,0.1156,0.0080
869,0.0063,0.0242,0.0161,0.0131
870,0.0069,0.0277,0.0197,0.0133
871,0.0076,0.0308,0.0252,0.0127
872,0.0082,0.0357,0.0339,0.0116
873,0.0083,0.0441,0.0467,0.0105
874,0.0073,0.0646,0.0661,0.0099
875,0.0047,0.0153,0.0146,0.0031
876,0.0039,0.0119,0.0153,0.0028
877,0.0039,0.0119,0.0153,0.0028
878,0.0039,0.0119,0.0153,0.0028
879,0.0074,0.0837,0.1156,0.0080
880,0.0039,0.0119,0.0153,0.0028
881,0.0039,0.0119,0.0153,0.0028
882,0.0039,0.0119,0.0153,0.0028
883,0.0039,0.0119,0.0153,0.0028
884,0.0039,0.0119,0.0153,0.0028
885,0.0039,0.0119,0.0153,0.0028
886,0.0039,0.0119,0.0153,0.0028
887,0.0044,0.0145,0.0164,0.0031
888,0.0039,0.0119,0.0153,0.0028
889,0.0039,0.0119,0.0153,0.0028
890,0.0074,0.0837,0.1156,0.0080
891,0.0039,0.0119,0.0153,0.0028
892,0.0039,0.0119,0.0153,0.0028
893,0.0039,0.0119,0.0153,0.0028
894,0.0039,0.0119,0.0153,0.0028
895,0.0039,0.0119,0.0153,0.0028
896,0.0039,0.0119,0.0153,0.0028
897,0.0039,0.0119,0.0153,0.0028
898,0.0039,0.0119,0.0153,0.0028
899,0.0049,0.0120,0.0220,0.0029
900,0.0039,0.0119,0.0153,0.0028
901,0.0074,0.0837,0.1156,0.0080
902,0.0039,0.0119,0.0153,0.0028
903,0.0039,0.0119,0.0153,0.0028
904,0.0039,0.0119,0.0153,0.0028
905,0.0039,0.0119,0.0153,0.0028
906,0.0039,0.0119,0.0153,0.0028
907,0.0039,0.0119,0.0153,0.0028
908,0.0039,0.0119,0.0153,0.0028
909,0.0039,0.0119,0.0153,0.0028
910,0.0039,0.0119,0.0153,0.0028
911,0.0063,0.0193,0.0294,0.0028
912,0.0076,0.1179,0.1271,0.0069
913,0.0039,0.0119,0.0153,0.0028
914,0.0039,0.0119,0.0153,0.0028
915,0.0039,0.0119,0.0153,0.0028
916,0.0039,0.0119,0.0153,0.0028
917,0.0039,0.0119,0.0153,0.0028
918,0.0068,0.0120,0.0105,0.0038
919,0.0062,0.0121,0.0105,0.0037
920,0.0056,0.0126,0.0108,0.0036
921,0.0052,0.0125,0.0110,0.0035
922,0.0049,0.0120,0.0220,0.0029
923,0.0074,0.0837,0.1156,0.0080
924,0.0085,0.0346,0.0389,0.0028
925,0.0044,0.0127,0.0117,0.0033
926,0.0041,0.0126,0.0122,0.0032
927,0.0040,0.0124,0.0130,0.0031
928,0.0038,0.0125,0.0136,0.0030
929,0.0038,0.0127,0.0146,0.0029
930,0.0045,0.0102,0.0152,0.0028
931,0.0054,0.0101,0.0149,0.0028
932,0.0052,0.0128,0.0143,0.0029
933,0.0047,0.0153,0.0146,0.0031
934,0.0074,0.0837,0.1156,0.0080
935,0.0044,0.0145,0.0164,0.0031
936,0.0113,0.0532,0.0492,0.0032
937,0.0049,0.0120,0.0220,0.0029
938,0.0063,0.0193,0.0294,0.0028
939,0.0085,0.0346,0.0389,0.0028
940,0.0113,0.0532,0.0492,0.0032
941,0.0148,0.0733,0.0608,0.0039
942,0.0071,0.0589,0.0434,0.0144
943,0.0056,0.0608,0.0454,0.0166
944,0.0066,0.0643,0.0473,0.0177
945,0.0083,0.0982,0.1208,0.0075
946,0.0074,0.0837,0.1156,0.0080
947,0.0067,0.0755,0.1068,0.0070
948,0.0067,0.0755,0.1068,0.0070
949,0.0067,0.0755,0.1068,0.0070
950,0.0072,0.0799,0.1082,0.0070
951,0.0072,0.0799,0.1082,0.0070
952,0.0078,0.0888,0.1115,0.0065
953,0.0084,0.0983,0.1151,0.0060
954,0.0081,0.1053,0.1172,0.0058
955,0.0075,0.1071,0.1172,0.0060
956,0.0069,0.1053,0.1157,0.0065
957,0.0074,0.0837,0.1156,0.0080
958,0.0067,0.1000,0.1126,0.0074
959,0.0072,0.0954,0.1097,0.0086
960,0.0089,0.0909,0.1063,0.0100
961,0.0115,0.0887,0.1033,0.0117
962,0.0078,0.0888,0.1115,0.0065
963,0.0066,0.1163,0.1044,0.0751
964,0.0058,0.1072,0.1030,0.0660
965,0.0068,0.0999,0.1021,0.0575
966,0.0078,0.0930,0.1009,0.0497
967,0.0082,0.0865,0.1001,0.0425
968,0.0074,0.0837,0.1156,0.0080
969,0.0079,0.0806,0.0996,0.0359
970,0.0078,0.0761,0.0998,0.0297
971,0.0076,0.0736,0.1009,0.0237
972,0.0071,0.0729,0.1029,0.0177
973,0.0069,0.0737,0.1048,0.0122
974,0.0084,0.0983,0.1151,0.0060
975,0.0067,0.0771,0.1080,0.0041
976,0.0067,0.0784,0.1083,0.0071
977,0.0074,0.0788,0.1074,0.0125
978,0.0081,0.0790,0.1057,0.0185
979,0.0074,0.0837,0.1156,0.0080
980,0.0087,0.0799,0.1034,0.0252
981,0.0095,0.0820,0.1007,0.0326
982,0.0105,0.0848,0.0975,0.0407
983,0.0113,0.0845,0.0928,0.0492
984,0.0121,0.0817,0.0870,0.0575
985,0.0130,0.0803,0.0832,0.0654
986,0.0081,0.1053,0.1172,0.0058
987,0.0067,0.0755,0.1068,0.0070
988,0.0067,0.0755,0.1068,0.0070
989,0.0067,0.0755,0.1068,0.0070
990,0.0074,0.0837,0.1156,0.0080
991,0.0067,0.0755,0.1068,0.0070
992,0.0067,0.0755,0.1068,0.0070
993,0.0067,0.0755,0.1068,0.0070
994,0.0067,0.0755,0.1068,0.0070
995,0.0067,0.0755,0.1068,0.0070
996,0.0067,0.0755,0.1068,0.0070
997,0.0067,0.0755,0.1068,0.0070
998,0.0075,0.1071,0.1172,0.0060
999,0.0067,0.0755,0.1068,0.0070
1000,0.0067,0.0755,0.1068,0.0070
1001,0.0074,0.0837,0.1156,0.0080
1002,0.0067,0.0755,0.1068,0.0070
1003,0.0067,0.0755,0.1068,0.0070
1004,0.0067,0.0755,0.1068,0.0070
1005,0.0067,0.0755,0.1068,0.0070
1006,0.0067,0.0755,0.1068,0.0070
1007,0.0067,0.0755,0.1068,0.0070
1008,0.0067,0.0755,0.1068,0.0070
1009,0.0067,0.0755,0.1068,0.0070
1010,0.0069,0.1053,0.1157,0.0065
1011,0.0067,0.0755,0.1068,0.0070
1012,0.0074,0.0837,0.1156,0.0080
1013,0.0067,0.0755,0.1068,0.0070
1014,0.0067,0.0755,0.1068,0.0070
1015,0.0067,0.0755,0.1068,0.0070
1016,0.0067,0.0755,0.1068,0.0070
1017,0.0067,0.0755,0.1068,0.0070
1018,0.0067,0.0755,0.1068,0.0070
1019,0.0067,0.0755,0.1068,0.0070
1020,0.0067,0.0755,0.1068,0.0070
1021,0.0067,0.0755,0.1068,0.0070
1022,0.0067,0.1000,0.1126,0.0074
1023,0.0074,0.0837,0.1156,0.0080
1024,0.0067,0.0755,0.1068,0.0070
1025,0.0067,0.0755,0.1068,0.0070
1026,0.0067,0.0755,0.1068,0.0070
1027,0.0067,0.0755,0.1068,0.0070
1028,0.0067,0.0755,0.1068,0.0070
1029,0.0076,0.0458,0.0916,0.0070
1030,0.0072,0.0478,0.0932,0.0070
1031,0.0068,0.0501,0.0948,0.0070
1032,0.0066,0.0522,0.0964,0.0071
1033,0.0069,0.1053,0.1157,0.0065
1034,0.0069,0.1158,0.1254,0.0074
1035,0.0072,0.0954,0.1097,0.0086
1036,0.0063,0.0586,0.0997,0.0070
1037,0.0063,0.0606,0.1009,0.0071
1038,0.0063,0.0643,0.1024,0.0071
1039,0.0064,0.0683,0.1041,0.0070
1040,0.0065,0.0714,0.1054,0.0070
1041,0.0072,0.0799,0.1082,0.0070
1042,0.0078,0.0888,0.1115,0.0065
1043,0.0084,0.0983,0.1151,0.0060
1044,0.0081,0.1053,0.1172,0.0058
1045,0.0074,0.0837,0.1156,0.0080
1046,0.0075,0.1071,0.1172,0.0060
1047,0.0089,0.0909,0.1063,0.0100
1048,0.0069,0.1053,0.1157,0.0065
1049,0.0067,0.1000,0.1126,0.0074
1050,0.0072,0.0954,0.1097,0.0086
1051,0.0089,0.0909,0.1063,0.0100
1052,0.0115,0.0887,0.1033,0.0117
1053,0.0066,0.1163,0.1044,0.0751
1054,0.0058,0.1072,0.1030,0.0660
1055,0.0068,0.0999,0.1021,0.0575
1056,0.0087,0.1083,0.1247,0.0069
1057,0.0074,0.0837,0.1156,0.0080
1058,0.0059,0.0596,0.0843,0.0055
1059,0.0059,0.0596,0.0843,0.0055
1060,0.0059,0.0596,0.0843,0.0055
1061,0.0064,0.0634,0.0857,0.0054
1062,0.0064,0.0634,0.0857,0.0054
1063,0.0072,0.0713,0.0884,0.0050
1064,0.0077,0.0798,0.0914,0.0046
1065,0.0073,0.0858,0.0928,0.0045
1066,0.0066,0.0866,0.0926,0.0046
1067,0.0062,0.0834,0.0908,0.0050
1068,0.0074,0.0837,0.1156,0.0080
1069,0.0062,0.0781,0.0879,0.0057
1070,0.0071,0.0739,0.0854,0.0067
1071,0.0090,0.0714,0.0830,0.0080
1072,0.0119,0.0727,0.0813,0.0096
1073,0.0072,0.0713,0.0884,0.0050
1074,0.0067,0.0939,0.0821,0.0596
1075,0.0057,0.0872,0.0814,0.0519
1076,0.0068,0.0819,0.0808,0.0450
1077,0.0078,0.0769,0.0799,0.0388
1078,0.0082,0.0716,0.0790,0.0331
1079,0.0074,0.0837,0.1156,0.0080
1080,0.0079,0.0661,0.0782,0.0279
1081,0.0076,0.0620,0.0784,0.0230
1082,0.0071,0.0589,0.0794,0.0182
1083,0.0067,0.0573,0.0807,0.0136
1084,0.0062,0.0579,0.0825,0.0093
1085,0.0077,0.0798,0.0914,0.0046
1086,0.0057,0.0611,0.0856,0.0040
1087,0.0059,0.0623,0.0860,0.0065
1088,0.0064,0.0634,0.0854,0.0106
1089,0.0071,0.0644,0.0840,0.0152
1090,0.0074,0.0837,0.1156,0.0080
1091,0.0078,0.0649,0.0816,0.0203
1092,0.0084,0.0667,0.0793,0.0261
1093,0.0092,0.0695,0.0766,0.0327
1094,0.0098,0.0693,0.0726,0.0396
1095,0.0105,0.0669,0.0687,0.0465
1096,0.0112,0.0685,0.0684,0.0529
1097,0.0073,0.0858,0.0928,0.0045
1098,0.0059,0.0596,0.0843,0.0055
1099,0.0059,0.0596,0.0843,0.0055
1100,0.0059,0.0596,0.0843,0.0055
1101,0.0074,0.0837,0.1156,0.0080
1102,0.0059,0.0596,0.0843,0.0055
1103,0.0059,0.0596,0.0843,0.0055
1104,0.0059,0.0596,0.0843,0.0055
1105,0.0059,0.0596,0.0843,0.0055
1106,0.0059,0.0596,0.0843,0.0055
1107,0.0059,0.0596,0.0843,0.0055
1108,0.0059,0.0596,0.0843,0.0055
1109,0.0066,0.0866,0.0926,0.0046
1110,0.0059,0.0596,0.0843,0.0055
1111,0.0059,0.0596,0.0843,0.0055
1112,0.0074,0.0837,0.1156,0.0080
1113,0.0059,0.0596,0.0843,0.0055
1114,0.0059,0.0596,0.0843,0.0055
1115,0.0059,0.0596,0.0843,0.0055
1116,0.0059,0.0596,0.0843,0.0055
1117,0.0059,0.0596,0.0843,0.0055
1118,0.0059,0.0596,0.0843,0.0055
1119,0.0059,0.0596,0.0843,0.0055
1120,0.0059,0.0596,0.0843,0.0055
1121,0.0062,0.0834,0.0908,0.0050
1122,0.0059,0.0596,0.0843,0.0055
1123,0.0074,0.0837,0.1156,0.0080
1124,0.0059,0.0596,0.0843,0.0055
1125,0.0059,0.0596,0.0843,0.0055
1126,0.0059,0.0596,0.0843,0.0055
1127,0.0059,0.0596,0.0843,0.0055
1128,0.0059,0.0596,0.0843,0.0055
1129,0.0059,0.0596,0.0843,0.0055
1130,0.0059,0.0596,0.0843,0.0055
1131,0.0059,0.0596,0.0843,0.0055
1132,0.0059,0.0596,0.0843,0.0055
1133,0.0062,0.0781,0.0879,0.0057
1134,0.0074,0.0837,0.1156,0.0080
1135,0.0059,0.0596,0.0843,0.0055
1136,0.0059,0.0596,0.0843,0.0055
1137,0.0059,0.0596,0.0843,0.0055
1138,0.0059,0.0596,0.0843,0.0055
1139,0.0059,0.0596,0.0843,0.0055
1140,0.0073,0.0365,0.0733,0.0059
1141,0.0068,0.0382,0.0746,0.0058
1142,0.0064,0.0396,0.0756,0.0059
1143,0.0061,0.0414,0.0767,0.0059
1144,0.0062,0.0834,0.0908,0.0050
1145,0.0074,0.0837,0.1156,0.0080
1146,0.0071,0.0739,0.0854,0.0067
1147,0.0057,0.0457,0.0792,0.0057
1148,0.0056,0.0473,0.0800,0.0057
1149,0.0056,0.0509,0.0814,0.0056
1150,0.0056,0.0536,0.0823,0.0056
1151,0.0058,0.0559,0.0832,0.0056
1152,0.0064,0.0634,0.0857,0.0054
1153,0.0072,0.0713,0.0884,0.0050
1154,0.0077,0.0798,0.0914,0.0046
1155,0.0073,0.0858,0.0928,0.0045
1156,0.0068,0.1101,0.1221,0.0085
1157,0.0066,0.0866,0.0926,0.0046
1158,0.0090,0.0714,0.0830,0.0080
1159,0.0062,0.0834,0.0908,0.0050
1160,0.0062,0.0781,0.0879,0.0057
1161,0.0071,0.0739,0.0854,0.0067
1162,0.0090,0.0714,0.0830,0.0080
1163,0.0119,0.0727,0.0813,0.0096
1164,0.0067,0.0939,0.0821,0.0596
1165,0.0057,0.0872,0.0814,0.0519
1166,0.0068,0.0819,0.0808,0.0450
1167,0.0083,0.1159,0.1271,0.0066
1168,0.0074,0.0837,0.1156,0.0080
1169,0.0045,0.0285,0.0407,0.0033
1170,0.0045,0.0285,0.0407,0.0033
1171,0.0045,0.0285,0.0407,0.0033
1172,0.0052,0.0304,0.0411,0.0033
1173,0.0052,0.0304,0.0411,0.0033
1174,0.0061,0.0354,0.0426,0.0031
1175,0.0064,0.0417,0.0441,0.0031
1176,0.0058,0.0456,0.0453,0.0031
1177,0.0053,0.0446,0.0442,0.0032
1178,0.0051,0.0410,0.0433,0.0032
1179,0.0074,0.0837,0.1156,0.0080
1180,0.0057,0.0369,0.0428,0.0033
1181,0.0072,0.0386,0.0442,0.0038
1182,0.0097,0.0473,0.0476,0.0046
1183,0.0128,0.0618,0.0535,0.0058
1184,0.0061,0.0354,0.0426,0.0031
1185,0.0069,0.0606,0.0463,0.0295
1186,0.0056,0.0590,0.0468,0.0256
1187,0.0066,0.0596,0.0476,0.0223
1188,0.0077,0.0580,0.0473,0.0198
1189,0.0082,0.0559,0.0464,0.0173
1190,0.0074,0.0837,0.1156,0.0080
1191,0.0077,0.0510,0.0444,0.0150
1192,0.0071,0.0450,0.0427,0.0124
1193,0.0064,0.0384,0.0411,0.0098
1194,0.0058,0.0318,0.0400,0.0072
1195,0.0050,0.0286,0.0399,0.0048
1196,0.0064,0.0417,0.0441,0.0031
1197,0.0042,0.0300,0.0416,0.0040
1198,0.0045,0.0319,0.0420,0.0058
1199,0.0051,0.0336,0.0418,0.0079
1200,0.0058,0.0350,0.0409,0.0099
1201,0.0074,0.0837,0.1156,0.0080
1202,0.0064,0.0371,0.0399,0.0120
1203,0.0069,0.0397,0.0389,0.0144
1204,0.0075,0.0418,0.0383,0.0173
1205,0.0079,0.0435,0.0390,0.0207
1206,0.0082,0.0460,0.0435,0.0242
1207,0.0081,0.0585,0.0560,0.0278
1208,0.0058,0.0456,0.0453,0.0031
1209,0.0045,0.0285,0.0407,0.0033
1210,0.0045,0.0285,0.0407,0.0033
1211,0.0045,0.0285,0.0407,0.0033
1212,0.0074,0.0837,0.1156,0.0080
1213,0.0045,0.0285,0.0407,0.0033
1214,0.0045,0.0285,0.0407,0.0033
1215,0.0045,0.0285,0.0407,0.0033
1216,0.0045,0.0285,0.0407,0.0033
1217,0.0045,0.0285,0.0407,0.0033
1218,0.0045,0.0285,0.0407,0.0033
1219,0.0045,0.0285,0.0407,0.0033
1220,0.0053,0.0446,0.0442,0.0032
1221,0.0045,0.0285,0.0407,0.0033
1222,0.0045,0.0285,0.0407,0.0033
1223,0.0081,0.0506,0.0990,0.0080
1224,0.0045,0.0285,0.0407,0.0033
1225,0.0045,0.0285,0.0407,0.0033
1226,0.0045,0.0285,0.0407,0.0033
1227,0.0045,0.0285,0.0407,0.0033
1228,0.0045,0.0285,0.0407,0.0033
1229,0.0045,0.0285,0.0407,0.0033
1230,0.0045,0.0285,0.0407,0.0033
1231,0.0045,0.0285,0.0407,0.0033
1232,0.0051,0.0410,0.0433,0.0032
1233,0.0045,0.0285,0.0407,0.0033
1234,0.0078,0.0529,0.1007,0.0080
1235,0.0045,0.0285,0.0407,0.0033
1236,0.0045,0.0285,0.0407,0.0033
1237,0.0045,0.0285,0.0407,0.0033
1238,0.0045,0.0285,0.0407,0.0033
1239,0.0045,0.0285,0.0407,0.0033
1240,0.0045,0.0285,0.0407,0.0033
1241,0.0045,0.0285,0.0407,0.0033
1242,0.0045,0.0285,0.0407,0.0033
1243,0.0045,0.0285,0.0407,0.0033
1244,0.0057,0.0369,0.0428,0.0033
1245,0.0076,0.0555,0.1025,0.0080
1246,0.0045,0.0285,0.0407,0.0033
1247,0.0045,0.0285,0.0407,0.0033
1248,0.0045,0.0285,0.0407,0.0033
1249,0.0045,0.0285,0.0407,0.0033
1250,0.0045,0.0285,0.0407,0.0033
1251,0.0070,0.0194,0.0370,0.0041
1252,0.0064,0.0195,0.0374,0.0041
1253,0.0059,0.0203,0.0378,0.0040
1254,0.0054,0.0210,0.0383,0.0039
1255,0.0051,0.0410,0.0433,0.0032
1256,0.0074,0.0580,0.1042,0.0081
1257,0.0072,0.0386,0.0442,0.0038
1258,0.0047,0.0223,0.0388,0.0037
1259,0.0045,0.0232,0.0391,0.0037
1260,0.0044,0.0240,0.0396,0.0036
1261,0.0043,0.0259,0.0400,0.0035
1262,0.0045,0.0270,0.0403,0.0034
1263,0.0052,0.0304,0.0411,0.0033
1264,0.0061,0.0354,0.0426,0.0031
1265,0.0064,0.0417,0.0441,0.0031
1266,0.0058,0.0456,0.0453,0.0031
1267,0.0069,0.1158,0.1254,0.0074
1268,0.0053,0.0446,0.0442,0.0032
1269,0.0097,0.0473,0.0476,0.0046
1270,0.0051,0.0410,0.0433,0.0032
1271,0.0057,0.0369,0.0428,0.0033
1272,0.0072,0.0386,0.0442,0.0038
1273,0.0097,0.0473,0.0476,0.0046
1274,0.0128,0.0618,0.0535,0.0058
1275,0.0069,0.0606,0.0463,0.0295
1276,0.0056,0.0590,0.0468,0.0256
1277,0.0066,0.0596,0.0476,0.0223
1278,0.0076,0.1179,0.1271,0.0069
1279,0.0074,0.1044,0.1186,0.0096
1280,0.0038,0.0159,0.0197,0.0028
1281,0.0038,0.0159,0.0197,0.0028
1282,0.0038,0.0159,0.0197,0.0028
1283,0.0045,0.0142,0.0199,0.0028
1284,0.0045,0.0142,0.0199,0.0028
1285,0.0055,0.0134,0.0198,0.0030
1286,0.0054,0.0152,0.0196,0.0032
1287,0.0049,0.0170,0.0201,0.0035
1288,0.0045,0.0163,0.0215,0.0036
1289,0.0048,0.0166,0.0262,0.0033
1290,0.0072,0.0649,0.1078,0.0080
1291,0.0059,0.0242,0.0330,0.0030
1292,0.0078,0.0390,0.0419,0.0028
1293,0.0105,0.0568,0.0518,0.0030
1294,0.0139,0.0774,0.0631,0.0036
1295,0.0055,0.0134,0.0198,0.0030
1296,0.0070,0.0597,0.0445,0.0139
1297,0.0056,0.0618,0.0465,0.0151
1298,0.0065,0.0650,0.0484,0.0159
1299,0.0075,0.0658,0.0489,0.0160
1300,0.0081,0.0644,0.0479,0.0154
1301,0.0072,0.0673,0.1091,0.0081
1302,0.0076,0.0591,0.0445,0.0142
1303,0.0069,0.0517,0.0400,0.0123
1304,0.0063,0.0429,0.0348,0.0097
1305,0.0054,0.0323,0.0290,0.0070
1306,0.0044,0.0230,0.0237,0.0043
1307,0.0054,0.0152,0.0196,0.0032
1308,0.0037,0.0129,0.0174,0.0041
1309,0.0042,0.0139,0.0164,0.0063
1310,0.0049,0.0169,0.0166,0.0084
1311,0.0057,0.0204,0.0177,0.0099
1312,0.0072,0.0712,0.1108,0.0081
1313,0.0062,0.0240,0.0196,0.0108
1314,0.0066,0.0278,0.0229,0.0110
1315,0.0074,0.0315,0.0280,0.0108
1316,0.0078,0.0373,0.0365,0.0106
1317,0.0079,0.0468,0.0491,0.0107
1318,0.0071,0.0676,0.0680,0.0113
1319,0.0049,0.0170,0.0201,0.0035
1320,0.0038,0.0159,0.0197,0.0028
1321,0.0038,0.0159,0.0197,0.0028
1322,0.0038,0.0159,0.0197,0.0028
1323,0.0072,0.0757,0.1126,0.0080
1324,0.0038,0.0159,0.0197,0.0028
1325,0.0038,0.0159,0.0197,0.0028
1326,0.0038,0.0159,0.0197,0.0028
1327,0.0038,0.0159,0.0197,0.0028
1328,0.0038,0.0159,0.0197,0.0028
1329,0.0038,0.0159,0.0197,0.0028
1330,0.0038,0.0159,0.0197,0.0028
1331,0.0045,0.0163,0.0215,0.0036
1332,0.0038,0.0159,0.0197,0.0028
1333,0.0038,0.0159,0.0197,0.0028
1334,0.0073,0.0791,0.1141,0.0080
1335,0.0038,0.0159,0.0197,0.0028
1336,0.0038,0.0159,0.0197,0.0028
1337,0.0038,0.0159,0.0197,0.0028
1338,0.0038,0.0159,0.0197,0.0028
1339,0.0038,0.0159,0.0197,0.0028
1340,0.0038,0.0159,0.0197,0.0028
1341,0.0038,0.0159,0.0197,0.0028
1342,0.0038,0.0159,0.0197,0.0028
1343,0.0048,0.0166,0.0262,0.0033
1344,0.0038,0.0159,0.0197,0.0028
1345,0.0077,0.0887,0.1173,0.0080
1346,0.0038,0.0159,0.0197,0.0028
1347,0.0038,0.0159,0.0197,0.0028
1348,0.0038,0.0159,0.0197,0.0028
1349,0.0038,0.0159,0.0197,0.0028
1350,0.0038,0.0159,0.0197,0.0028
1351,0.0038,0.0159,0.0197,0.0028
1352,0.0038,0.0159,0.0197,0.0028
1353,0.0038,0.0159,0.0197,0.0028
1354,0.0038,0.0159,0.0197,0.0028
1355,0.0059,0.0242,0.0330,0.0030
1356,0.0083,0.0982,0.1208,0.0075
1357,0.0038,0.0159,0.0197,0.0028
1358,0.0038,0.0159,0.0197,0.0028
1359,0.0038,0.0159,0.0197,0.0028
1360,0.0038,0.0159,0.0197,0.0028
1361,0.0038,0.0159,0.0197,0.0028
1362,0.0071,0.0140,0.0145,0.0034
1363,0.0064,0.0142,0.0148,0.0033
1364,0.0058,0.0149,0.0151,0.0032
1365,0.0053,0.0150,0.0154,0.0031
1366,0.0048,0.0166,0.0262,0.0033
1367,0.0087,0.1083,0.1247,0.0069
1368,0.0078,0.0390,0.0419,0.0028
1369,0.0044,0.0157,0.0162,0.0030
1370,0.0041,0.0158,0.0167,0.0029
1371,0.0039,0.0159,0.0174,0.0029
1372,0.0038,0.0162,0.0181,0.0029
1373,0.0038,0.0165,0.0191,0.0028
1374,0.0045,0.0142,0.0199,0.0028
1375,0.0055,0.0134,0.0198,0.0030
1376,0.0054,0.0152,0.0196,0.0032
1377,0.0049,0.0170,0.0201,0.0035
1378,0.0083,0.1159,0.1271,0.0066
1379,0.0045,0.0163,0.0215,0.0036
1380,0.0105,0.0568,0.0518,0.0030
1381,0.0048,0.0166,0.0262,0.0033
1382,0.0059,0.0242,0.0330,0.0030
1383,0.0078,0.0390,0.0419,0.0028
1384,0.0105,0.0568,0.0518,0.0030
1385,0.0139,0.0774,0.0631,0.0036
1386,0.0070,0.0597,0.0445,0.0139
1387,0.0056,0.0618,0.0465,0.0151
1388,0.0065,0.0650,0.0484,0.0159
1389,0.0069,0.1158,0.1254,0.0074
1390,0.0076,0.1179,0.1271,0.0069
1391,0.0036,0.0205,0.0246,0.0029
1392,0.0036,0.0205,0.0246,0.0029
1393,0.0036,0.0205,0.0246,0.0029
1394,0.0042,0.0177,0.0249,0.0030
1395,0.0042,0.0177,0.0249,0.0030
1396,0.0052,0.0145,0.0248,0.0032
1397,0.0051,0.0125,0.0242,0.0035
1398,0.0047,0.0122,0.0246,0.0039
1399,0.0043,0.0132,0.0272,0.0040
1400,0.0048,0.0200,0.0338,0.0036
1401,0.0091,0.0983,0.1145,0.0111
1402,0.0061,0.0314,0.0417,0.0032
1403,0.0082,0.0479,0.0515,0.0029
1404,0.0109,0.0668,0.0621,0.0028
1405,0.0143,0.0873,0.0738,0.0032
1406,0.0052,0.0145,0.0248,0.0032
1407,0.0071,0.0671,0.0528,0.0158
1408,0.0056,0.0697,0.0550,0.0181
1409,0.0065,0.0735,0.0570,0.0192
1410,0.0075,0.0739,0.0576,0.0194
1411,0.0081,0.0726,0.0566,0.0186
1412,0.0069,0.1158,0.1254,0.0074
1413,0.0076,0.0668,0.0529,0.0170
1414,0.0068,0.0590,0.0481,0.0146
1415,0.0062,0.0497,0.0425,0.0116
1416,0.0052,0.0384,0.0359,0.0083
1417,0.0042,0.0288,0.0298,0.0051
1418,0.0051,0.0125,0.0242,0.0035
1419,0.0037,0.0161,0.0212,0.0042
1420,0.0042,0.0149,0.0192,0.0068
1421,0.0050,0.0172,0.0192,0.0094
1422,0.0059,0.0208,0.0209,0.0113
1423,0.0068,0.1101,0.1221,0.0085
1424,0.0064,0.0245,0.0238,0.0125
1425,0.0069,0.0288,0.0284,0.0128
1426,0.0076,0.0334,0.0347,0.0124
1427,0.0081,0.0406,0.0440,0.0114
1428,0.0083,0.0520,0.0573,0.0104
1429,0.0073,0.0750,0.0770,0.0099
1430,0.0047,0.0122,0.0246,0.0039
1431,0.0036,0.0205,0.0246,0.0029
1432,0.0036,0.0205,0.0246,0.0029
1433,0.0036,0.0205,0.0246,0.0029
1434,0.0074,0.1044,0.1186,0.0096
1435,0.0036,0.0205,0.0246,0.0029
1436,0.0036,0.0205,0.0246,0.0029
1437,0.0036,0.0205,0.0246,0.0029
1438,0.0036,0.0205,0.0246,0.0029
1439,0.0036,0.0205,0.0246,0.0029
1440,0.0036,0.0205,0.0246,0.0029
1441,0.0036,0.0205,0.0246,0.0029
1442,0.0043,0.0132,0.0272,0.0040
1443,0.0036,0.0205,0.0246,0.0029
1444,0.0036,0.0205,0.0246,0.0029
1445,0.0091,0.0983,0.1145,0.0111
1446,0.0036,0.0205,0.0246,0.0029
1447,0.0036,0.0205,0.0246,0.0029
1448,0.0036,0.0205,0.0246,0.0029
1449,0.0036,0.0205,0.0246,0.0029
1450,0.0036,0.0205,0.0246,0.0029
1451,0.0036,0.0205,0.0246,0.0029
1452,0.0036,0.0205,0.0246,0.0029
1453,0.0036,0.0205,0.0246,0.0029
1454,0.0048,0.0200,0.0338,0.0036
1455,0.0036,0.0205,0.0246,0.0029
1456,0.0119,0.0934,0.1105,0.0129
1457,0.0036,0.0205,0.0246,0.0029
1458,0.0036,0.0205,0.0246,0.0029
1459,0.0036,0.0205,0.0246,0.0029
1460,0.0036,0.0205,0.0246,0.0029
1461,0.0036,0.0205,0.0246,0.0029
1462,0.0036,0.0205,0.0246,0.0029
1463,0.0036,0.0205,0.0246,0.0029
1464,0.0036,0.0205,0.0246,0.0029
1465,0.0036,0.0205,0.0246,0.0029
1466,0.0061,0.0314,0.0417,0.0032
1467,0.0066,0.1234,0.1114,0.0763
1468,0.0036,0.0205,0.0246,0.0029
1469,0.0036,0.0205,0.0246,0.0029
1470,0.0036,0.0205,0.0246,0.0029
1471,0.0036,0.0205,0.0246,0.0029
1472,0.0036,0.0205,0.0246,0.0029
1473,0.0072,0.0164,0.0144,0.0032
1474,0.0065,0.0171,0.0151,0.0032
1475,0.0059,0.0182,0.0160,0.0031
1476,0.0053,0.0185,0.0167,0.0030
1477,0.0048,0.0200,0.0338,0.0036
1478,0.0058,0.1135,0.1099,0.0671
1479,0.0082,0.0479,0.0515,0.0029
1480,0.0044,0.0197,0.0187,0.0029
1481,0.0040,0.0198,0.0195,0.0029
1482,0.0038,0.0200,0.0208,0.0029
1483,0.0036,0.0205,0.0220,0.0029
1484,0.0036,0.0211,0.0235,0.0029
1485,0.0042,0.0177,0.0249,0.0030
1486,0.0052,0.0145,0.0248,0.0032
1487,0.0051,0.0125,0.0242,0.0035
1488,0.0047,0.0122,0.0246,0.0039
1489,0.0070,0.1054,0.1089,0.0586
1490,0.0043,0.0132,0.0272,0.0040
1491,0.0109,0.0668,0.0621,0.0028
1492,0.0048,0.0200,0.0338,0.0036
1493,0.0061,0.0314,0.0417,0.0032
1494,0.0082,0.0479,0.0515,0.0029
1495,0.0109,0.0668,0.0621,0.0028
1496,0.0143,0.0873,0.0738,0.0032
1497,0.0071,0.0671,0.0528,0.0158
1498,0.0056,0.0697,0.0550,0.0181
1499,0.0065,0.0735,0.0570,0.0192
1500,0.0077,0.0905,0.1246,0.0082
1501,0.0077,0.0905,0.1246,0.0082
1502,0.0071,0.1177,0.1333,0.0087
1503,0.0218,0.0642,0.0804,0.0693
1504,0.0039,0.0304,0.0420,0.0026
1505,0.0037,0.0203,0.0268,0.0025
1506,0.0039,0.0304,0.0420,0.0026
1507,0.0049,0.0300,0.0494,0.0035
1508,0.0040,0.0410,0.0565,0.0028
1509,0.0039,0.0304,0.0420,0.0026
1510,0.0039,0.0304,0.0420,0.0026
1511,0.0037,0.0203,0.0268,0.0025
1512,0.0039,0.0304,0.0420,0.0026
1513,0.0040,0.0410,0.0565,0.0028
1514,0.0176,0.0705,0.0867,0.0670
1515,0.0037,0.0203,0.0268,0.0025
1516,0.0039,0.0304,0.0420,0.0026
1517,0.0039,0.0304,0.0420,0.0026
1518,0.0037,0.0203,0.0268,0.0025
1519,0.0065,0.0526,0.0710,0.0034
1520,0.0039,0.0304,0.0420,0.0026
1521,0.0037,0.0203,0.0268,0.0025
1522,0.0039,0.0304,0.0420,0.0026
1523,0.0039,0.0304,0.0420,0.0026
1524,0.0040,0.0410,0.0565,0.0028
1525,0.0147,0.0768,0.0923,0.0656
1526,0.0076,0.0272,0.0341,0.0030
1527,0.0068,0.0276,0.0347,0.0029
1528,0.0061,0.0201,0.0209,0.0029
1529,0.0055,0.0290,0.0359,0.0027
1530,0.0051,0.0423,0.0646,0.0038
1531,0.0078,0.0445,0.0505,0.0026
1532,0.0046,0.0299,0.0373,0.0026
1533,0.0043,0.0303,0.0381,0.0026
1534,0.0038,0.0206,0.0240,0.0026
1535,0.0041,0.0409,0.0544,0.0027
1536,0.0126,0.0831,0.0974,0.0648
1537,0.0038,0.0308,0.0410,0.0026
1538,0.0043,0.0176,0.0268,0.0026
1539,0.0053,0.0259,0.0422,0.0029
1540,0.0053,0.0244,0.0421,0.0033
1541,0.0049,0.0358,0.0582,0.0039
1542,0.0044,0.0249,0.0446,0.0037
1543,0.0110,0.0738,0.0746,0.0027
1544,0.0046,0.0180,0.0339,0.0032
1545,0.0061,0.0405,0.0561,0.0031
1546,0.0087,0.0674,0.0792,0.0031
1547,0.0110,0.0888,0.1021,0.0645
1548,0.0105,0.0635,0.0607,0.0027
1549,0.0143,0.0945,0.0857,0.0030
1550,0.0073,0.0766,0.0669,0.0218
1551,0.0058,0.0706,0.0568,0.0169
1552,0.0069,0.0933,0.0844,0.0290
1553,0.0211,0.0405,0.0558,0.0146
1554,0.0167,0.0485,0.0580,0.0158
1555,0.0137,0.0568,0.0606,0.0174
1556,0.0119,0.0664,0.0641,0.0189
1557,0.0106,0.0751,0.0678,0.0205
1558,0.0068,0.0759,0.1038,0.0066
1559,0.0074,0.0847,0.1180,0.0079
1560,0.0074,0.0847,0.1180,0.0079
1561,0.0074,0.0837,0.1156,0.0080
1562,0.0078,0.0895,0.1196,0.0079
1563,0.0078,0.0917,0.1237,0.0079
1564,0.0083,0.0982,0.1208,0.0075
1565,0.0087,0.1083,0.1269,0.0069
1566,0.0083,0.1155,0.1291,0.0066
1567,0.0076,0.1180,0.1271,0.0069
1568,0.0073,0.1179,0.1326,0.0074
1569,0.0068,0.0759,0.1038,0.0066
1570,0.0072,0.1115,0.1254,0.0084
1571,0.0074,0.1044,0.1186,0.0097
1572,0.0098,0.1027,0.1198,0.0110
1573,0.0124,0.1004,0.1171,0.0127
1574,0.0083,0.1002,0.1269,0.0074
1575,0.0067,0.1275,0.1164,0.0774
1576,0.0058,0.1188,0.1154,0.0684
1577,0.0070,0.1054,0.1089,0.0586
1578,0.0080,0.1039,0.1134,0.0522
1579,0.0084,0.1032,0.1193,0.0467
1580,0.0068,0.0759,0.1038,0.0066
1581,0.0082,0.0853,0.1066,0.0368
1582,0.0082,0.0860,0.1119,0.0317
1583,0.0080,0.0831,0.1128,0.0254
1584,0.0077,0.0795,0.1110,0.0187
1585,0.0076,0.0866,0.1208,0.0135
1586,0.0087,0.1083,0.1269,0.0069
1587,0.0073,0.0857,0.1171,0.0048
1588,0.0076,0.0872,0.1192,0.0077
1589,0.0084,0.0874,0.1181,0.0131
1590,0.0097,0.0887,0.1197,0.0205
1591,0.0073,0.0796,0.1053,0.0065
1592,0.0097,0.0886,0.1141,0.0259
1593,0.0106,0.0906,0.1115,0.0333
1594,0.0109,0.0938,0.1060,0.0403
1595,0.0124,0.0935,0.1040,0.0498
1596,0.0140,0.0944,0.1052,0.0594
1597,0.0134,0.0849,0.0875,0.0653
1598,0.0083,0.1155,0.1291,0.0066
1599,0.0074,0.0847,0.1180,0.0079
1600,0.0074,0.0837,0.1156,0.0080
1601,0.0075,0.0872,0.1221,0.0079
1602,0.0074,0.0845,0.1125,0.0067
1603,0.0074,0.0847,0.1180,0.0079
1604,0.0074,0.0837,0.1156,0.0080
1605,0.0074,0.0847,0.1180,0.0079
1606,0.0074,0.0847,0.1180,0.0079
1607,0.0075,0.0872,0.1221,0.0079
1608,0.0074,0.0847,0.1180,0.0079
1609,0.0074,0.0847,0.1180,0.0079
1610,0.0076,0.1180,0.1271,0.0069
1611,0.0074,0.0847,0.1180,0.0079
1612,0.0075,0.0872,0.1221,0.0079
1613,0.0074,0.1144,0.1313,0.0098
1614,0.0078,0.0869,0.1080,0.0061
1615,0.0074,0.0837,0.1156,0.0080
1616,0.0074,0.0847,0.1180,0.0079
1617,0.0074,0.0847,0.1180,0.0079
1618,0.0074,0.0837,0.1156,0.0080
1619,0.0075,0.0872,0.1221,0.0079
1620,0.0074,0.0847,0.1180,0.0079
1621,0.0074,0.0837,0.1156,0.0080
1622,0.0074,0.0847,0.1180,0.0079
1623,0.0072,0.1161,0.1281,0.0074
1624,0.0075,0.0872,0.1221,0.0079
1625,0.0083,0.0950,0.1111,0.0058
1626,0.0074,0.0847,0.1180,0.0079
1627,0.0074,0.0847,0.1180,0.0079
1628,0.0074,0.0837,0.1156,0.0080
1629,0.0074,0.0847,0.1180,0.0079
1630,0.0075,0.0872,0.1221,0.0079
1631,0.0074,0.0837,0.1156,0.0080
1632,0.0074,0.0847,0.1180,0.0079
1633,0.0074,0.0847,0.1180,0.0079
1634,0.0074,0.0837,0.1156,0.0080
1635,0.0075,0.1144,0.1306,0.0084
1636,0.0080,0.1012,0.1129,0.0056
1637,0.0074,0.0847,0.1180,0.0079
1638,0.0074,0.0837,0.1156,0.0080
1639,0.0074,0.0847,0.1180,0.0079
1640,0.0074,0.0847,0.1180,0.0079
1641,0.0075,0.0872,0.1221,0.0079
1642,0.0082,0.0523,0.1009,0.0078
1643,0.0080,0.0545,0.1027,0.0079
1644,0.0076,0.0555,0.1025,0.0080
1645,0.0075,0.0597,0.1062,0.0079
1646,0.0073,0.1179,0.1326,0.0074
1647,0.0072,0.1024,0.1130,0.0058
1648,0.0074,0.1044,0.1186,0.0097
1649,0.0073,0.0665,0.1098,0.0079
1650,0.0073,0.0688,0.1113,0.0080
1651,0.0072,0.0712,0.1108,0.0081
1652,0.0074,0.0797,0.1188,0.0079
1653,0.0073,0.0804,0.1164,0.0079
1654,0.0077,0.0887,0.1173,0.0080
1655,0.0083,0.0985,0.1230,0.0074
1656,0.0087,0.1083,0.1269,0.0069
1657,0.0083,0.1166,0.1331,0.0066
1658,0.0070,0.1046,0.1196,0.0065
1659,0.0077,0.1176,0.1294,0.0068
1660,0.0098,0.1027,0.1198,0.0110
1661,0.0070,0.1158,0.1254,0.0074
1662,0.0072,0.1115,0.1254,0.0084
1663,0.0083,0.1113,0.1288,0.0095
1664,0.0091,0.0983,0.1145,0.0111
1665,0.0124,0.1004,0.1171,0.0127
1666,0.0067,0.1275,0.1164,0.0774
1667,0.0058,0.1135,0.1099,0.0671
1668,0.0070,0.1173,0.1216,0.0618
1669,0.0066,0.0967,0.1102,0.0070
1670,0.0195,0.0571,0.0687,0.0682
1671,0.0159,0.0615,0.0754,0.0659
1672,0.0134,0.0661,0.0810,0.0646
1673,0.0118,0.0707,0.0861,0.0637
1674,0.0107,0.0750,0.0906,0.0634
1675,0.0066,0.0691,0.0961,0.0064
1676,0.0066,0.0691,0.0961,0.0064
1677,0.0065,0.0677,0.0930,0.0065
1678,0.0070,0.0731,0.0975,0.0063
1679,0.0070,0.0760,0.1027,0.0062
1680,0.0072,0.0942,0.1089,0.0079
1681,0.0076,0.0807,0.0976,0.0059
1682,0.0080,0.0900,0.1037,0.0053
1683,0.0075,0.0961,0.1052,0.0052
1684,0.0067,0.0975,0.1023,0.0053
1685,0.0066,0.0969,0.1094,0.0059
1686,0.0067,0.0899,0.1013,0.0066
1687,0.0073,0.0821,0.0935,0.0078
1688,0.0099,0.0827,0.0967,0.0090
1689,0.0128,0.0834,0.0952,0.0106
1690,0.0076,0.0834,0.1054,0.0058
1691,0.0089,0.0927,0.1075,0.0092
1692,0.0068,0.1049,0.0945,0.0623
1693,0.0058,0.0985,0.0942,0.0548
1694,0.0069,0.0861,0.0865,0.0460
1695,0.0080,0.0873,0.0927,0.0417
1696,0.0083,0.0889,0.1000,0.0381
1697,0.0082,0.0691,0.0843,0.0288
1698,0.0080,0.0716,0.0910,0.0252
1699,0.0075,0.0682,0.0917,0.0200
1700,0.0072,0.0633,0.0884,0.0144
1701,0.0068,0.0717,0.1002,0.0107
1702,0.0115,0.0944,0.1070,0.0107
1703,0.0080,0.0900,0.1037,0.0053
1704,0.0063,0.0695,0.0945,0.0047
1705,0.0067,0.0715,0.0972,0.0073
1706,0.0073,0.0723,0.0965,0.0115
1707,0.0085,0.0747,0.0994,0.0179
1708,0.0088,0.0738,0.0929,0.0215
1709,0.0095,0.0754,0.0906,0.0273
1710,0.0096,0.0784,0.0847,0.0323
1711,0.0109,0.0784,0.0844,0.0407
1712,0.0123,0.0807,0.0890,0.0491
1713,0.0079,0.0911,0.1151,0.0063
1714,0.0115,0.0710,0.0705,0.0527
1715,0.0075,0.0961,0.1052,0.0052
1716,0.0066,0.0691,0.0961,0.0064
1717,0.0065,0.0677,0.0930,0.0065
1718,0.0067,0.0722,0.1011,0.0063
1719,0.0066,0.0691,0.0961,0.0064
1720,0.0065,0.0677,0.0930,0.0065
1721,0.0066,0.0691,0.0961,0.0064
1722,0.0066,0.0691,0.0961,0.0064
1723,0.0067,0.0722,0.1011,0.0063
1724,0.0088,0.1114,0.1291,0.0112
1725,0.0073,0.1139,0.1053,0.0633
1726,0.0066,0.0691,0.0961,0.0064
1727,0.0066,0.0691,0.0961,0.0064
1728,0.0067,0.0975,0.1023,0.0053
1729,0.0066,0.0691,0.0961,0.0064
1730,0.0067,0.0722,0.1011,0.0063
1731,0.0065,0.0677,0.0930,0.0065
1732,0.0066,0.0691,0.0961,0.0064
1733,0.0066,0.0691,0.0961,0.0064
1734,0.0065,0.0677,0.0930,0.0065
1735,0.0067,0.0722,0.1011,0.0063
1736,0.0066,0.1092,0.1054,0.0556
1737,0.0066,0.0691,0.0961,0.0064
1738,0.0065,0.0677,0.0930,0.0065
1739,0.0066,0.0691,0.0961,0.0064
1740,0.0065,0.0945,0.1037,0.0058
1741,0.0067,0.0722,0.1011,0.0063
1742,0.0066,0.0691,0.0961,0.0064
1743,0.0066,0.0691,0.0961,0.0064
1744,0.0065,0.0677,0.0930,0.0065
1745,0.0066,0.0691,0.0961,0.0064
1746,0.0067,0.0722,0.1011,0.0063
1747,0.0077,0.1051,0.1051,0.0486
1748,0.0065,0.0677,0.0930,0.0065
1749,0.0066,0.0691,0.0961,0.0064
1750,0.0066,0.0691,0.0961,0.0064
1751,0.0065,0.0677,0.0930,0.0065
1752,0.0070,0.0935,0.1078,0.0067
1753,0.0066,0.0691,0.0961,0.0064
1754,0.0065,0.0677,0.0930,0.0065
1755,0.0066,0.0691,0.0961,0.0064
1756,0.0066,0.0691,0.0961,0.0064
1757,0.0067,0.0722,0.1011,0.0063
1758,0.0088,0.1001,0.1043,0.0424
1759,0.0078,0.0429,0.0830,0.0067
1760,0.0073,0.0450,0.0845,0.0066
1761,0.0070,0.0447,0.0832,0.0068
1762,0.0070,0.0489,0.0870,0.0067
1763,0.0066,0.0969,0.1094,0.0059
1764,0.0073,0.0821,0.0935,0.0078
1765,0.0066,0.0537,0.0898,0.0066
1766,0.0065,0.0557,0.0909,0.0066
1767,0.0063,0.0576,0.0896,0.0066
1768,0.0066,0.0660,0.0986,0.0064
1769,0.0091,0.1041,0.1137,0.0387
1770,0.0066,0.0649,0.0946,0.0065
1771,0.0070,0.0721,0.0945,0.0064
1772,0.0076,0.0812,0.1004,0.0058
1773,0.0080,0.0900,0.1037,0.0053
1774,0.0076,0.0975,0.1102,0.0052
1775,0.0068,0.0973,0.1053,0.0053
1776,0.0099,0.0827,0.0967,0.0090
1777,0.0062,0.0939,0.1001,0.0058
1778,0.0067,0.0899,0.1013,0.0066
1779,0.0082,0.0912,0.1065,0.0077
1780,0.0089,0.0886,0.1019,0.0311
1781,0.0093,0.0769,0.0899,0.0091
1782,0.0128,0.0834,0.0952,0.0106
1783,0.0068,0.1049,0.0945,0.0623
1784,0.0057,0.0923,0.0874,0.0530
1785,0.0069,0.1001,0.1021,0.0503
1786,0.0197,0.0499,0.0592,0.0562
1787,0.0160,0.0549,0.0652,0.0539
1788,0.0134,0.0599,0.0700,0.0525
1789,0.0117,0.0640,0.0741,0.0517
1790,0.0106,0.0682,0.0775,0.0515
1791,0.0086,0.0832,0.1013,0.0258
1792,0.0050,0.0380,0.0539,0.0039
1793,0.0050,0.0380,0.0539,0.0039
1794,0.0049,0.0349,0.0478,0.0040
1795,0.0056,0.0405,0.0545,0.0038
1796,0.0057,0.0458,0.0635,0.0038
1797,0.0064,0.0443,0.0502,0.0036
1798,0.0066,0.0522,0.0580,0.0033
1799,0.0058,0.0563,0.0592,0.0032
1800,0.0053,0.0552,0.0521,0.0033
1801,0.0056,0.0571,0.0678,0.0036
1802,0.0080,0.0788,0.1013,0.0206
1803,0.0062,0.0484,0.0569,0.0039
1804,0.0074,0.0404,0.0465,0.0047
1805,0.0106,0.0539,0.0599,0.0054
1806,0.0138,0.0661,0.0642,0.0066
1807,0.0064,0.0500,0.0649,0.0035
1808,0.0069,0.0689,0.0580,0.0340
1809,0.0057,0.0673,0.0588,0.0302
1810,0.0067,0.0576,0.0478,0.0228
1811,0.0079,0.0642,0.0590,0.0241
1812,0.0083,0.0706,0.0705,0.0251
1813,0.0076,0.0759,0.1018,0.0157
1814,0.0080,0.0474,0.0450,0.0150
1815,0.0075,0.0506,0.0550,0.0152
1816,0.0067,0.0443,0.0538,0.0119
1817,0.0063,0.0330,0.0446,0.0073
1818,0.0055,0.0448,0.0630,0.0063
1819,0.0066,0.0522,0.0580,0.0033
1820,0.0046,0.0378,0.0494,0.0047
1821,0.0051,0.0413,0.0547,0.0072
1822,0.0058,0.0429,0.0545,0.0097
1823,0.0071,0.0472,0.0615,0.0144
1824,0.0072,0.0814,0.1106,0.0114
1825,0.0071,0.0457,0.0526,0.0147
1826,0.0077,0.0481,0.0517,0.0172
1827,0.0077,0.0489,0.0435,0.0170
1828,0.0088,0.0516,0.0512,0.0233
1829,0.0098,0.0612,0.0671,0.0300
1830,0.0083,0.0543,0.0506,0.0277
1831,0.0058,0.0563,0.0592,0.0032
1832,0.0050,0.0380,0.0539,0.0039
1833,0.0049,0.0349,0.0478,0.0040
1834,0.0051,0.0437,0.0628,0.0038
1835,0.0111,0.1101,0.1271,0.0129
1836,0.0083,0.0950,0.1111,0.0058
1837,0.0050,0.0380,0.0539,0.0039
1838,0.0049,0.0349,0.0478,0.0040
1839,0.0050,0.0380,0.0539,0.0039
1840,0.0050,0.0380,0.0539,0.0039
1841,0.0051,0.0437,0.0628,0.0038
1842,0.0050,0.0380,0.0539,0.0039
1843,0.0050,0.0380,0.0539,0.0039
1844,0.0053,0.0552,0.0521,0.0033
1845,0.0050,0.0380,0.0539,0.0039
1846,0.0051,0.0437,0.0628,0.0038
1847,0.0070,0.0769,0.1046,0.0042
1848,0.0049,0.0349,0.0478,0.0040
1849,0.0050,0.0380,0.0539,0.0039
1850,0.0050,0.0380,0.0539,0.0039
1851,0.0049,0.0349,0.0478,0.0040
1852,0.0051,0.0437,0.0628,0.0038
1853,0.0050,0.0380,0.0539,0.0039
1854,0.0049,0.0349,0.0478,0.0040
1855,0.0050,0.0380,0.0539,0.0039
1856,0.0054,0.0522,0.0574,0.0035
1857,0.0051,0.0437,0.0628,0.0038
1858,0.0076,0.0783,0.1048,0.0064
1859,0.0050,0.0380,0.0539,0.0039
1860,0.0050,0.0380,0.0539,0.0039
1861,0.0049,0.0349,0.0478,0.0040
1862,0.0050,0.0380,0.0539,0.0039
1863,0.0051,0.0437,0.0628,0.0038
1864,0.0049,0.0349,0.0478,0.0040
1865,0.0050,0.0380,0.0539,0.0039
1866,0.0050,0.0380,0.0539,0.0039
1867,0.0049,0.0349,0.0478,0.0040
1868,0.0066,0.0558,0.0684,0.0039
1869,0.0086,0.0798,0.1042,0.0106
1870,0.0050,0.0380,0.0539,0.0039
1871,0.0049,0.0349,0.0478,0.0040
1872,0.0050,0.0380,0.0539,0.0039
1873,0.0050,0.0380,0.0539,0.0039
1874,0.0051,0.0437,0.0628,0.0038
1875,0.0071,0.0262,0.0483,0.0048
1876,0.0066,0.0265,0.0488,0.0047
1877,0.0061,0.0236,0.0445,0.0049
1878,0.0058,0.0287,0.0501,0.0045
1879,0.0056,0.0571,0.0678,0.0036
1880,0.0103,0.0842,0.1090,0.0171
1881,0.0074,0.0404,0.0465,0.0047
1882,0.0054,0.0304,0.0509,0.0044
1883,0.0052,0.0317,0.0515,0.0043
1884,0.0049,0.0289,0.0466,0.0044
1885,0.0051,0.0411,0.0615,0.0040
1886,0.0051,0.0360,0.0532,0.0040
1887,0.0056,0.0380,0.0483,0.0039
1888,0.0064,0.0457,0.0560,0.0035
1889,0.0066,0.0522,0.0580,0.0033
1890,0.0059,0.0594,0.0681,0.0032
1891,0.0109,0.0827,0.1012,0.0209
1892,0.0055,0.0554,0.0584,0.0033
1893,0.0106,0.0539,0.0599,0.0054
1894,0.0051,0.0505,0.0501,0.0035
1895,0.0062,0.0484,0.0569,0.0039
1896,0.0084,0.0580,0.0701,0.0046
1897,0.0100,0.0435,0.0470,0.0056
1898,0.0138,0.0661,0.0642,0.0066
1899,0.0069,0.0689,0.0580,0.0340
1900,0.0056,0.0584,0.0475,0.0263
1901,0.0067,0.0763,0.0719,0.0314
1902,0.0120,0.0850,0.0992,0.0270
1903,0.0204,0.0379,0.0456,0.0331
1904,0.0162,0.0448,0.0497,0.0310
1905,0.0135,0.0507,0.0530,0.0298
1906,0.0117,0.0561,0.0556,0.0295
1907,0.0105,0.0614,0.0581,0.0295
1908,0.0042,0.0203,0.0309,0.0028
1909,0.0042,0.0203,0.0309,0.0028
1910,0.0041,0.0131,0.0176,0.0030
1911,0.0048,0.0203,0.0311,0.0027
1912,0.0048,0.0298,0.0453,0.0027
1913,0.0132,0.0881,0.0969,0.0338
1914,0.0057,0.0181,0.0181,0.0028
1915,0.0056,0.0247,0.0319,0.0027
1916,0.0049,0.0267,0.0323,0.0029
1917,0.0046,0.0245,0.0188,0.0029
1918,0.0054,0.0340,0.0508,0.0030
1919,0.0064,0.0278,0.0400,0.0028
1920,0.0081,0.0282,0.0319,0.0031
1921,0.0114,0.0551,0.0554,0.0034
1922,0.0148,0.0750,0.0655,0.0042
1923,0.0057,0.0301,0.0456,0.0027
1924,0.0142,0.0881,0.0934,0.0408
1925,0.0071,0.0610,0.0494,0.0208
1926,0.0056,0.0636,0.0517,0.0211
1927,0.0066,0.0573,0.0404,0.0148
1928,0.0077,0.0660,0.0537,0.0203
1929,0.0082,0.0727,0.0658,0.0233
1930,0.0079,0.0505,0.0363,0.0130
1931,0.0072,0.0512,0.0457,0.0143
1932,0.0065,0.0421,0.0412,0.0111
1933,0.0058,0.0244,0.0226,0.0059
1934,0.0048,0.0352,0.0477,0.0052
1935,0.0158,0.0884,0.0982,0.0493
1936,0.0056,0.0247,0.0319,0.0027
1937,0.0039,0.0148,0.0178,0.0048
1938,0.0045,0.0213,0.0291,0.0079
1939,0.0054,0.0237,0.0292,0.0106
1940,0.0066,0.0325,0.0428,0.0149
1941,0.0067,0.0298,0.0306,0.0143
1942,0.0073,0.0329,0.0326,0.0152
1943,0.0074,0.0327,0.0227,0.0109
1944,0.0084,0.0410,0.0427,0.0158
1945,0.0091,0.0588,0.0672,0.0216
1946,0.0086,0.1070,0.1355,0.0078
1947,0.0157,0.0813,0.0869,0.0544
1948,0.0073,0.0584,0.0579,0.0112
1949,0.0049,0.0267,0.0323,0.0029
1950,0.0042,0.0203,0.0309,0.0028
1951,0.0041,0.0131,0.0176,0.0030
1952,0.0043,0.0300,0.0449,0.0028
1953,0.0042,0.0203,0.0309,0.0028
1954,0.0041,0.0131,0.0176,0.0030
1955,0.0042,0.0203,0.0309,0.0028
1956,0.0042,0.0203,0.0309,0.0028
1957,0.0043,0.0300,0.0449,0.0028
1958,0.0080,0.1012,0.1129,0.0056
1959,0.0042,0.0203,0.0309,0.0028
1960,0.0042,0.0203,0.0309,0.0028
1961,0.0046,0.0245,0.0188,0.0029
1962,0.0042,0.0203,0.0309,0.0028
1963,0.0043,0.0300,0.0449,0.0028
1964,0.0041,0.0131,0.0176,0.0030
1965,0.0042,0.0203,0.0309,0.0028
1966,0.0042,0.0203,0.0309,0.0028
1967,0.0041,0.0131,0.0176,0.0030
1968,0.0043,0.0300,0.0449,0.0028
1969,0.0068,0.0759,0.1038,0.0066
1970,0.0042,0.0203,0.0309,0.0028
1971,0.0041,0.0131,0.0176,0.0030
1972,0.0042,0.0203,0.0309,0.0028
1973,0.0051,0.0242,0.0354,0.0029
1974,0.0043,0.0300,0.0449,0.0028
1975,0.0042,0.0203,0.0309,0.0028
1976,0.0042,0.0203,0.0309,0.0028
1977,0.0041,0.0131,0.0176,0.0030
1978,0.0042,0.0203,0.0309,0.0028
1979,0.0043,0.0300,0.0449,0.0028
1980,0.0068,0.0759,0.1038,0.0066
1981,0.0041,0.0131,0.0176,0.0030
1982,0.0042,0.0203,0.0309,0.0028
1983,0.0042,0.0203,0.0309,0.0028
1984,0.0041,0.0131,0.0176,0.0030
1985,0.0068,0.0398,0.0555,0.0029
1986,0.0042,0.0203,0.0309,0.0028
1987,0.0041,0.0131,0.0176,0.0030
1988,0.0042,0.0203,0.0309,0.0028
1989,0.0042,0.0203,0.0309,0.0028
1990,0.0043,0.0300,0.0449,0.0028
1991,0.0071,0.0811,0.1110,0.0067
1992,0.0069,0.0179,0.0270,0.0038
1993,0.0063,0.0182,0.0273,0.0037
1994,0.0057,0.0121,0.0171,0.0039
1995,0.0053,0.0189,0.0278,0.0035
1996,0.0054,0.0340,0.0508,0.0030
1997,0.0081,0.0282,0.0319,0.0031
1998,0.0047,0.0195,0.0284,0.0033
1999,0.0045,0.0196,0.0288,0.0032
2000,0.0042,0.0122,0.0170,0.0033
2001,0.0044,0.0299,0.0436,0.0029
2002,0.0068,0.0759,0.1038,0.0066
2003,0.0042,0.0203,0.0303,0.0029
2004,0.0048,0.0142,0.0176,0.0029
2005,0.0057,0.0219,0.0313,0.0027
2006,0.0056,0.0247,0.0319,0.0027
2007,0.0050,0.0333,0.0470,0.0030
2008,0.0047,0.0259,0.0330,0.0030
2009,0.0114,0.0551,0.0554,0.0034
2010,0.0048,0.0193,0.0205,0.0028
2011,0.0064,0.0278,0.0400,0.0028
2012,0.0090,0.0512,0.0621,0.0030
2013,0.0068,0.0759,0.1038,0.0066
2014,0.0109,0.0445,0.0408,0.0037
2015,0.0148,0.0750,0.0655,0.0042
2016,0.0071,0.0610,0.0494,0.0208
2017,0.0056,0.0548,0.0389,0.0142
2018,0.0066,0.0753,0.0668,0.0266
2019,0.0211,0.0352,0.0447,0.0181
2020,0.0165,0.0423,0.0469,0.0176
2021,0.0135,0.0494,0.0492,0.0178
2022,0.0117,0.0564,0.0516,0.0187
2023,0.0105,0.0635,0.0544,0.0198
2024,0.0068,0.0759,0.1038,0.0066
2025,0.0039,0.0196,0.0298,0.0026
2026,0.0039,0.0196,0.0298,0.0026
2027,0.0039,0.0119,0.0153,0.0028
2028,0.0045,0.0179,0.0299,0.0026
2029,0.0045,0.0282,0.0446,0.0026
2030,0.0054,0.0101,0.0149,0.0028
2031,0.0053,0.0161,0.0297,0.0028
2032,0.0047,0.0169,0.0299,0.0031
2033,0.0044,0.0145,0.0164,0.0031
2034,0.0054,0.0310,0.0517,0.0031
2035,0.0068,0.0759,0.1038,0.0066
2036,0.0066,0.0290,0.0433,0.0027
2037,0.0085,0.0347,0.0389,0.0028
2038,0.0118,0.0624,0.0620,0.0029
2039,0.0153,0.0831,0.0732,0.0035
2040,0.0054,0.0263,0.0446,0.0027
2041,0.0072,0.0655,0.0540,0.0217
2042,0.0056,0.0686,0.0566,0.0229
2043,0.0066,0.0643,0.0473,0.0177
2044,0.0076,0.0720,0.0591,0.0227
2045,0.0082,0.0781,0.0701,0.0252
2046,0.0071,0.0811,0.1110,0.0067
2047,0.0078,0.0571,0.0428,0.0156
2048,0.0071,0.0564,0.0500,0.0160
2049,0.0064,0.0465,0.0446,0.0125
2050,0.0056,0.0288,0.0259,0.0071
2051,0.0045,0.0366,0.0481,0.0055
2052,0.0053,0.0161,0.0297,0.0028
2053,0.0037,0.0100,0.0126,0.0050
2054,0.0045,0.0173,0.0259,0.0085
2055,0.0054,0.0198,0.0259,0.0115
2056,0.0066,0.0301,0.0413,0.0160
2057,0.0073,0.1345,0.1251,0.0786
2058,0.0068,0.0759,0.1038,0.0066
2059,0.0068,0.0269,0.0292,0.0158
2060,0.0074,0.0308,0.0328,0.0167
2061,0.0076,0.0309,0.0253,0.0127
2062,0.0086,0.0416,0.0466,0.0166
2063,0.0091,0.0618,0.0720,0.0218
2064,0.0073,0.0646,0.0661,0.0099
2065,0.0047,0.0169,0.0299,0.0031
2066,0.0039,0.0196,0.0298,0.0026
2067,0.0039,0.0119,0.0153,0.0028
2068,0.0040,0.0296,0.0442,0.0026
2069,0.0068,0.0759,0.1038,0.0066
2070,0.0039,0.0196,0.0298,0.0026
2071,0.0039,0.0119,0.0153,0.0028
2072,0.0039,0.0196,0.0298,0.0026
2073,0.0039,0.0196,0.0298,0.0026
2074,0.0040,0.0296,0.0442,0.0026
2075,0.0039,0.0196,0.0298,0.0026
2076,0.0039,0.0196,0.0298,0.0026
2077,0.0044,0.0145,0.0164,0.0031
2078,0.0039,0.0196,0.0298,0.0026
2079,0.0040,0.0296,0.0442,0.0026
2080,0.0072,0.1024,0.1130,0.0058
2081,0.0039,0.0119,0.0153,0.0028
2082,0.0039,0.0196,0.0298,0.0026
2083,0.0039,0.0196,0.0298,0.0026
2084,0.0039,0.0119,0.0153,0.0028
2085,0.0040,0.0296,0.0442,0.0026
2086,0.0039,0.0196,0.0298,0.0026
2087,0.0039,0.0119,0.0153,0.0028
2088,0.0039,0.0196,0.0298,0.0026
2089,0.0051,0.0194,0.0365,0.0030
2090,0.0040,0.0296,0.0442,0.0026
2091,0.0068,0.0759,0.1038,0.0066
2092,0.0039,0.0196,0.0298,0.0026
2093,0.0039,0.0196,0.0298,0.0026
2094,0.0039,0.0119,0.0153,0.0028
2095,0.0039,0.0196,0.0298,0.0026
2096,0.0040,0.0296,0.0442,0.0026
2097,0.0039,0.0119,0.0153,0.0028
2098,0.0039,0.0196,0.0298,0.0026
2099,0.0039,0.0196,0.0298,0.0026
2100,0.0039,0.0119,0.0153,0.0028
2101,0.0070,0.0408,0.0580,0.0029
2102,0.0071,0.0811,0.1110,0.0067
2103,0.0039,0.0196,0.0298,0.0026
2104,0.0039,0.0119,0.0153,0.0028
2105,0.0039,0.0196,0.0298,0.0026
2106,0.0039,0.0196,0.0298,0.0026
2107,0.0040,0.0296,0.0442,0.0026
2108,0.0069,0.0179,0.0233,0.0035
2109,0.0063,0.0182,0.0236,0.0034
2110,0.0056,0.0126,0.0108,0.0036
2111,0.0052,0.0192,0.0245,0.0032
2112,0.0054,0.0310,0.0517,0.0031
2113,0.0068,0.0759,0.1038,0.0066
2114,0.0085,0.0347,0.0389,0.0028
2115,0.0045,0.0198,0.0256,0.0030
2116,0.0042,0.0199,0.0263,0.0029
2117,0.0039,0.0124,0.0129,0.0031
2118,0.0040,0.0300,0.0425,0.0026
2119,0.0039,0.0201,0.0289,0.0027
2120,0.0045,0.0102,0.0152,0.0028
2121,0.0054,0.0161,0.0297,0.0027
2122,0.0053,0.0161,0.0297,0.0028
2123,0.0048,0.0262,0.0455,0.0032
2124,0.0068,0.0759,0.1038,0.0066
2125,0.0045,0.0171,0.0318,0.0032
2126,0.0118,0.0624,0.0620,0.0029
2127,0.0048,0.0120,0.0220,0.0029
2128,0.0066,0.0290,0.0433,0.0027
2129,0.0093,0.0554,0.0662,0.0027
2130,0.0113,0.0531,0.0492,0.0032
2131,0.0153,0.0831,0.0732,0.0035
2132,0.0072,0.0655,0.0540,0.0217
2133,0.0056,0.0608,0.0454,0.0166
2134,0.0065,0.0804,0.0709,0.0285
2135,0.0068,0.0759,0.1038,0.0066
2136,0.0215,0.0362,0.0471,0.0144
2137,0.0167,0.0434,0.0489,0.0153
2138,0.0136,0.0507,0.0508,0.0168
2139,0.0117,0.0583,0.0533,0.0185
2140,0.0105,0.0661,0.0566,0.0201
2141,0.0075,0.0943,0.1276,0.0089
2142,0.0075,0.0943,0.1276,0.0089
2143,0.0074,0.0939,0.1260,0.0091
2144,0.0078,0.0996,0.1294,0.0089
2145,0.0078,0.1010,0.1326,0.0089
2146,0.0068,0.0759,0.1038,0.0066
2147,0.0081,0.1097,0.1316,0.0085
2148,0.0084,0.1198,0.1372,0.0078
2149,0.0079,0.1275,0.1397,0.0075
2150,0.0072,0.1309,0.1386,0.0078
2151,0.0071,0.1291,0.1421,0.0083
2152,0.0072,0.1230,0.1356,0.0094
2153,0.0077,0.1159,0.1293,0.0108
2154,0.0103,0.1115,0.1287,0.0121
2155,0.0132,0.1067,0.1250,0.0139
2156,0.0081,0.1103,0.1361,0.0084
2157,0.0071,0.0811,0.1110,0.0067
2158,0.0070,0.1355,0.1240,0.0786
2159,0.0057,0.1261,0.1229,0.0695
2160,0.0067,0.1129,0.1171,0.0597
2161,0.0077,0.1101,0.1207,0.0532
2162,0.0081,0.1081,0.1257,0.0475
2163,0.0080,0.0920,0.1151,0.0379
2164,0.0081,0.0923,0.1198,0.0326
2165,0.0080,0.0903,0.1212,0.0262
2166,0.0077,0.0885,0.1207,0.0197
2167,0.0076,0.0945,0.1292,0.0144
2168,0.0066,0.1273,0.1245,0.0694
2169,0.0068,0.0759,0.1038,0.0066
2170,0.0084,0.1198,0.1372,0.0078
2171,0.0074,0.0964,0.1276,0.0057
2172,0.0077,0.0977,0.1291,0.0078
2173,0.0086,0.0981,0.1281,0.0129
2174,0.0099,0.0984,0.1286,0.0202
2175,0.0099,0.0992,0.1238,0.0256
2176,0.0108,0.1011,0.1209,0.0330
2177,0.0110,0.1053,0.1160,0.0400
2178,0.0126,0.1033,0.1122,0.0496
2179,0.0142,0.1016,0.1110,0.0593
2180,0.0068,0.0759,0.1038,0.0066
2181,0.0134,0.0920,0.0937,0.0653
2182,0.0079,0.1275,0.1397,0.0075
2183,0.0075,0.0943,0.1276,0.0089
2184,0.0074,0.0939,0.1260,0.0091
2185,0.0076,0.0960,0.1308,0.0089
2186,0.0075,0.0943,0.1276,0.0089
2187,0.0074,0.0939,0.1260,0.0091
2188,0.0075,0.0943,0.1276,0.0089
2189,0.0075,0.0943,0.1276,0.0089
2190,0.0076,0.0960,0.1308,0.0089
2191,0.0068,0.0759,0.1038,0.0066
2192,0.0075,0.0943,0.1276,0.0089
2193,0.0075,0.0943,0.1276,0.0089
2194,0.0072,0.1309,0.1386,0.0078
2195,0.0075,0.0943,0.1276,0.0089
2196,0.0076,0.0960,0.1308,0.0089
2197,0.0074,0.0939,0.1260,0.0091
2198,0.0075,0.0943,0.1276,0.0089
2199,0.0075,0.0943,0.1276,0.0089
2200,0.0074,0.0939,0.1260,0.0091
2201,0.0076,0.0960,0.1308,0.0089
2202,0.0067,0.1004,0.1120,0.0063
2203,0.0075,0.0943,0.1276,0.0089
2204,0.0074,0.0939,0.1260,0.0091
2205,0.0075,0.0943,0.1276,0.0089
2206,0.0069,0.1282,0.1386,0.0084
2207,0.0076,0.0960,0.1308,0.0089
2208,0.0075,0.0943,0.1276,0.0089
2209,0.0075,0.0943,0.1276,0.0089
2210,0.0074,0.0939,0.1260,0.0091
2211,0.0075,0.0943,0.1276,0.0089
2212,0.0076,0.0960,0.1308,0.0089
2213,0.0071,0.0811,0.1110,0.0067
2214,0.0074,0.0939,0.1260,0.0091
2215,0.0075,0.0943,0.1276,0.0089
2216,0.0075,0.0943,0.1276,0.0089
2217,0.0074,0.0939,0.1260,0.0091
2218,0.0075,0.1248,0.1397,0.0094
2219,0.0075,0.0943,0.1276,0.0089
2220,0.0074,0.0939,0.1260,0.0091
2221,0.0075,0.0943,0.1276,0.0089
2222,0.0075,0.0943,0.1276,0.0089
2223,0.0076,0.0960,0.1308,0.0089
2224,0.0068,0.0759,0.1038,0.0066
2225,0.0087,0.0584,0.1089,0.0088
2226,0.0084,0.0609,0.1108,0.0088
2227,0.0080,0.0627,0.1114,0.0090
2228,0.0080,0.0666,0.1147,0.0089
2229,0.0071,0.1291,0.1421,0.0083
2230,0.0077,0.1159,0.1293,0.0108
2231,0.0077,0.0741,0.1186,0.0089
2232,0.0077,0.0767,0.1202,0.0090
2233,0.0075,0.0803,0.1206,0.0091
2234,0.0077,0.0877,0.1272,0.0089
2235,0.0068,0.0759,0.1038,0.0066
2236,0.0075,0.0895,0.1258,0.0090
2237,0.0077,0.0995,0.1279,0.0091
2238,0.0081,0.1092,0.1330,0.0084
2239,0.0084,0.1198,0.1372,0.0078
2240,0.0080,0.1279,0.1427,0.0075
2241,0.0074,0.1298,0.1400,0.0078
2242,0.0103,0.1115,0.1287,0.0121
2243,0.0067,0.1287,0.1369,0.0084
2244,0.0072,0.1230,0.1356,0.0094
2245,0.0087,0.1206,0.1373,0.0106
2246,0.0068,0.0759,0.1038,0.0066
2247,0.0097,0.1084,0.1246,0.0123
2248,0.0132,0.1067,0.1250,0.0139
2249,0.0070,0.1355,0.1240,0.0786
2250,0.0057,0.1217,0.1183,0.0683
2251,0.0067,0.1232,0.1281,0.0627
2252,0.0213,0.0497,0.0675,0.0729
2253,0.0167,0.0578,0.0759,0.0694
2254,0.0138,0.0658,0.0834,0.0668
2255,0.0119,0.0717,0.0895,0.0653
2256,0.0108,0.0765,0.0947,0.0645
2257,0.0068,0.0759,0.1038,0.0066
2258,0.0066,0.0784,0.1053,0.0074
2259,0.0066,0.0784,0.1053,0.0074
2260,0.0065,0.0779,0.1032,0.0075
2261,0.0069,0.0831,0.1070,0.0073
2262,0.0070,0.0849,0.1110,0.0072
2263,0.0073,0.0924,0.1084,0.0069
2264,0.0076,0.1015,0.1137,0.0063
2265,0.0071,0.1081,0.1155,0.0060
2266,0.0063,0.1106,0.1137,0.0062
2267,0.0065,0.1077,0.1182,0.0067
2268,0.0071,0.0811,0.1110,0.0067
2269,0.0068,0.1010,0.1108,0.0076
2270,0.0076,0.0933,0.1037,0.0089
2271,0.0105,0.0898,0.1044,0.0101
2272,0.0136,0.0873,0.1016,0.0117
2273,0.0074,0.0933,0.1140,0.0067
2274,0.0071,0.1119,0.1014,0.0634
2275,0.0057,0.1047,0.1007,0.0558
2276,0.0066,0.0924,0.0941,0.0471
2277,0.0077,0.0920,0.0990,0.0426
2278,0.0080,0.0922,0.1054,0.0388
2279,0.0078,0.1212,0.1240,0.0609
2280,0.0068,0.0759,0.1038,0.0066
2281,0.0080,0.0745,0.0922,0.0297
2282,0.0078,0.0765,0.0981,0.0259
2283,0.0074,0.0743,0.0994,0.0208
2284,0.0072,0.0717,0.0978,0.0154
2285,0.0069,0.0789,0.1079,0.0115
2286,0.0076,0.1015,0.1137,0.0063
2287,0.0063,0.0803,0.1050,0.0056
2288,0.0068,0.0818,0.1070,0.0076
2289,0.0074,0.0830,0.1064,0.0115
2290,0.0087,0.0843,0.1079,0.0177
2291,0.0068,0.0759,0.1038,0.0066
2292,0.0090,0.0844,0.1024,0.0212
2293,0.0096,0.0858,0.0997,0.0270
2294,0.0097,0.0897,0.0946,0.0321
2295,0.0110,0.0879,0.0920,0.0405
2296,0.0125,0.0866,0.0934,0.0490
2297,0.0116,0.0767,0.0751,0.0528
2298,0.0071,0.1081,0.1155,0.0060
2299,0.0066,0.0784,0.1053,0.0074
2300,0.0065,0.0779,0.1032,0.0075
2301,0.0068,0.0806,0.1093,0.0073
2302,0.0068,0.0759,0.1038,0.0066
2303,0.0066,0.0784,0.1053,0.0074
2304,0.0065,0.0779,0.1032,0.0075
2305,0.0066,0.0784,0.1053,0.0074
2306,0.0066,0.0784,0.1053,0.0074
2307,0.0068,0.0806,0.1093,0.0073
2308,0.0066,0.0784,0.1053,0.0074
2309,0.0066,0.0784,0.1053,0.0074
2310,0.0063,0.1106,0.1137,0.0062
2311,0.0066,0.0784,0.1053,0.0074
2312,0.0068,0.0806,0.1093,0.0073
2313,0.0068,0.0759,0.1038,0.0066
2314,0.0065,0.0779,0.1032,0.0075
2315,0.0066,0.0784,0.1053,0.0074
2316,0.0066,0.0784,0.1053,0.0074
2317,0.0065,0.0779,0.1032,0.0075
2318,0.0068,0.0806,0.1093,0.0073
2319,0.0066,0.0784,0.1053,0.0074
2320,0.0065,0.0779,0.1032,0.0075
2321,0.0066,0.0784,0.1053,0.0074
2322,0.0063,0.1065,0.1137,0.0067
2323,0.0068,0.0806,0.1093,0.0073
2324,0.0070,0.1023,0.1187,0.0072
2325,0.0066,0.0784,0.1053,0.0074
2326,0.0066,0.0784,0.1053,0.0074
2327,0.0065,0.0779,0.1032,0.0075
2328,0.0066,0.0784,0.1053,0.0074
2329,0.0068,0.0806,0.1093,0.0073
2330,0.0065,0.0779,0.1032,0.0075
2331,0.0066,0.0784,0.1053,0.0074
2332,0.0066,0.0784,0.1053,0.0074
2333,0.0065,0.0779,0.1032,0.0075
2334,0.0072,0.1033,0.1160,0.0076
2335,0.0068,0.0759,0.1038,0.0066
2336,0.0066,0.0784,0.1053,0.0074
2337,0.0065,0.0779,0.1032,0.0075
2338,0.0066,0.0784,0.1053,0.0074
2339,0.0066,0.0784,0.1053,0.0074
2340,0.0068,0.0806,0.1093,0.0073
2341,0.0081,0.0489,0.0909,0.0076
2342,0.0077,0.0512,0.0925,0.0076
2343,0.0074,0.0518,0.0921,0.0078
2344,0.0074,0.0555,0.0952,0.0077
2345,0.0065,0.1077,0.1182,0.0067
2346,0.0068,0.0759,0.1038,0.0066
2347,0.0076,0.0933,0.1037,0.0089
2348,0.0070,0.0611,0.0983,0.0076
2349,0.0069,0.0634,0.0995,0.0076
2350,0.0066,0.0667,0.0993,0.0076
2351,0.0068,0.0734,0.1065,0.0074
2352,0.0067,0.0738,0.1037,0.0075
2353,0.0069,0.0830,0.1050,0.0074
2354,0.0074,0.0920,0.1102,0.0068
2355,0.0076,0.1015,0.1137,0.0063
2356,0.0072,0.1087,0.1193,0.0060
2357,0.0068,0.0759,0.1038,0.0066
2358,0.0064,0.1095,0.1156,0.0061
2359,0.0105,0.0898,0.1044,0.0101
2360,0.0060,0.1068,0.1113,0.0068
2361,0.0068,0.1010,0.1108,0.0076
2362,0.0086,0.0993,0.1139,0.0087
2363,0.0099,0.0859,0.0992,0.0103
2364,0.0136,0.0873,0.1016,0.0117
2365,0.0071,0.1119,0.1014,0.0634
2366,0.0056,0.0995,0.0951,0.0541
2367,0.0066,0.1045,0.1074,0.0511
2368,0.0068,0.0759,0.1038,0.0066
2369,0.0217,0.0429,0.0575,0.0607
2370,0.0170,0.0506,0.0646,0.0575
2371,0.0138,0.0591,0.0715,0.0547
2372,0.0119,0.0647,0.0768,0.0532
2373,0.0107,0.0690,0.0808,0.0525
2374,0.0050,0.0460,0.0614,0.0048
2375,0.0050,0.0460,0.0614,0.0048
2376,0.0049,0.0448,0.0574,0.0050
2377,0.0055,0.0495,0.0621,0.0046
2378,0.0056,0.0528,0.0692,0.0046
2379,0.0071,0.0811,0.1110,0.0067
2380,0.0061,0.0561,0.0604,0.0044
2381,0.0062,0.0635,0.0664,0.0039
2382,0.0055,0.0682,0.0678,0.0036
2383,0.0050,0.0687,0.0629,0.0038
2384,0.0057,0.0661,0.0730,0.0041
2385,0.0066,0.0573,0.0630,0.0046
2386,0.0080,0.0480,0.0533,0.0057
2387,0.0114,0.0533,0.0614,0.0065
2388,0.0147,0.0606,0.0632,0.0078
2389,0.0062,0.0585,0.0710,0.0042
2390,0.0089,0.1145,0.1230,0.0530
2391,0.0092,0.0515,0.0903,0.0066
2392,0.0073,0.0713,0.0606,0.0346
2393,0.0056,0.0682,0.0609,0.0307
2394,0.0064,0.0583,0.0511,0.0235
2395,0.0075,0.0628,0.0604,0.0243
2396,0.0080,0.0684,0.0709,0.0250
2397,0.0077,0.0464,0.0489,0.0153
2398,0.0073,0.0497,0.0580,0.0152
2399,0.0066,0.0454,0.0580,0.0120
2400,0.0062,0.0384,0.0522,0.0077
2401,0.0055,0.0490,0.0677,0.0066
2402,0.0086,0.0533,0.0917,0.0067
2403,0.0062,0.0635,0.0664,0.0039
2404,0.0046,0.0487,0.0596,0.0055
2405,0.0052,0.0513,0.0633,0.0077
2406,0.0059,0.0529,0.0631,0.0101
2407,0.0072,0.0554,0.0678,0.0146
2408,0.0073,0.0555,0.0606,0.0147
2409,0.0079,0.0575,0.0589,0.0171
2410,0.0078,0.0593,0.0520,0.0168
2411,0.0090,0.0586,0.0549,0.0232
2412,0.0100,0.0622,0.0659,0.0300
2413,0.0080,0.0552,0.0931,0.0067
2414,0.0084,0.0533,0.0476,0.0277
2415,0.0055,0.0682,0.0678,0.0036
2416,0.0050,0.0460,0.0614,0.0048
2417,0.0049,0.0448,0.0574,0.0050
2418,0.0052,0.0499,0.0684,0.0047
2419,0.0050,0.0460,0.0614,0.0048
2420,0.0049,0.0448,0.0574,0.0050
2421,0.0050,0.0460,0.0614,0.0048
2422,0.0050,0.0460,0.0614,0.0048
2423,0.0052,0.0499,0.0684,0.0047
2424,0.0077,0.0569,0.0944,0.0067
2425,0.0050,0.0460,0.0614,0.0048
2426,0.0050,0.0460,0.0614,0.0048
2427,0.0050,0.0687,0.0629,0.0038
2428,0.0050,0.0460,0.0614,0.0048
2429,0.0052,0.0499,0.0684,0.0047
2430,0.0049,0.0448,0.0574,0.0050
2431,0.0050,0.0460,0.0614,0.0048
2432,0.0050,0.0460,0.0614,0.0048
2433,0.0049,0.0448,0.0574,0.0050
2434,0.0052,0.0499,0.0684,0.0047
2435,0.0070,0.1046,0.1196,0.0065
2436,0.0050,0.0460,0.0614,0.0048
2437,0.0049,0.0448,0.0574,0.0050
2438,0.0050,0.0460,0.0614,0.0048
2439,0.0054,0.0634,0.0650,0.0041
2440,0.0052,0.0499,0.0684,0.0047
2441,0.0050,0.0460,0.0614,0.0048
2442,0.0050,0.0460,0.0614,0.0048
2443,0.0049,0.0448,0.0574,0.0050
2444,0.0050,0.0460,0.0614,0.0048
2445,0.0052,0.0499,0.0684,0.0047
2446,0.0072,0.0942,0.1089,0.0079
2447,0.0049,0.0448,0.0574,0.0050
2448,0.0050,0.0460,0.0614,0.0048
2449,0.0050,0.0460,0.0614,0.0048
2450,0.0049,0.0448,0.0574,0.0050
2451,0.0070,0.0621,0.0723,0.0046
2452,0.0050,0.0460,0.0614,0.0048
2453,0.0049,0.0448,0.0574,0.0050
2454,0.0050,0.0460,0.0614,0.0048
2455,0.0050,0.0460,0.0614,0.0048
2456,0.0052,0.0499,0.0684,0.0047
2457,0.0071,0.0614,0.0972,0.0067
2458,0.0073,0.0306,0.0551,0.0057
2459,0.0068,0.0311,0.0557,0.0056
2460,0.0063,0.0299,0.0532,0.0058
2461,0.0061,0.0339,0.0572,0.0054
2462,0.0057,0.0661,0.0730,0.0041
2463,0.0080,0.0480,0.0533,0.0057
2464,0.0056,0.0361,0.0582,0.0053
2465,0.0054,0.0377,0.0588,0.0052
2466,0.0051,0.0374,0.0559,0.0053
2467,0.0053,0.0462,0.0670,0.0049
2468,0.0070,0.0633,0.0984,0.0067
2469,0.0051,0.0434,0.0606,0.0049
2470,0.0054,0.0488,0.0582,0.0048
2471,0.0061,0.0560,0.0641,0.0043
2472,0.0062,0.0635,0.0664,0.0039
2473,0.0056,0.0697,0.0746,0.0036
2474,0.0052,0.0674,0.0668,0.0038
2475,0.0114,0.0533,0.0614,0.0065
2476,0.0051,0.0635,0.0602,0.0042
2477,0.0066,0.0573,0.0630,0.0046
2478,0.0090,0.0604,0.0722,0.0055
2479,0.0068,0.0667,0.0999,0.0066
2480,0.0108,0.0450,0.0510,0.0068
2481,0.0147,0.0606,0.0632,0.0078
2482,0.0073,0.0713,0.0606,0.0346
2483,0.0056,0.0605,0.0512,0.0271
2484,0.0064,0.0754,0.0725,0.0315
2485,0.0229,0.0354,0.0437,0.0366
2486,0.0176,0.0423,0.0478,0.0342
2487,0.0139,0.0498,0.0521,0.0319
2488,0.0119,0.0559,0.0558,0.0306
2489,0.0106,0.0603,0.0585,0.0301
2490,0.0071,0.0752,0.1082,0.0067
2491,0.0042,0.0229,0.0323,0.0034
2492,0.0042,0.0229,0.0323,0.0034
2493,0.0041,0.0198,0.0233,0.0037
2494,0.0047,0.0250,0.0325,0.0033
2495,0.0047,0.0315,0.0448,0.0032
2496,0.0054,0.0295,0.0248,0.0032
2497,0.0052,0.0344,0.0342,0.0028
2498,0.0046,0.0375,0.0349,0.0027
2499,0.0044,0.0378,0.0252,0.0029
2500,0.0056,0.0372,0.0484,0.0029
2501,0.0092,0.1163,0.1309,0.0474
2502,0.0069,0.0721,0.1023,0.0067
2503,0.0070,0.0277,0.0362,0.0031
2504,0.0088,0.0219,0.0254,0.0039
2505,0.0123,0.0441,0.0469,0.0043
2506,0.0158,0.0621,0.0556,0.0053
2507,0.0054,0.0345,0.0455,0.0030
2508,0.0075,0.0562,0.0443,0.0203
2509,0.0056,0.0577,0.0462,0.0203
2510,0.0063,0.0503,0.0340,0.0138
2511,0.0073,0.0584,0.0475,0.0193
2512,0.0078,0.0651,0.0600,0.0222
2513,0.0073,0.0796,0.1053,0.0065
2514,0.0076,0.0423,0.0299,0.0119
2515,0.0069,0.0436,0.0405,0.0132
2516,0.0064,0.0353,0.0370,0.0101
2517,0.0057,0.0198,0.0215,0.0051
2518,0.0047,0.0326,0.0460,0.0047
2519,0.0052,0.0344,0.0342,0.0028
2520,0.0039,0.0244,0.0255,0.0057
2521,0.0046,0.0288,0.0330,0.0087
2522,0.0055,0.0316,0.0333,0.0113
2523,0.0068,0.0370,0.0437,0.0154
2524,0.0078,0.0869,0.1080,0.0061
2525,0.0070,0.0364,0.0330,0.0147
2526,0.0075,0.0387,0.0333,0.0154
2527,0.0077,0.0397,0.0238,0.0110
2528,0.0087,0.0420,0.0381,0.0158
2529,0.0094,0.0538,0.0601,0.0215
2530,0.0075,0.0503,0.0481,0.0112
2531,0.0046,0.0375,0.0349,0.0027
2532,0.0042,0.0229,0.0323,0.0034
2533,0.0041,0.0198,0.0233,0.0037
2534,0.0043,0.0303,0.0445,0.0033
2535,0.0083,0.0950,0.1111,0.0058
2536,0.0042,0.0229,0.0323,0.0034
2537,0.0041,0.0198,0.0233,0.0037
2538,0.0042,0.0229,0.0323,0.0034
2539,0.0042,0.0229,0.0323,0.0034
2540,0.0043,0.0303,0.0445,0.0033
2541,0.0042,0.0229,0.0323,0.0034
2542,0.0042,0.0229,0.0323,0.0034
2543,0.0044,0.0378,0.0252,0.0029
2544,0.0042,0.0229,0.0323,0.0034
2545,0.0043,0.0303,0.0445,0.0033
2546,0.0081,0.1046,0.1199,0.0058
2547,0.0041,0.0198,0.0233,0.0037
2548,0.0042,0.0229,0.0323,0.0034
2549,0.0042,0.0229,0.0323,0.0034
2550,0.0041,0.0198,0.0233,0.0037
2551,0.0043,0.0303,0.0445,0.0033
2552,0.0042,0.0229,0.0323,0.0034
2553,0.0041,0.0198,0.0233,0.0037
2554,0.0042,0.0229,0.0323,0.0034
2555,0.0053,0.0313,0.0345,0.0029
2556,0.0043,0.0303,0.0445,0.0033
2557,0.0072,0.1024,0.1130,0.0058
2558,0.0042,0.0229,0.0323,0.0034
2559,0.0042,0.0229,0.0323,0.0034
2560,0.0041,0.0198,0.0233,0.0037
2561,0.0042,0.0229,0.0323,0.0034
2562,0.0043,0.0303,0.0445,0.0033
2563,0.0041,0.0198,0.0233,0.0037
2564,0.0042,0.0229,0.0323,0.0034
2565,0.0042,0.0229,0.0323,0.0034
2566,0.0041,0.0198,0.0233,0.0037
2567,0.0074,0.0374,0.0511,0.0031
2568,0.0089,0.0927,0.1075,0.0092
2569,0.0042,0.0229,0.0323,0.0034
2570,0.0041,0.0198,0.0233,0.0037
2571,0.0042,0.0229,0.0323,0.0034
2572,0.0042,0.0229,0.0323,0.0034
2573,0.0043,0.0303,0.0445,0.0033
2574,0.0070,0.0185,0.0305,0.0046
2575,0.0063,0.0190,0.0308,0.0045
2576,0.0058,0.0146,0.0241,0.0047
2577,0.0054,0.0194,0.0310,0.0043
2578,0.0056,0.0372,0.0484,0.0029
2579,0.0067,0.1004,0.1120,0.0063
2580,0.0088,0.0219,0.0254,0.0039
2581,0.0048,0.0200,0.0312,0.0040
2582,0.0046,0.0202,0.0313,0.0039
2583,0.0043,0.0165,0.0234,0.0041
2584,0.0045,0.0293,0.0435,0.0036
2585,0.0042,0.0220,0.0319,0.0036
2586,0.0046,0.0232,0.0235,0.0035
2587,0.0054,0.0296,0.0333,0.0030
2588,0.0052,0.0344,0.0342,0.0028
2589,0.0047,0.0406,0.0471,0.0028
2590,0.0066,0.0967,0.1102,0.0070
2591,0.0046,0.0361,0.0344,0.0028
2592,0.0123,0.0441,0.0469,0.0043
2593,0.0050,0.0307,0.0232,0.0030
2594,0.0070,0.0277,0.0362,0.0031
2595,0.0097,0.0441,0.0558,0.0035
2596,0.0118,0.0330,0.0315,0.0047
2597,0.0158,0.0621,0.0556,0.0053
2598,0.0075,0.0562,0.0443,0.0203
2599,0.0056,0.0489,0.0328,0.0135
2600,0.0063,0.0686,0.0612,0.0257
2601,0.0077,0.1013,0.1182,0.0081
2602,0.0238,0.0376,0.0435,0.0201
2603,0.0182,0.0440,0.0453,0.0190
2604,0.0142,0.0504,0.0473,0.0184
2605,0.0119,0.0560,0.0495,0.0185
2606,0.0105,0.0610,0.0515,0.0193
2607,0.0039,0.0164,0.0255,0.0031
2608,0.0039,0.0164,0.0255,0.0031
2609,0.0038,0.0112,0.0118,0.0033
2610,0.0043,0.0172,0.0256,0.0029
2611,0.0044,0.0257,0.0402,0.0028
2612,0.0077,0.0905,0.1246,0.0082
2613,0.0089,0.1015,0.1210,0.0388
2614,0.0089,0.0927,0.1075,0.0092
2615,0.0051,0.0187,0.0121,0.0029
2616,0.0049,0.0225,0.0257,0.0026
2617,0.0044,0.0255,0.0260,0.0027
2618,0.0043,0.0264,0.0123,0.0027
2619,0.0057,0.0281,0.0449,0.0027
2620,0.0073,0.0211,0.0340,0.0028
2621,0.0093,0.0216,0.0265,0.0033
2622,0.0128,0.0486,0.0503,0.0036
2623,0.0163,0.0685,0.0608,0.0044
2624,0.0051,0.0261,0.0402,0.0027
2625,0.0115,0.0944,0.1070,0.0107
2626,0.0075,0.0579,0.0459,0.0204
2627,0.0056,0.0603,0.0483,0.0215
2628,0.0063,0.0550,0.0376,0.0162
2629,0.0073,0.0626,0.0502,0.0213
2630,0.0078,0.0688,0.0620,0.0239
2631,0.0075,0.0472,0.0328,0.0141
2632,0.0069,0.0468,0.0414,0.0147
2633,0.0062,0.0373,0.0365,0.0112
2634,0.0054,0.0197,0.0172,0.0059
2635,0.0045,0.0303,0.0427,0.0047
2636,0.0073,0.1139,0.1053,0.0633
2637,0.0049,0.0225,0.0257,0.0026
2638,0.0038,0.0152,0.0126,0.0059
2639,0.0045,0.0210,0.0243,0.0094
2640,0.0056,0.0245,0.0246,0.0123
2641,0.0068,0.0315,0.0383,0.0166
2642,0.0071,0.0305,0.0263,0.0163
2643,0.0077,0.0331,0.0283,0.0171
2644,0.0080,0.0342,0.0190,0.0129
2645,0.0090,0.0391,0.0385,0.0167
2646,0.0095,0.0543,0.0630,0.0217
2647,0.0066,0.1092,0.1054,0.0556
2648,0.0077,0.0544,0.0548,0.0097
2649,0.0044,0.0255,0.0260,0.0027
2650,0.0039,0.0164,0.0255,0.0031
2651,0.0038,0.0112,0.0118,0.0033
2652,0.0040,0.0258,0.0399,0.0029
2653,0.0039,0.0164,0.0255,0.0031
2654,0.0038,0.0112,0.0118,0.0033
2655,0.0039,0.0164,0.0255,0.0031
2656,0.0039,0.0164,0.0255,0.0031
2657,0.0040,0.0258,0.0399,0.0029
2658,0.0078,0.1147,0.1158,0.0510
2659,0.0039,0.0164,0.0255,0.0031
2660,0.0039,0.0164,0.0255,0.0031
2661,0.0043,0.0264,0.0123,0.0027
2662,0.0039,0.0164,0.0255,0.0031
2663,0.0040,0.0258,0.0399,0.0029
2664,0.0038,0.0112,0.0118,0.0033
2665,0.0039,0.0164,0.0255,0.0031
2666,0.0039,0.0164,0.0255,0.0031
2667,0.0038,0.0112,0.0118,0.0033
2668,0.0040,0.0258,0.0399,0.0029
2669,0.0220,0.0584,0.0727,0.0573
2670,0.0039,0.0164,0.0255,0.0031
2671,0.0038,0.0112,0.0118,0.0033
2672,0.0039,0.0164,0.0255,0.0031
2673,0.0055,0.0194,0.0291,0.0027
2674,0.0040,0.0258,0.0399,0.0029
2675,0.0039,0.0164,0.0255,0.0031
2676,0.0039,0.0164,0.0255,0.0031
2677,0.0038,0.0112,0.0118,0.0033
2678,0.0039,0.0164,0.0255,0.0031
2679,0.0040,0.0258,0.0399,0.0029
2680,0.0177,0.0654,0.0782,0.0548
2681,0.0038,0.0112,0.0118,0.0033
2682,0.0039,0.0164,0.0255,0.0031
2683,0.0039,0.0164,0.0255,0.0031
2684,0.0038,0.0112,0.0118,0.0033
2685,0.0076,0.0331,0.0498,0.0028
2686,0.0039,0.0164,0.0255,0.0031
2687,0.0038,0.0112,0.0118,0.0033
2688,0.0039,0.0164,0.0255,0.0031
2689,0.0039,0.0164,0.0255,0.0031
2690,0.0040,0.0258,0.0399,0.0029
2691,0.0147,0.0720,0.0831,0.0534
2692,0.0069,0.0159,0.0232,0.0043
2693,0.0063,0.0158,0.0232,0.0042
2694,0.0057,0.0103,0.0133,0.0044
2695,0.0053,0.0160,0.0234,0.0039
2696,0.0057,0.0281,0.0449,0.0027
2697,0.0093,0.0216,0.0265,0.0033
2698,0.0046,0.0162,0.0237,0.0037
2699,0.0043,0.0162,0.0241,0.0035
2700,0.0040,0.0103,0.0122,0.0037
2701,0.0041,0.0259,0.0389,0.0031
2702,0.0126,0.0782,0.0873,0.0526
2703,0.0039,0.0163,0.0250,0.0032
2704,0.0043,0.0140,0.0119,0.0031
2705,0.0051,0.0192,0.0255,0.0027
2706,0.0049,0.0225,0.0257,0.0026
2707,0.0045,0.0300,0.0412,0.0027
2708,0.0045,0.0244,0.0267,0.0027
2709,0.0128,0.0486,0.0503,0.0036
2710,0.0051,0.0178,0.0135,0.0028
2711,0.0073,0.0211,0.0340,0.0028
2712,0.0101,0.0444,0.0566,0.0030
2713,0.0110,0.0838,0.0910,0.0524
2714,0.0123,0.0385,0.0361,0.0040
2715,0.0163,0.0685,0.0608,0.0044
2716,0.0075,0.0579,0.0459,0.0204
2717,0.0056,0.0523,0.0360,0.0151
2718,0.0063,0.0718,0.0631,0.0272
2719,0.0243,0.0407,0.0465,0.0150
2720,0.0185,0.0468,0.0476,0.0151
2721,0.0144,0.0531,0.0491,0.0159
2722,0.0119,0.0583,0.0506,0.0173
2723,0.0105,0.0633,0.0525,0.0190
2724,0.0088,0.0958,0.1205,0.0323
2725,0.0055,0.0483,0.0658,0.0042
2726,0.0055,0.0483,0.0658,0.0042
2727,0.0055,0.0483,0.0658,0.0042
2728,0.0060,0.0501,0.0664,0.0041
2729,0.0061,0.0579,0.0776,0.0043
2730,0.0067,0.0541,0.0678,0.0039
2731,0.0070,0.0597,0.0695,0.0038
2732,0.0064,0.0630,0.0706,0.0038
2733,0.0059,0.0627,0.0703,0.0039
2734,0.0060,0.0678,0.0822,0.0044
2735,0.0085,0.0921,0.1210,0.0260
2736,0.0060,0.0585,0.0704,0.0043
2737,0.0074,0.0602,0.0720,0.0049
2738,0.0096,0.0666,0.0748,0.0057
2739,0.0125,0.0782,0.0795,0.0068
2740,0.0068,0.0610,0.0789,0.0042
2741,0.0075,0.0838,0.0752,0.0342
2742,0.0065,0.0838,0.0763,0.0303
2743,0.0076,0.0846,0.0771,0.0270
2744,0.0087,0.0822,0.0767,0.0242
2745,0.0091,0.0901,0.0893,0.0252
2746,0.0080,0.0899,0.1221,0.0197
2747,0.0087,0.0738,0.0733,0.0186
2748,0.0081,0.0670,0.0711,0.0155
2749,0.0073,0.0600,0.0690,0.0124
2750,0.0066,0.0536,0.0673,0.0092
2751,0.0060,0.0590,0.0780,0.0071
2752,0.0070,0.0597,0.0695,0.0038
2753,0.0056,0.0490,0.0658,0.0042
2754,0.0064,0.0505,0.0657,0.0061
2755,0.0076,0.0523,0.0654,0.0084
2756,0.0094,0.0586,0.0742,0.0130
2757,0.0080,0.0949,0.1298,0.0141
2758,0.0100,0.0561,0.0638,0.0132
2759,0.0111,0.0586,0.0629,0.0159
2760,0.0122,0.0606,0.0620,0.0189
2761,0.0131,0.0612,0.0617,0.0225
2762,0.0145,0.0666,0.0761,0.0291
2763,0.0139,0.0634,0.0695,0.0298
2764,0.0064,0.0630,0.0706,0.0038
2765,0.0055,0.0483,0.0658,0.0042
2766,0.0055,0.0483,0.0658,0.0042
2767,0.0057,0.0564,0.0769,0.0043
2768,0.0090,0.1130,0.1334,0.0072
2769,0.0055,0.0483,0.0658,0.0042
2770,0.0055,0.0483,0.0658,0.0042
2771,0.0055,0.0483,0.0658,0.0042
2772,0.0055,0.0483,0.0658,0.0042
2773,0.0057,0.0564,0.0769,0.0043
2774,0.0055,0.0483,0.0658,0.0042
2775,0.0055,0.0483,0.0658,0.0042
2776,0.0059,0.0627,0.0703,0.0039
2777,0.0055,0.0483,0.0658,0.0042
2778,0.0057,0.0564,0.0769,0.0043
2779,0.0079,0.0921,0.1256,0.0044
2780,0.0055,0.0483,0.0658,0.0042
2781,0.0055,0.0483,0.0658,0.0042
2782,0.0055,0.0483,0.0658,0.0042
2783,0.0055,0.0483,0.0658,0.0042
2784,0.0057,0.0564,0.0769,0.0043
2785,0.0055,0.0483,0.0658,0.0042
2786,0.0055,0.0483,0.0658,0.0042
2787,0.0055,0.0483,0.0658,0.0042
2788,0.0057,0.0607,0.0702,0.0041
2789,0.0057,0.0564,0.0769,0.0043
2790,0.0083,0.0935,0.1258,0.0069
2791,0.0055,0.0483,0.0658,0.0042
2792,0.0055,0.0483,0.0658,0.0042
2793,0.0055,0.0483,0.0658,0.0042
2794,0.0055,0.0483,0.0658,0.0042
2795,0.0057,0.0564,0.0769,0.0043
2796,0.0055,0.0483,0.0658,0.0042
2797,0.0055,0.0483,0.0658,0.0042
2798,0.0055,0.0483,0.0658,0.0042
2799,0.0055,0.0483,0.0658,0.0042
2800,0.0065,0.0678,0.0835,0.0046
2801,0.0095,0.0945,0.1251,0.0124
2802,0.0055,0.0483,0.0658,0.0042
2803,0.0055,0.0483,0.0658,0.0042
2804,0.0055,0.0483,0.0658,0.0042
2805,0.0055,0.0483,0.0658,0.0042
2806,0.0057,0.0564,0.0769,0.0043
2807,0.0089,0.0382,0.0593,0.0047
2808,0.0081,0.0387,0.0600,0.0047
2809,0.0074,0.0398,0.0607,0.0046
2810,0.0069,0.0406,0.0614,0.0045
2811,0.0060,0.0678,0.0822,0.0044
2812,0.0111,0.0976,0.1284,0.0199
2813,0.0074,0.0602,0.0720,0.0049
2814,0.0061,0.0421,0.0625,0.0045
2815,0.0058,0.0431,0.0631,0.0044
2816,0.0056,0.0440,0.0637,0.0043
2817,0.0058,0.0541,0.0754,0.0044
2818,0.0055,0.0469,0.0651,0.0042
2819,0.0060,0.0501,0.0664,0.0041
2820,0.0067,0.0541,0.0678,0.0039
2821,0.0070,0.0597,0.0695,0.0038
2822,0.0065,0.0689,0.0818,0.0041
2823,0.0080,0.0951,0.1264,0.0081
2824,0.0116,0.0971,0.1217,0.0256
2825,0.0059,0.0627,0.0703,0.0039
2826,0.0096,0.0666,0.0748,0.0057
2827,0.0057,0.0607,0.0702,0.0041
2828,0.0060,0.0585,0.0704,0.0043
2829,0.0078,0.0713,0.0859,0.0051
2830,0.0096,0.0666,0.0748,0.0057
2831,0.0125,0.0782,0.0795,0.0068
2832,0.0075,0.0838,0.0752,0.0342
2833,0.0065,0.0838,0.0763,0.0303
2834,0.0076,0.0960,0.0911,0.0314
2835,0.0128,0.0995,0.1194,0.0333
2836,0.0228,0.0502,0.0629,0.0338
2837,0.0180,0.0585,0.0667,0.0316
2838,0.0148,0.0660,0.0702,0.0304
2839,0.0126,0.0732,0.0732,0.0300
2840,0.0110,0.0798,0.0761,0.0299
2841,0.0048,0.0356,0.0483,0.0031
2842,0.0048,0.0356,0.0483,0.0031
2843,0.0048,0.0356,0.0483,0.0031
2844,0.0052,0.0352,0.0486,0.0031
2845,0.0054,0.0458,0.0632,0.0034
2846,0.0141,0.1031,0.1166,0.0416
2847,0.0061,0.0352,0.0487,0.0032
2848,0.0061,0.0367,0.0491,0.0033
2849,0.0056,0.0376,0.0496,0.0035
2850,0.0052,0.0374,0.0503,0.0036
2851,0.0056,0.0487,0.0682,0.0039
2852,0.0062,0.0417,0.0569,0.0034
2853,0.0079,0.0519,0.0631,0.0034
2854,0.0104,0.0667,0.0708,0.0037
2855,0.0136,0.0853,0.0801,0.0044
2856,0.0061,0.0454,0.0634,0.0035
2857,0.0152,0.1030,0.1123,0.0503
2858,0.0076,0.0793,0.0699,0.0197
2859,0.0064,0.0824,0.0721,0.0200
2860,0.0074,0.0854,0.0735,0.0201
2861,0.0085,0.0850,0.0736,0.0196
2862,0.0090,0.0928,0.0863,0.0229
2863,0.0085,0.0766,0.0689,0.0167
2864,0.0078,0.0682,0.0647,0.0142
2865,0.0071,0.0590,0.0601,0.0113
2866,0.0062,0.0491,0.0553,0.0080
2867,0.0053,0.0519,0.0660,0.0060
2868,0.0169,0.1025,0.1141,0.0598
2869,0.0061,0.0367,0.0491,0.0033
2870,0.0051,0.0337,0.0464,0.0044
2871,0.0061,0.0343,0.0453,0.0069
2872,0.0075,0.0362,0.0449,0.0093
2873,0.0093,0.0454,0.0582,0.0133
2874,0.0100,0.0414,0.0452,0.0124
2875,0.0111,0.0439,0.0461,0.0130
2876,0.0123,0.0460,0.0480,0.0132
2877,0.0133,0.0485,0.0522,0.0135
2878,0.0144,0.0608,0.0742,0.0192
2879,0.0169,0.0949,0.1020,0.0668
2880,0.0136,0.0642,0.0737,0.0147
2881,0.0056,0.0376,0.0496,0.0035
2882,0.0048,0.0356,0.0483,0.0031
2883,0.0048,0.0356,0.0483,0.0031
2884,0.0050,0.0460,0.0628,0.0034
2885,0.0048,0.0356,0.0483,0.0031
2886,0.0048,0.0356,0.0483,0.0031
2887,0.0048,0.0356,0.0483,0.0031
2888,0.0048,0.0356,0.0483,0.0031
2889,0.0050,0.0460,0.0628,0.0034
2890,0.0087,0.1200,0.1358,0.0070
2891,0.0048,0.0356,0.0483,0.0031
2892,0.0048,0.0356,0.0483,0.0031
2893,0.0052,0.0374,0.0503,0.0036
2894,0.0048,0.0356,0.0483,0.0031
2895,0.0050,0.0460,0.0628,0.0034
2896,0.0048,0.0356,0.0483,0.0031
2897,0.0048,0.0356,0.0483,0.0031
2898,0.0048,0.0356,0.0483,0.0031
2899,0.0048,0.0356,0.0483,0.0031
2900,0.0050,0.0460,0.0628,0.0034
2901,0.0077,0.0905,0.1246,0.0082
2902,0.0048,0.0356,0.0483,0.0031
2903,0.0048,0.0356,0.0483,0.0031
2904,0.0048,0.0356,0.0483,0.0031
2905,0.0053,0.0377,0.0528,0.0035
2906,0.0050,0.0460,0.0628,0.0034
2907,0.0048,0.0356,0.0483,0.0031
2908,0.0048,0.0356,0.0483,0.0031
2909,0.0048,0.0356,0.0483,0.0031
2910,0.0048,0.0356,0.0483,0.0031
2911,0.0050,0.0460,0.0628,0.0034
2912,0.0077,0.0905,0.1246,0.0082
2913,0.0048,0.0356,0.0483,0.0031
2914,0.0048,0.0356,0.0483,0.0031
2915,0.0048,0.0356,0.0483,0.0031
2916,0.0048,0.0356,0.0483,0.0031
2917,0.0066,0.0544,0.0727,0.0038
2918,0.0048,0.0356,0.0483,0.0031
2919,0.0048,0.0356,0.0483,0.0031
2920,0.0048,0.0356,0.0483,0.0031
2921,0.0048,0.0356,0.0483,0.0031
2922,0.0050,0.0460,0.0628,0.0034
2923,0.0079,0.0949,0.1306,0.0082
2924,0.0088,0.0331,0.0436,0.0037
2925,0.0080,0.0335,0.0440,0.0036
2926,0.0072,0.0342,0.0444,0.0036
2927,0.0066,0.0343,0.0448,0.0035
2928,0.0056,0.0487,0.0682,0.0039
2929,0.0079,0.0519,0.0631,0.0034
2930,0.0056,0.0348,0.0456,0.0033
2931,0.0053,0.0350,0.0460,0.0033
2932,0.0051,0.0349,0.0464,0.0032
2933,0.0052,0.0457,0.0612,0.0034
2934,0.0082,0.0992,0.1323,0.0082
2935,0.0077,0.0905,0.1246,0.0082
2936,0.0048,0.0358,0.0477,0.0032
2937,0.0052,0.0352,0.0486,0.0031
2938,0.0061,0.0352,0.0487,0.0032
2939,0.0061,0.0367,0.0491,0.0033
2940,0.0057,0.0472,0.0648,0.0039
2941,0.0052,0.0374,0.0503,0.0036
2942,0.0104,0.0667,0.0708,0.0037
2943,0.0053,0.0377,0.0528,0.0035
2944,0.0062,0.0417,0.0569,0.0034
2945,0.0084,0.0648,0.0789,0.0037
2946,0.0077,0.0905,0.1246,0.0082
2947,0.0104,0.0667,0.0708,0.0037
2948,0.0136,0.0853,0.0801,0.0044
2949,0.0076,0.0793,0.0699,0.0197
2950,0.0064,0.0824,0.0721,0.0200
2951,0.0075,0.0964,0.0879,0.0259
2952,0.0235,0.0496,0.0631,0.0184
2953,0.0184,0.0579,0.0653,0.0177
2954,0.0149,0.0663,0.0682,0.0177
2955,0.0126,0.0744,0.0710,0.0184
2956,0.0110,0.0825,0.0741,0.0194
2957,0.0077,0.0905,0.1246,0.0082
2958,0.0046,0.0350,0.0475,0.0029
2959,0.0046,0.0350,0.0475,0.0029
2960,0.0046,0.0350,0.0475,0.0029
2961,0.0049,0.0336,0.0477,0.0030
2962,0.0051,0.0447,0.0626,0.0033
2963,0.0057,0.0317,0.0475,0.0031
2964,0.0058,0.0312,0.0475,0.0034
2965,0.0054,0.0309,0.0478,0.0037
2966,0.0050,0.0315,0.0493,0.0038
2967,0.0056,0.0462,0.0687,0.0040
2968,0.0077,0.0905,0.1246,0.0082
2969,0.0064,0.0421,0.0591,0.0033
2970,0.0083,0.0554,0.0668,0.0031
2971,0.0109,0.0726,0.0759,0.0032
2972,0.0141,0.0922,0.0864,0.0036
2973,0.0058,0.0427,0.0626,0.0035
2974,0.0077,0.0836,0.0738,0.0200
2975,0.0064,0.0872,0.0762,0.0215
2976,0.0074,0.0907,0.0778,0.0221
2977,0.0085,0.0903,0.0780,0.0218
2978,0.0090,0.0975,0.0899,0.0247
2979,0.0079,0.0949,0.1306,0.0082
2980,0.0085,0.0815,0.0728,0.0186
2981,0.0077,0.0727,0.0681,0.0159
2982,0.0069,0.0626,0.0627,0.0125
2983,0.0059,0.0516,0.0569,0.0089
2984,0.0051,0.0528,0.0663,0.0062
2985,0.0058,0.0312,0.0475,0.0034
2986,0.0050,0.0315,0.0446,0.0045
2987,0.0061,0.0311,0.0428,0.0075
2988,0.0076,0.0328,0.0422,0.0103
2989,0.0093,0.0428,0.0566,0.0145
2990,0.0077,0.0905,0.1246,0.0082
2991,0.0101,0.0381,0.0434,0.0140
2992,0.0113,0.0409,0.0453,0.0146
2993,0.0125,0.0435,0.0485,0.0145
2994,0.0136,0.0473,0.0544,0.0140
2995,0.0146,0.0623,0.0779,0.0191
2996,0.0138,0.0688,0.0797,0.0133
2997,0.0054,0.0309,0.0478,0.0037
2998,0.0046,0.0350,0.0475,0.0029
2999,0.0046,0.0350,0.0475,0.0029
3000,0.0048,0.0457,0.0622,0.0032
3001,0.0077,0.0905,0.1246,0.0082
3002,0.0046,0.0350,0.0475,0.0029
3003,0.0046,0.0350,0.0475,0.0029
3004,0.0046,0.0350,0.0475,0.0029
3005,0.0046,0.0350,0.0475,0.0029
3006,0.0048,0.0457,0.0622,0.0032
3007,0.0046,0.0350,0.0475,0.0029
3008,0.0046,0.0350,0.0475,0.0029
3009,0.0050,0.0315,0.0493,0.0038
3010,0.0046,0.0350,0.0475,0.0029
3011,0.0048,0.0457,0.0622,0.0032
3012,0.0081,0.1224,0.1362,0.0072
3013,0.0046,0.0350,0.0475,0.0029
3014,0.0046,0.0350,0.0475,0.0029
3015,0.0046,0.0350,0.0475,0.0029
3016,0.0046,0.0350,0.0475,0.0029
3017,0.0048,0.0457,0.0622,0.0032
3018,0.0046,0.0350,0.0475,0.0029
3019,0.0046,0.0350,0.0475,0.0029
3020,0.0046,0.0350,0.0475,0.0029
3021,0.0053,0.0341,0.0533,0.0036
3022,0.0048,0.0457,0.0622,0.0032
3023,0.0077,0.0905,0.1246,0.0082
3024,0.0046,0.0350,0.0475,0.0029
3025,0.0046,0.0350,0.0475,0.0029
3026,0.0046,0.0350,0.0475,0.0029
3027,0.0046,0.0350,0.0475,0.0029
3028,0.0048,0.0457,0.0622,0.0032
3029,0.0046,0.0350,0.0475,0.0029
3030,0.0046,0.0350,0.0475,0.0029
3031,0.0046,0.0350,0.0475,0.0029
3032,0.0046,0.0350,0.0475,0.0029
3033,0.0068,0.0547,0.0745,0.0037
3034,0.0079,0.0949,0.1306,0.0082
3035,0.0046,0.0350,0.0475,0.0029
3036,0.0046,0.0350,0.0475,0.0029
3037,0.0046,0.0350,0.0475,0.0029
3038,0.0046,0.0350,0.0475,0.0029
3039,0.0048,0.0457,0.0622,0.0032
3040,0.0089,0.0332,0.0414,0.0034
3041,0.0080,0.0335,0.0418,0.0033
3042,0.0072,0.0343,0.0424,0.0033
3043,0.0066,0.0344,0.0428,0.0032
3044,0.0056,0.0462,0.0687,0.0040
3045,0.0085,0.1034,0.1296,0.0077
3046,0.0077,0.0905,0.1246,0.0082
3047,0.0083,0.0554,0.0668,0.0031
3048,0.0055,0.0350,0.0439,0.0030
3049,0.0051,0.0352,0.0445,0.0030
3050,0.0049,0.0349,0.0451,0.0030
3051,0.0050,0.0456,0.0604,0.0032
3052,0.0046,0.0355,0.0467,0.0029
3053,0.0049,0.0336,0.0477,0.0030
3054,0.0057,0.0317,0.0475,0.0031
3055,0.0058,0.0312,0.0475,0.0034
3056,0.0055,0.0422,0.0635,0.0040
3057,0.0077,0.0905,0.1246,0.0082
3058,0.0050,0.0315,0.0493,0.0038
3059,0.0109,0.0726,0.0759,0.0032
3060,0.0053,0.0341,0.0533,0.0036
3061,0.0064,0.0421,0.0591,0.0033
3062,0.0088,0.0677,0.0819,0.0035
3063,0.0109,0.0726,0.0759,0.0032
3064,0.0141,0.0922,0.0864,0.0036
3065,0.0077,0.0836,0.0738,0.0200
3066,0.0064,0.0872,0.0762,0.0215
3067,0.0075,0.1010,0.0914,0.0276
3068,0.0077,0.0905,0.1246,0.0082
3069,0.0238,0.0509,0.0651,0.0143
3070,0.0186,0.0594,0.0672,0.0151
3071,0.0150,0.0679,0.0698,0.0163
3072,0.0126,0.0765,0.0727,0.0179
3073,0.0110,0.0851,0.0761,0.0193
3074,0.0072,0.0835,0.1170,0.0074
3075,0.0072,0.0835,0.1170,0.0074
3076,0.0070,0.0807,0.1129,0.0075
3077,0.0076,0.0878,0.1186,0.0074
3078,0.0076,0.0917,0.1242,0.0075
3079,0.0077,0.0905,0.1246,0.0082
3080,0.0081,0.0942,0.1178,0.0070
3081,0.0087,0.1054,0.1255,0.0065
3082,0.0083,0.1123,0.1277,0.0063
3083,0.0077,0.1131,0.1238,0.0065
3084,0.0072,0.1167,0.1331,0.0072
3085,0.0069,0.1096,0.1249,0.0080
3086,0.0069,0.1019,0.1167,0.0091
3087,0.0090,0.1036,0.1207,0.0105
3088,0.0115,0.1033,0.1189,0.0122
3089,0.0081,0.0994,0.1273,0.0071
3090,0.0079,0.0949,0.1306,0.0082
3091,0.0069,0.1269,0.1170,0.0774
3092,0.0061,0.1192,0.1163,0.0684
3093,0.0072,0.1048,0.1080,0.0584
3094,0.0083,0.1060,0.1147,0.0522
3095,0.0086,0.1072,0.1221,0.0467
3096,0.0083,0.0859,0.1056,0.0367
3097,0.0082,0.0879,0.1126,0.0316
3098,0.0080,0.0843,0.1130,0.0253
3099,0.0075,0.0779,0.1089,0.0184
3100,0.0074,0.0876,0.1218,0.0134
3101,0.0077,0.0905,0.1246,0.0082
3102,0.0087,0.1054,0.1255,0.0065
3103,0.0070,0.0827,0.1142,0.0039
3104,0.0074,0.0857,0.1180,0.0073
3105,0.0084,0.0862,0.1171,0.0129
3106,0.0098,0.0891,0.1202,0.0204
3107,0.0100,0.0879,0.1135,0.0260
3108,0.0110,0.0901,0.1112,0.0335
3109,0.0112,0.0927,0.1046,0.0407
3110,0.0129,0.0938,0.1048,0.0502
3111,0.0145,0.0961,0.1081,0.0597
3112,0.0077,0.0905,0.1246,0.0082
3113,0.0137,0.0849,0.0884,0.0657
3114,0.0083,0.1123,0.1277,0.0063
3115,0.0072,0.0835,0.1170,0.0074
3116,0.0070,0.0807,0.1129,0.0075
3117,0.0073,0.0876,0.1226,0.0075
3118,0.0072,0.0835,0.1170,0.0074
3119,0.0070,0.0807,0.1129,0.0075
3120,0.0072,0.0835,0.1170,0.0074
3121,0.0072,0.0835,0.1170,0.0074
3122,0.0073,0.0876,0.1226,0.0075
3123,0.0077,0.0905,0.1246,0.0082
3124,0.0072,0.0835,0.1170,0.0074
3125,0.0072,0.0835,0.1170,0.0074
3126,0.0077,0.1131,0.1238,0.0065
3127,0.0072,0.0835,0.1170,0.0074
3128,0.0073,0.0876,0.1226,0.0075
3129,0.0070,0.0807,0.1129,0.0075
3130,0.0072,0.0835,0.1170,0.0074
3131,0.0072,0.0835,0.1170,0.0074
3132,0.0070,0.0807,0.1129,0.0075
3133,0.0073,0.0876,0.1226,0.0075
3134,0.0074,0.1215,0.1354,0.0078
3135,0.0072,0.0835,0.1170,0.0074
3136,0.0070,0.0807,0.1129,0.0075
3137,0.0072,0.0835,0.1170,0.0074
3138,0.0071,0.1134,0.1270,0.0070
3139,0.0073,0.0876,0.1226,0.0075
3140,0.0072,0.0835,0.1170,0.0074
3141,0.0072,0.0835,0.1170,0.0074
3142,0.0070,0.0807,0.1129,0.0075
3143,0.0072,0.0835,0.1170,0.0074
3144,0.0073,0.0876,0.1226,0.0075
3145,0.0079,0.0949,0.1306,0.0082
3146,0.0070,0.0807,0.1129,0.0075
3147,0.0072,0.0835,0.1170,0.0074
3148,0.0072,0.0835,0.1170,0.0074
3149,0.0070,0.0807,0.1129,0.0075
3150,0.0072,0.1140,0.1317,0.0081
3151,0.0072,0.0835,0.1170,0.0074
3152,0.0070,0.0807,0.1129,0.0075
3153,0.0072,0.0835,0.1170,0.0074
3154,0.0072,0.0835,0.1170,0.0074
3155,0.0073,0.0876,0.1226,0.0075
3156,0.0090,0.1130,0.1334,0.0072
3157,0.0077,0.0905,0.1246,0.0082
3158,0.0083,0.0534,0.1004,0.0073
3159,0.0079,0.0554,0.1021,0.0073
3160,0.0073,0.0542,0.1002,0.0074
3161,0.0072,0.0602,0.1056,0.0074
3162,0.0072,0.1167,0.1331,0.0072
3163,0.0069,0.1019,0.1167,0.0091
3164,0.0069,0.0666,0.1091,0.0074
3165,0.0069,0.0687,0.1105,0.0074
3166,0.0067,0.0689,0.1082,0.0075
3167,0.0071,0.0808,0.1195,0.0074
3168,0.0077,0.0905,0.1246,0.0082
3169,0.0070,0.0794,0.1155,0.0074
3170,0.0075,0.0853,0.1145,0.0074
3171,0.0081,0.0962,0.1218,0.0070
3172,0.0087,0.1054,0.1255,0.0065
3173,0.0084,0.1150,0.1332,0.0064
3174,0.0077,0.1145,0.1280,0.0065
3175,0.0090,0.1036,0.1207,0.0105
3176,0.0069,0.1115,0.1225,0.0069
3177,0.0069,0.1096,0.1249,0.0080
3178,0.0078,0.1122,0.1305,0.0092
3179,0.0077,0.0905,0.1246,0.0082
3180,0.0084,0.0972,0.1134,0.0106
3181,0.0115,0.1033,0.1189,0.0122
3182,0.0069,0.1269,0.1170,0.0774
3183,0.0060,0.1120,0.1088,0.0670
3184,0.0073,0.1203,0.1243,0.0618
3185,0.0195,0.0618,0.0741,0.0669
3186,0.0161,0.0651,0.0798,0.0652
3187,0.0136,0.0697,0.0849,0.0642
3188,0.0119,0.0749,0.0897,0.0637
3189,0.0106,0.0799,0.0942,0.0635
3190,0.0077,0.0905,0.1246,0.0082
3191,0.0063,0.0685,0.0959,0.0059
3192,0.0063,0.0685,0.0959,0.0059
3193,0.0062,0.0650,0.0907,0.0059
3194,0.0068,0.0721,0.0973,0.0058
3195,0.0069,0.0767,0.1042,0.0059
3196,0.0074,0.0769,0.0949,0.0054
3197,0.0080,0.0874,0.1029,0.0051
3198,0.0075,0.0932,0.1045,0.0049
3199,0.0067,0.0927,0.0994,0.0050
3200,0.0065,0.0963,0.1111,0.0057
3201,0.0079,0.0949,0.1306,0.0082
3202,0.0064,0.0886,0.1018,0.0063
3203,0.0067,0.0803,0.0925,0.0072
3204,0.0091,0.0853,0.0992,0.0085
3205,0.0118,0.0885,0.0990,0.0100
3206,0.0075,0.0833,0.1068,0.0056
3207,0.0069,0.1056,0.0966,0.0623
3208,0.0060,0.1005,0.0966,0.0547
3209,0.0071,0.0869,0.0869,0.0458
3210,0.0083,0.0911,0.0956,0.0417
3211,0.0085,0.0946,0.1046,0.0382
3212,0.0077,0.0905,0.1246,0.0082
3213,0.0083,0.0713,0.0845,0.0286
3214,0.0080,0.0751,0.0930,0.0252
3215,0.0074,0.0709,0.0932,0.0200
3216,0.0071,0.0624,0.0869,0.0142
3217,0.0066,0.0738,0.1023,0.0107
3218,0.0080,0.0874,0.1029,0.0051
3219,0.0060,0.0668,0.0920,0.0038
3220,0.0066,0.0704,0.0968,0.0068
3221,0.0074,0.0714,0.0961,0.0112
3222,0.0088,0.0756,0.1008,0.0176
3223,0.0077,0.0905,0.1246,0.0082
3224,0.0091,0.0735,0.0930,0.0214
3225,0.0100,0.0754,0.0910,0.0273
3226,0.0101,0.0773,0.0837,0.0326
3227,0.0116,0.0791,0.0861,0.0409
3228,0.0130,0.0831,0.0930,0.0493
3229,0.0120,0.0717,0.0725,0.0532
3230,0.0075,0.0932,0.1045,0.0049
3231,0.0063,0.0685,0.0959,0.0059
3232,0.0062,0.0650,0.0907,0.0059
3233,0.0064,0.0736,0.1028,0.0060
3234,0.0077,0.0905,0.1246,0.0082
3235,0.0063,0.0685,0.0959,0.0059
3236,0.0062,0.0650,0.0907,0.0059
3237,0.0063,0.0685,0.0959,0.0059
3238,0.0063,0.0685,0.0959,0.0059
3239,0.0064,0.0736,0.1028,0.0060
3240,0.0063,0.0685,0.0959,0.0059
3241,0.0063,0.0685,0.0959,0.0059
3242,0.0067,0.0927,0.0994,0.0050
3243,0.0063,0.0685,0.0959,0.0059
3244,0.0064,0.0736,0.1028,0.0060
3245,0.0077,0.0905,0.1246,0.0082
3246,0.0062,0.0650,0.0907,0.0059
3247,0.0063,0.0685,0.0959,0.0059
3248,0.0063,0.0685,0.0959,0.0059
3249,0.0062,0.0650,0.0907,0.0059
3250,0.0064,0.0736,0.1028,0.0060
3251,0.0063,0.0685,0.0959,0.0059
3252,0.0062,0.0650,0.0907,0.0059
3253,0.0063,0.0685,0.0959,0.0059
3254,0.0064,0.0922,0.1035,0.0056
3255,0.0064,0.0736,0.1028,0.0060
3256,0.0075,0.1222,0.1402,0.0088
3257,0.0063,0.0685,0.0959,0.0059
3258,0.0063,0.0685,0.0959,0.0059
3259,0.0062,0.0650,0.0907,0.0059
3260,0.0063,0.0685,0.0959,0.0059
3261,0.0064,0.0736,0.1028,0.0060
3262,0.0062,0.0650,0.0907,0.0059
3263,0.0063,0.0685,0.0959,0.0059
3264,0.0063,0.0685,0.0959,0.0059
3265,0.0062,0.0650,0.0907,0.0059
3266,0.0067,0.0942,0.1102,0.0064
3267,0.0087,0.1200,0.1358,0.0070
3268,0.0077,0.0905,0.1246,0.0082
3269,0.0063,0.0685,0.0959,0.0059
3270,0.0062,0.0650,0.0907,0.0059
3271,0.0063,0.0685,0.0959,0.0059
3272,0.0063,0.0685,0.0959,0.0059
3273,0.0064,0.0736,0.1028,0.0060
3274,0.0080,0.0450,0.0832,0.0061
3275,0.0074,0.0467,0.0846,0.0061
3276,0.0068,0.0440,0.0812,0.0062
3277,0.0068,0.0503,0.0870,0.0061
3278,0.0065,0.0963,0.1111,0.0057
3279,0.0077,0.0905,0.1246,0.0082
3280,0.0067,0.0803,0.0925,0.0072
3281,0.0063,0.0547,0.0898,0.0060
3282,0.0062,0.0564,0.0908,0.0061
3283,0.0059,0.0558,0.0874,0.0060
3284,0.0063,0.0679,0.1002,0.0060
3285,0.0063,0.0647,0.0945,0.0060
3286,0.0067,0.0689,0.0920,0.0058
3287,0.0075,0.0793,0.1000,0.0054
3288,0.0080,0.0874,0.1029,0.0051
3289,0.0076,0.0965,0.1113,0.0051
3290,0.0077,0.0905,0.1246,0.0082
3291,0.0068,0.0944,0.1047,0.0051
3292,0.0091,0.0853,0.0992,0.0085
3293,0.0061,0.0897,0.0977,0.0054
3294,0.0064,0.0886,0.1018,0.0063
3295,0.0076,0.0936,0.1097,0.0073
3296,0.0085,0.0773,0.0899,0.0085
3297,0.0118,0.0885,0.0990,0.0100
3298,0.0069,0.1056,0.0966,0.0623
3299,0.0060,0.0920,0.0874,0.0528
3300,0.0072,0.1050,0.1066,0.0503
3301,0.0077,0.0905,0.1246,0.0082
3302,0.0197,0.0553,0.0658,0.0549
3303,0.0161,0.0592,0.0708,0.0531
3304,0.0136,0.0640,0.0751,0.0521
3305,0.0119,0.0692,0.0791,0.0516
3306,0.0106,0.0743,0.0826,0.0515
3307,0.0048,0.0406,0.0574,0.0035
3308,0.0048,0.0406,0.0574,0.0035
3309,0.0047,0.0339,0.0477,0.0035
3310,0.0055,0.0422,0.0579,0.0035
3311,0.0055,0.0500,0.0692,0.0036
3312,0.0079,0.0949,0.1306,0.0082
3313,0.0063,0.0411,0.0497,0.0032
3314,0.0066,0.0512,0.0608,0.0032
3315,0.0059,0.0545,0.0619,0.0033
3316,0.0054,0.0504,0.0514,0.0032
3317,0.0055,0.0597,0.0740,0.0038
3318,0.0058,0.0509,0.0623,0.0037
3319,0.0068,0.0429,0.0505,0.0041
3320,0.0098,0.0620,0.0681,0.0050
3321,0.0128,0.0760,0.0737,0.0061
3322,0.0063,0.0529,0.0704,0.0035
3323,0.0096,0.0594,0.1072,0.0078
3324,0.0071,0.0745,0.0656,0.0339
3325,0.0060,0.0744,0.0669,0.0302
3326,0.0070,0.0637,0.0537,0.0227
3327,0.0081,0.0733,0.0676,0.0242
3328,0.0085,0.0809,0.0801,0.0254
3329,0.0081,0.0549,0.0506,0.0151
3330,0.0075,0.0591,0.0624,0.0155
3331,0.0067,0.0521,0.0603,0.0123
3332,0.0061,0.0364,0.0468,0.0074
3333,0.0054,0.0514,0.0696,0.0066
3334,0.0090,0.0617,0.1090,0.0079
3335,0.0066,0.0512,0.0608,0.0032
3336,0.0045,0.0360,0.0487,0.0038
3337,0.0052,0.0424,0.0573,0.0063
3338,0.0062,0.0436,0.0569,0.0089
3339,0.0076,0.0505,0.0663,0.0137
3340,0.0079,0.0471,0.0557,0.0140
3341,0.0086,0.0497,0.0553,0.0167
3342,0.0087,0.0487,0.0450,0.0168
3343,0.0099,0.0542,0.0565,0.0231
3344,0.0111,0.0654,0.0741,0.0298
3345,0.0085,0.0642,0.1109,0.0080
3346,0.0095,0.0565,0.0557,0.0278
3347,0.0059,0.0545,0.0619,0.0033
3348,0.0048,0.0406,0.0574,0.0035
3349,0.0047,0.0339,0.0477,0.0035
3350,0.0050,0.0489,0.0685,0.0036
3351,0.0048,0.0406,0.0574,0.0035
3352,0.0047,0.0339,0.0477,0.0035
3353,0.0048,0.0406,0.0574,0.0035
3354,0.0048,0.0406,0.0574,0.0035
3355,0.0050,0.0489,0.0685,0.0036
3356,0.0082,0.0665,0.1126,0.0080
3357,0.0048,0.0406,0.0574,0.0035
3358,0.0048,0.0406,0.0574,0.0035
3359,0.0054,0.0504,0.0514,0.0032
3360,0.0048,0.0406,0.0574,0.0035
3361,0.0050,0.0489,0.0685,0.0036
3362,0.0047,0.0339,0.0477,0.0035
3363,0.0048,0.0406,0.0574,0.0035
3364,0.0048,0.0406,0.0574,0.0035
3365,0.0047,0.0339,0.0477,0.0035
3366,0.0050,0.0489,0.0685,0.0036
3367,0.0076,0.1248,0.1416,0.0079
3368,0.0048,0.0406,0.0574,0.0035
3369,0.0047,0.0339,0.0477,0.0035
3370,0.0048,0.0406,0.0574,0.0035
3371,0.0053,0.0522,0.0616,0.0035
3372,0.0050,0.0489,0.0685,0.0036
3373,0.0048,0.0406,0.0574,0.0035
3374,0.0048,0.0406,0.0574,0.0035
3375,0.0047,0.0339,0.0477,0.0035
3376,0.0048,0.0406,0.0574,0.0035
3377,0.0050,0.0489,0.0685,0.0036
3378,0.0081,0.1224,0.1362,0.0072
3379,0.0074,0.1144,0.1313,0.0098
3380,0.0047,0.0339,0.0477,0.0035
3381,0.0048,0.0406,0.0574,0.0035
3382,0.0048,0.0406,0.0574,0.0035
3383,0.0047,0.0339,0.0477,0.0035
3384,0.0062,0.0606,0.0757,0.0040
3385,0.0048,0.0406,0.0574,0.0035
3386,0.0047,0.0339,0.0477,0.0035
3387,0.0048,0.0406,0.0574,0.0035
3388,0.0048,0.0406,0.0574,0.0035
3389,0.0050,0.0489,0.0685,0.0036
3390,0.0077,0.0729,0.1163,0.0080
3391,0.0076,0.0311,0.0513,0.0042
3392,0.0069,0.0313,0.0519,0.0041
3393,0.0062,0.0252,0.0442,0.0041
3394,0.0059,0.0333,0.0532,0.0040
3395,0.0055,0.0597,0.0740,0.0038
3396,0.0068,0.0429,0.0505,0.0041
3397,0.0052,0.0348,0.0541,0.0039
3398,0.0050,0.0358,0.0548,0.0038
3399,0.0046,0.0293,0.0464,0.0037
3400,0.0049,0.0467,0.0670,0.0037
3401,0.0077,0.0754,0.1178,0.0081
3402,0.0049,0.0392,0.0567,0.0036
3403,0.0054,0.0360,0.0481,0.0034
3404,0.0063,0.0459,0.0592,0.0033
3405,0.0066,0.0512,0.0608,0.0032
3406,0.0060,0.0605,0.0733,0.0036
3407,0.0055,0.0542,0.0616,0.0034
3408,0.0098,0.0620,0.0681,0.0050
3409,0.0050,0.0470,0.0505,0.0032
3410,0.0058,0.0509,0.0623,0.0037
3411,0.0078,0.0654,0.0785,0.0044
3412,0.0076,0.0789,0.1195,0.0081
3413,0.0092,0.0497,0.0530,0.0050
3414,0.0128,0.0760,0.0737,0.0061
3415,0.0071,0.0745,0.0656,0.0339
3416,0.0059,0.0631,0.0530,0.0261
3417,0.0070,0.0859,0.0815,0.0315
3418,0.0202,0.0439,0.0544,0.0320
3419,0.0163,0.0504,0.0581,0.0303
3420,0.0136,0.0563,0.0611,0.0296
3421,0.0119,0.0632,0.0640,0.0295
3422,0.0106,0.0695,0.0668,0.0296
3423,0.0078,0.0878,0.1273,0.0081
3424,0.0041,0.0292,0.0411,0.0027
3425,0.0041,0.0292,0.0411,0.0027
3426,0.0040,0.0185,0.0254,0.0026
3427,0.0047,0.0284,0.0413,0.0027
3428,0.0048,0.0392,0.0562,0.0029
3429,0.0056,0.0180,0.0256,0.0026
3430,0.0056,0.0284,0.0417,0.0031
3431,0.0050,0.0289,0.0421,0.0034
3432,0.0045,0.0208,0.0265,0.0032
3433,0.0051,0.0427,0.0624,0.0036
3434,0.0077,0.0864,0.1230,0.0081
3435,0.0059,0.0376,0.0519,0.0030
3436,0.0074,0.0376,0.0431,0.0027
3437,0.0106,0.0663,0.0677,0.0031
3438,0.0139,0.0865,0.0779,0.0037
3439,0.0056,0.0384,0.0565,0.0031
3440,0.0072,0.0712,0.0617,0.0209
3441,0.0059,0.0746,0.0642,0.0213
3442,0.0069,0.0670,0.0516,0.0150
3443,0.0080,0.0778,0.0663,0.0207
3444,0.0084,0.0852,0.0787,0.0238
3445,0.0080,0.0951,0.1264,0.0081
3446,0.0080,0.0608,0.0476,0.0136
3447,0.0072,0.0624,0.0579,0.0149
3448,0.0065,0.0532,0.0532,0.0118
3449,0.0057,0.0335,0.0330,0.0065
3450,0.0047,0.0461,0.0591,0.0059
3451,0.0056,0.0284,0.0417,0.0031
3452,0.0039,0.0172,0.0239,0.0039
3453,0.0048,0.0270,0.0380,0.0070
3454,0.0059,0.0286,0.0377,0.0096
3455,0.0073,0.0392,0.0523,0.0139
3456,0.0085,0.1034,0.1296,0.0077
3457,0.0077,0.0342,0.0393,0.0133
3458,0.0084,0.0374,0.0415,0.0142
3459,0.0087,0.0348,0.0300,0.0099
3460,0.0099,0.0459,0.0514,0.0149
3461,0.0106,0.0643,0.0758,0.0207
3462,0.0089,0.0617,0.0643,0.0106
3463,0.0050,0.0289,0.0421,0.0034
3464,0.0041,0.0292,0.0411,0.0027
3465,0.0040,0.0185,0.0254,0.0026
3466,0.0043,0.0401,0.0557,0.0028
3467,0.0090,0.1130,0.1334,0.0072
3468,0.0041,0.0292,0.0411,0.0027
3469,0.0040,0.0185,0.0254,0.0026
3470,0.0041,0.0292,0.0411,0.0027
3471,0.0041,0.0292,0.0411,0.0027
3472,0.0043,0.0401,0.0557,0.0028
3473,0.0041,0.0292,0.0411,0.0027
3474,0.0041,0.0292,0.0411,0.0027
3475,0.0045,0.0208,0.0265,0.0032
3476,0.0041,0.0292,0.0411,0.0027
3477,0.0043,0.0401,0.0557,0.0028
3478,0.0088,0.1229,0.1416,0.0072
3479,0.0040,0.0185,0.0254,0.0026
3480,0.0041,0.0292,0.0411,0.0027
3481,0.0041,0.0292,0.0411,0.0027
3482,0.0040,0.0185,0.0254,0.0026
3483,0.0043,0.0401,0.0557,0.0028
3484,0.0041,0.0292,0.0411,0.0027
3485,0.0040,0.0185,0.0254,0.0026
3486,0.0041,0.0292,0.0411,0.0027
3487,0.0049,0.0308,0.0466,0.0033
3488,0.0043,0.0401,0.0557,0.0028
3489,0.0076,0.1248,0.1416,0.0079
3490,0.0081,0.1224,0.1362,0.0072
3491,0.0041,0.0292,0.0411,0.0027
3492,0.0041,0.0292,0.0411,0.0027
3493,0.0040,0.0185,0.0254,0.0026
3494,0.0041,0.0292,0.0411,0.0027
3495,0.0043,0.0401,0.0557,0.0028
3496,0.0040,0.0185,0.0254,0.0026
3497,0.0041,0.0292,0.0411,0.0027
3498,0.0041,0.0292,0.0411,0.0027
3499,0.0040,0.0185,0.0254,0.0026
3500,0.0063,0.0503,0.0676,0.0033
3501,0.0088,0.1114,0.1291,0.0112
3502,0.0041,0.0292,0.0411,0.0027
3503,0.0040,0.0185,0.0254,0.0026
3504,0.0041,0.0292,0.0411,0.0027
3505,0.0041,0.0292,0.0411,0.0027
3506,0.0043,0.0401,0.0557,0.0028
3507,0.0075,0.0265,0.0355,0.0032
3508,0.0068,0.0267,0.0359,0.0031
3509,0.0060,0.0184,0.0225,0.0032
3510,0.0056,0.0278,0.0367,0.0029
3511,0.0051,0.0427,0.0624,0.0036
3512,0.0074,0.1215,0.1354,0.0078
3513,0.0074,0.0376,0.0431,0.0027
3514,0.0047,0.0285,0.0376,0.0028
3515,0.0044,0.0289,0.0383,0.0028
3516,0.0041,0.0186,0.0239,0.0027
3517,0.0043,0.0399,0.0541,0.0028
3518,0.0041,0.0294,0.0403,0.0027
3519,0.0046,0.0174,0.0254,0.0026
3520,0.0056,0.0277,0.0414,0.0028
3521,0.0056,0.0284,0.0417,0.0031
3522,0.0051,0.0395,0.0578,0.0036
3523,0.0071,0.1177,0.1333,0.0087
3524,0.0047,0.0293,0.0434,0.0035
3525,0.0106,0.0663,0.0677,0.0031
3526,0.0046,0.0197,0.0299,0.0030
3527,0.0059,0.0376,0.0519,0.0030
3528,0.0083,0.0627,0.0745,0.0032
3529,0.0100,0.0546,0.0522,0.0031
3530,0.0139,0.0865,0.0779,0.0037
3531,0.0072,0.0712,0.0617,0.0209
3532,0.0059,0.0637,0.0499,0.0143
3533,0.0069,0.0877,0.0798,0.0270
3534,0.0079,0.1202,0.1390,0.0099
3535,0.0208,0.0402,0.0537,0.0176
3536,0.0165,0.0478,0.0562,0.0175
3537,0.0137,0.0556,0.0589,0.0180
3538,0.0119,0.0643,0.0621,0.0190
3539,0.0106,0.0724,0.0653,0.0201
3540,0.0039,0.0304,0.0420,0.0026
3541,0.0039,0.0304,0.0420,0.0026
3542,0.0037,0.0203,0.0268,0.0025
3543,0.0044,0.0286,0.0423,0.0027
3544,0.0045,0.0395,0.0570,0.0029
3545,0.0088,0.1114,0.1291,0.0112
3546,0.0053,0.0148,0.0266,0.0027
3547,0.0053,0.0244,0.0421,0.0033
3548,0.0048,0.0236,0.0425,0.0036
3549,0.0043,0.0137,0.0282,0.0035
3550,0.0051,0.0423,0.0646,0.0038
3551,0.0061,0.0405,0.0561,0.0031
3552,0.0078,0.0445,0.0505,0.0026
3553,0.0110,0.0738,0.0746,0.0027
3554,0.0143,0.0945,0.0857,0.0030
3555,0.0053,0.0372,0.0571,0.0032
3556,0.0111,0.1101,0.1271,0.0129
3557,0.0073,0.0766,0.0669,0.0218
3558,0.0059,0.0803,0.0696,0.0232
3559,0.0069,0.0745,0.0588,0.0181
3560,0.0079,0.0841,0.0720,0.0232
3561,0.0084,0.0908,0.0834,0.0258
3562,0.0080,0.0676,0.0544,0.0162
3563,0.0072,0.0678,0.0626,0.0168
3564,0.0064,0.0580,0.0573,0.0132
3565,0.0055,0.0384,0.0374,0.0078
3566,0.0045,0.0483,0.0607,0.0063
3567,0.0073,0.1345,0.1251,0.0786
3568,0.0053,0.0244,0.0421,0.0033
3569,0.0038,0.0166,0.0237,0.0041
3570,0.0048,0.0256,0.0374,0.0075
3571,0.0060,0.0269,0.0370,0.0106
3572,0.0074,0.0383,0.0523,0.0150
3573,0.0078,0.0329,0.0397,0.0148
3574,0.0085,0.0365,0.0430,0.0157
3575,0.0090,0.0342,0.0337,0.0116
3576,0.0101,0.0471,0.0556,0.0155
3577,0.0108,0.0675,0.0807,0.0208
3578,0.0066,0.1273,0.1245,0.0694
3579,0.0091,0.0681,0.0725,0.0087
3580,0.0048,0.0236,0.0425,0.0036
3581,0.0039,0.0304,0.0420,0.0026
3582,0.0037,0.0203,0.0268,0.0025
3583,0.0040,0.0410,0.0565,0.0028
3584,0.0039,0.0304,0.0420,0.0026
3585,0.0037,0.0203,0.0268,0.0025
3586,0.0039,0.0304,0.0420,0.0026
3587,0.0039,0.0304,0.0420,0.0026
3588,0.0040,0.0410,0.0565,0.0028
3589,0.0079,0.1297,0.1332,0.0627
3590,0.0039,0.0304,0.0420,0.0026
3591,0.0039,0.0304,0.0420,0.0026
3592,0.0043,0.0137,0.0282,0.0035
3593,0.0039,0.0304,0.0420,0.0026
3594,0.0040,0.0410,0.0565,0.0028
3595,0.0037,0.0203,0.0268,0.0025
3596,0.0039,0.0304,0.0420,0.0026
3597,0.0039,0.0304,0.0420,0.0026
3598,0.0037,0.0203,0.0268,0.0025
3599,0.0040,0.0410,0.0565,0.0028
Total Error Summary
Vdc  RMSE=  0.0072
Idc  RMSE=  0.0639
Id   RMSE=  0.0774
Iq   RMSE=  0.0165
