Read Model from: ./ucf8/
Export Model to: ./ucf8/ucf8_fhf.json
idx_in [0, 1, 2, 3, 4, 5, 6]
idx_out [7, 8, 9, 10]
make_mimo_block stable2nd
H1s[0][0]  Real Poles: [-96.2346822 -96.2346822] Freqs [Hz]: [6.185647091435921]
H1s[0][1]  Real Poles: [-100.1054423 -100.1054423] Freqs [Hz]: [0.09754708800962625]
H1s[0][2]  Real Poles: [-84.42118317 -84.42118317] Freqs [Hz]: [4.44162168713556]
H1s[0][3]  Real Poles: [-91.78038761 -91.78038761] Freqs [Hz]: [8.237282344337636]
H1s[1][0]  Real Poles: [-97.5795038 -97.5795038] Freqs [Hz]: [9.334232036313061]
H1s[1][1]  Real Poles: [-106.13375753 -106.13375753] Freqs [Hz]: [12.393868532841202]
H1s[1][2]  Real Poles: [-70.70278525 -70.70278525] Freqs [Hz]: [8.822440946534277]
H1s[1][3]  Real Poles: [-77.29719579 -77.29719579] Freqs [Hz]: [3.627929724264468]
H1s[2][0]  Real Poles: [-143.3798492 -143.3798492] Freqs [Hz]: [8.360609174488957]
H1s[2][1]  Real Poles: [-86.96162552 -86.96162552] Freqs [Hz]: [2.6311374895969797]
H1s[2][2]  Real Poles: [-80.95968664 -80.95968664] Freqs [Hz]: [3.9803176839942638]
H1s[2][3]  Real Poles: [-87.31926531 -87.31926531] Freqs [Hz]: [8.673258177796368]
H1s[3][0]  Real Poles: [-62.63557076 -62.63557076] Freqs [Hz]: [9.150159312201248]
H1s[3][1]  Real Poles: [-100.01716757 -100.01716757] Freqs [Hz]: [0.9213995651128106]
H1s[3][2]  Real Poles: [-78.87933403 -78.87933403] Freqs [Hz]: [7.700300542337807]
H1s[3][3]  Real Poles: [-84.38681066 -84.38681066] Freqs [Hz]: [3.2727922311572026]
model_folder = ./ucf8/
model_root = ucf8
data_path = d:/data/ucf3/ucf7.hdf5
idx_in [0, 1, 2, 3, 4, 5, 6]
idx_out [7, 8, 9, 10]
read 3600 dataframes
dt=0.010000 data_len=401 n_io=11 n_case=3600
['G', 'Ud', 'Uq', 'Vd', 'Vq', 'GVrms', 'Ctrl'] ['Vdc', 'Idc', 'Id', 'Iq'] (3600, 401, 11)
make_mimo_block stable2nd
Idx,Vdc,Idc,Id,Iq
#,RMSE,RMSE,RMSE,RMSE
Total,0.0036,0.0098,0.0095,0.0042
0,0.0028,0.0069,0.0058,0.0009
1,0.0028,0.0069,0.0058,0.0009
2,0.0039,0.0122,0.0096,0.0018
3,0.0028,0.0067,0.0057,0.0008
4,0.0027,0.0071,0.0057,0.0009
5,0.0027,0.0071,0.0057,0.0009
6,0.0027,0.0071,0.0057,0.0009
7,0.0027,0.0077,0.0085,0.0010
8,0.0027,0.0077,0.0085,0.0010
9,0.0032,0.0076,0.0078,0.0011
10,0.0033,0.0096,0.0097,0.0015
11,0.0033,0.0091,0.0077,0.0019
12,0.0035,0.0112,0.0087,0.0021
13,0.0037,0.0116,0.0088,0.0020
14,0.0028,0.0067,0.0057,0.0008
15,0.0039,0.0126,0.0107,0.0019
16,0.0043,0.0147,0.0103,0.0017
17,0.0047,0.0150,0.0095,0.0018
18,0.0047,0.0162,0.0097,0.0036
19,0.0032,0.0076,0.0078,0.0011
20,0.0037,0.0263,0.0209,0.0130
21,0.0034,0.0270,0.0249,0.0103
22,0.0031,0.0207,0.0206,0.0064
23,0.0030,0.0142,0.0131,0.0051
24,0.0030,0.0103,0.0081,0.0037
25,0.0028,0.0067,0.0057,0.0008
26,0.0030,0.0095,0.0082,0.0030
27,0.0030,0.0088,0.0079,0.0044
28,0.0031,0.0077,0.0075,0.0045
29,0.0029,0.0074,0.0088,0.0031
30,0.0027,0.0082,0.0080,0.0014
31,0.0033,0.0096,0.0097,0.0015
32,0.0041,0.0098,0.0141,0.0021
33,0.0030,0.0116,0.0087,0.0029
34,0.0031,0.0110,0.0097,0.0021
35,0.0037,0.0098,0.0088,0.0025
36,0.0027,0.0071,0.0078,0.0009
37,0.0037,0.0108,0.0083,0.0039
38,0.0032,0.0128,0.0098,0.0055
39,0.0030,0.0152,0.0128,0.0059
40,0.0034,0.0203,0.0170,0.0075
41,0.0035,0.0232,0.0182,0.0090
42,0.0039,0.0217,0.0154,0.0097
43,0.0033,0.0091,0.0077,0.0019
44,0.0027,0.0071,0.0057,0.0009
45,0.0027,0.0071,0.0057,0.0009
46,0.0027,0.0071,0.0057,0.0009
47,0.0027,0.0071,0.0078,0.0009
48,0.0027,0.0071,0.0057,0.0009
49,0.0027,0.0071,0.0057,0.0009
50,0.0027,0.0071,0.0057,0.0009
51,0.0027,0.0071,0.0057,0.0009
52,0.0027,0.0071,0.0057,0.0009
53,0.0027,0.0071,0.0057,0.0009
54,0.0027,0.0071,0.0057,0.0009
55,0.0035,0.0112,0.0087,0.0021
56,0.0027,0.0071,0.0057,0.0009
57,0.0027,0.0071,0.0057,0.0009
58,0.0029,0.0064,0.0077,0.0011
59,0.0027,0.0071,0.0057,0.0009
60,0.0027,0.0071,0.0057,0.0009
61,0.0027,0.0071,0.0057,0.0009
62,0.0027,0.0071,0.0057,0.0009
63,0.0027,0.0071,0.0057,0.0009
64,0.0027,0.0071,0.0057,0.0009
65,0.0027,0.0071,0.0057,0.0009
66,0.0027,0.0071,0.0057,0.0009
67,0.0037,0.0116,0.0088,0.0020
68,0.0027,0.0071,0.0057,0.0009
69,0.0031,0.0080,0.0090,0.0015
70,0.0027,0.0071,0.0057,0.0009
71,0.0027,0.0071,0.0057,0.0009
72,0.0027,0.0071,0.0057,0.0009
73,0.0027,0.0071,0.0057,0.0009
74,0.0027,0.0071,0.0057,0.0009
75,0.0027,0.0071,0.0057,0.0009
76,0.0027,0.0071,0.0057,0.0009
77,0.0027,0.0071,0.0057,0.0009
78,0.0027,0.0071,0.0057,0.0009
79,0.0039,0.0126,0.0107,0.0019
80,0.0034,0.0081,0.0073,0.0019
81,0.0027,0.0071,0.0057,0.0009
82,0.0027,0.0071,0.0057,0.0009
83,0.0027,0.0071,0.0057,0.0009
84,0.0027,0.0071,0.0057,0.0009
85,0.0027,0.0071,0.0057,0.0009
86,0.0045,0.0062,0.0113,0.0036
87,0.0039,0.0063,0.0110,0.0023
88,0.0035,0.0067,0.0103,0.0014
89,0.0033,0.0070,0.0087,0.0011
90,0.0037,0.0116,0.0088,0.0020
91,0.0038,0.0098,0.0078,0.0021
92,0.0043,0.0147,0.0103,0.0017
93,0.0029,0.0070,0.0072,0.0013
94,0.0028,0.0082,0.0083,0.0012
95,0.0028,0.0074,0.0067,0.0011
96,0.0027,0.0076,0.0072,0.0010
97,0.0027,0.0076,0.0063,0.0009
98,0.0027,0.0077,0.0085,0.0010
99,0.0032,0.0076,0.0078,0.0011
100,0.0033,0.0096,0.0097,0.0015
101,0.0033,0.0091,0.0077,0.0019
102,0.0040,0.0105,0.0084,0.0018
103,0.0035,0.0112,0.0087,0.0021
104,0.0047,0.0150,0.0095,0.0018
105,0.0037,0.0116,0.0088,0.0020
106,0.0039,0.0126,0.0107,0.0019
107,0.0043,0.0147,0.0103,0.0017
108,0.0047,0.0150,0.0095,0.0018
109,0.0047,0.0162,0.0097,0.0036
110,0.0037,0.0263,0.0209,0.0130
111,0.0034,0.0270,0.0249,0.0103
112,0.0031,0.0207,0.0206,0.0064
113,0.0041,0.0150,0.0101,0.0016
114,0.0039,0.0120,0.0102,0.0016
115,0.0027,0.0067,0.0055,0.0008
116,0.0027,0.0067,0.0055,0.0008
117,0.0027,0.0067,0.0055,0.0008
118,0.0027,0.0072,0.0077,0.0009
119,0.0027,0.0072,0.0077,0.0009
120,0.0032,0.0065,0.0071,0.0011
121,0.0031,0.0081,0.0089,0.0016
122,0.0032,0.0083,0.0071,0.0020
123,0.0035,0.0104,0.0080,0.0023
124,0.0037,0.0109,0.0089,0.0020
125,0.0041,0.0134,0.0102,0.0016
126,0.0039,0.0122,0.0108,0.0017
127,0.0042,0.0132,0.0103,0.0016
128,0.0046,0.0128,0.0088,0.0016
129,0.0046,0.0138,0.0097,0.0028
130,0.0032,0.0065,0.0071,0.0011
131,0.0037,0.0218,0.0184,0.0105
132,0.0033,0.0254,0.0251,0.0100
133,0.0031,0.0196,0.0211,0.0067
134,0.0030,0.0133,0.0132,0.0058
135,0.0030,0.0113,0.0089,0.0072
136,0.0043,0.0130,0.0090,0.0017
137,0.0030,0.0105,0.0096,0.0049
138,0.0030,0.0075,0.0069,0.0023
139,0.0031,0.0073,0.0070,0.0028
140,0.0029,0.0070,0.0080,0.0027
141,0.0026,0.0079,0.0084,0.0014
142,0.0031,0.0081,0.0089,0.0016
143,0.0035,0.0094,0.0127,0.0023
144,0.0031,0.0079,0.0082,0.0029
145,0.0032,0.0094,0.0094,0.0024
146,0.0036,0.0091,0.0085,0.0029
147,0.0045,0.0143,0.0101,0.0030
148,0.0038,0.0116,0.0096,0.0048
149,0.0032,0.0133,0.0106,0.0061
150,0.0029,0.0143,0.0124,0.0061
151,0.0032,0.0191,0.0164,0.0076
152,0.0032,0.0201,0.0163,0.0084
153,0.0035,0.0183,0.0160,0.0082
154,0.0032,0.0083,0.0071,0.0020
155,0.0027,0.0067,0.0055,0.0008
156,0.0027,0.0067,0.0055,0.0008
157,0.0027,0.0067,0.0055,0.0008
158,0.0029,0.0064,0.0077,0.0011
159,0.0027,0.0067,0.0055,0.0008
160,0.0027,0.0067,0.0055,0.0008
161,0.0027,0.0067,0.0055,0.0008
162,0.0027,0.0067,0.0055,0.0008
163,0.0027,0.0067,0.0055,0.0008
164,0.0027,0.0067,0.0055,0.0008
165,0.0027,0.0067,0.0055,0.0008
166,0.0035,0.0104,0.0080,0.0023
167,0.0027,0.0067,0.0055,0.0008
168,0.0027,0.0067,0.0055,0.0008
169,0.0039,0.0195,0.0152,0.0083
170,0.0027,0.0067,0.0055,0.0008
171,0.0027,0.0067,0.0055,0.0008
172,0.0027,0.0067,0.0055,0.0008
173,0.0027,0.0067,0.0055,0.0008
174,0.0027,0.0067,0.0055,0.0008
175,0.0027,0.0067,0.0055,0.0008
176,0.0027,0.0067,0.0055,0.0008
177,0.0027,0.0067,0.0055,0.0008
178,0.0037,0.0109,0.0089,0.0020
179,0.0027,0.0067,0.0055,0.0008
180,0.0035,0.0233,0.0220,0.0075
181,0.0027,0.0067,0.0055,0.0008
182,0.0027,0.0067,0.0055,0.0008
183,0.0027,0.0067,0.0055,0.0008
184,0.0027,0.0067,0.0055,0.0008
185,0.0027,0.0067,0.0055,0.0008
186,0.0027,0.0067,0.0055,0.0008
187,0.0027,0.0067,0.0055,0.0008
188,0.0027,0.0067,0.0055,0.0008
189,0.0027,0.0067,0.0055,0.0008
190,0.0039,0.0122,0.0108,0.0017
191,0.0033,0.0182,0.0187,0.0056
192,0.0027,0.0067,0.0055,0.0008
193,0.0027,0.0067,0.0055,0.0008
194,0.0027,0.0067,0.0055,0.0008
195,0.0027,0.0067,0.0055,0.0008
196,0.0027,0.0067,0.0055,0.0008
197,0.0045,0.0066,0.0114,0.0032
198,0.0039,0.0069,0.0111,0.0019
199,0.0035,0.0062,0.0094,0.0013
200,0.0032,0.0065,0.0085,0.0012
201,0.0037,0.0109,0.0089,0.0020
202,0.0032,0.0124,0.0116,0.0061
203,0.0042,0.0132,0.0103,0.0016
204,0.0029,0.0065,0.0074,0.0012
205,0.0028,0.0074,0.0083,0.0011
206,0.0027,0.0062,0.0061,0.0010
207,0.0027,0.0070,0.0068,0.0008
208,0.0026,0.0064,0.0054,0.0008
209,0.0027,0.0072,0.0077,0.0009
210,0.0032,0.0065,0.0071,0.0011
211,0.0031,0.0081,0.0089,0.0016
212,0.0032,0.0083,0.0071,0.0020
213,0.0033,0.0092,0.0074,0.0068
214,0.0035,0.0104,0.0080,0.0023
215,0.0046,0.0128,0.0088,0.0016
216,0.0037,0.0109,0.0089,0.0020
217,0.0039,0.0122,0.0108,0.0017
218,0.0042,0.0132,0.0103,0.0016
219,0.0046,0.0128,0.0088,0.0016
220,0.0046,0.0138,0.0097,0.0028
221,0.0037,0.0218,0.0184,0.0105
222,0.0033,0.0254,0.0251,0.0100
223,0.0031,0.0196,0.0211,0.0067
224,0.0043,0.0153,0.0099,0.0020
225,0.0033,0.0089,0.0084,0.0043
226,0.0026,0.0058,0.0059,0.0009
227,0.0026,0.0058,0.0059,0.0009
228,0.0026,0.0058,0.0059,0.0009
229,0.0026,0.0070,0.0071,0.0009
230,0.0026,0.0070,0.0071,0.0009
231,0.0031,0.0061,0.0061,0.0010
232,0.0029,0.0066,0.0080,0.0013
233,0.0032,0.0098,0.0118,0.0017
234,0.0035,0.0087,0.0079,0.0020
235,0.0037,0.0076,0.0065,0.0020
236,0.0032,0.0085,0.0078,0.0022
237,0.0038,0.0078,0.0072,0.0018
238,0.0041,0.0087,0.0076,0.0015
239,0.0044,0.0111,0.0101,0.0016
240,0.0044,0.0128,0.0112,0.0024
241,0.0031,0.0061,0.0061,0.0010
242,0.0037,0.0164,0.0155,0.0077
243,0.0033,0.0213,0.0233,0.0089
244,0.0031,0.0187,0.0219,0.0068
245,0.0030,0.0110,0.0125,0.0039
246,0.0029,0.0086,0.0078,0.0052
247,0.0033,0.0087,0.0092,0.0026
248,0.0029,0.0101,0.0098,0.0056
249,0.0030,0.0070,0.0073,0.0030
250,0.0031,0.0076,0.0079,0.0029
251,0.0029,0.0062,0.0081,0.0028
252,0.0026,0.0075,0.0086,0.0014
253,0.0029,0.0066,0.0080,0.0013
254,0.0033,0.0088,0.0121,0.0020
255,0.0030,0.0063,0.0082,0.0028
256,0.0030,0.0076,0.0086,0.0021
257,0.0035,0.0083,0.0081,0.0026
258,0.0031,0.0072,0.0089,0.0024
259,0.0034,0.0092,0.0082,0.0034
260,0.0030,0.0099,0.0089,0.0046
261,0.0029,0.0115,0.0108,0.0053
262,0.0031,0.0159,0.0147,0.0069
263,0.0030,0.0146,0.0131,0.0067
264,0.0033,0.0174,0.0196,0.0106
265,0.0032,0.0098,0.0118,0.0017
266,0.0026,0.0058,0.0059,0.0009
267,0.0026,0.0058,0.0059,0.0009
268,0.0026,0.0058,0.0059,0.0009
269,0.0026,0.0078,0.0082,0.0013
270,0.0026,0.0058,0.0059,0.0009
271,0.0026,0.0058,0.0059,0.0009
272,0.0026,0.0058,0.0059,0.0009
273,0.0026,0.0058,0.0059,0.0009
274,0.0026,0.0058,0.0059,0.0009
275,0.0026,0.0058,0.0059,0.0009
276,0.0026,0.0058,0.0059,0.0009
277,0.0035,0.0087,0.0079,0.0020
278,0.0026,0.0058,0.0059,0.0009
279,0.0026,0.0058,0.0059,0.0009
280,0.0031,0.0080,0.0090,0.0015
281,0.0026,0.0058,0.0059,0.0009
282,0.0026,0.0058,0.0059,0.0009
283,0.0026,0.0058,0.0059,0.0009
284,0.0026,0.0058,0.0059,0.0009
285,0.0026,0.0058,0.0059,0.0009
286,0.0026,0.0058,0.0059,0.0009
287,0.0026,0.0058,0.0059,0.0009
288,0.0026,0.0058,0.0059,0.0009
289,0.0037,0.0076,0.0065,0.0020
290,0.0026,0.0058,0.0059,0.0009
291,0.0036,0.0093,0.0120,0.0022
292,0.0026,0.0058,0.0059,0.0009
293,0.0026,0.0058,0.0059,0.0009
294,0.0026,0.0058,0.0059,0.0009
295,0.0026,0.0058,0.0059,0.0009
296,0.0026,0.0058,0.0059,0.0009
297,0.0026,0.0058,0.0059,0.0009
298,0.0026,0.0058,0.0059,0.0009
299,0.0026,0.0058,0.0059,0.0009
300,0.0026,0.0058,0.0059,0.0009
301,0.0038,0.0078,0.0072,0.0018
302,0.0031,0.0080,0.0086,0.0029
303,0.0026,0.0058,0.0059,0.0009
304,0.0026,0.0058,0.0059,0.0009
305,0.0026,0.0058,0.0059,0.0009
306,0.0026,0.0058,0.0059,0.0009
307,0.0026,0.0058,0.0059,0.0009
308,0.0045,0.0082,0.0094,0.0024
309,0.0038,0.0078,0.0095,0.0015
310,0.0034,0.0074,0.0088,0.0013
311,0.0032,0.0086,0.0093,0.0013
312,0.0037,0.0076,0.0065,0.0020
313,0.0032,0.0086,0.0085,0.0027
314,0.0041,0.0087,0.0076,0.0015
315,0.0030,0.0062,0.0074,0.0012
316,0.0028,0.0063,0.0076,0.0011
317,0.0027,0.0059,0.0062,0.0010
318,0.0027,0.0073,0.0074,0.0008
319,0.0026,0.0065,0.0065,0.0008
320,0.0026,0.0070,0.0071,0.0009
321,0.0031,0.0061,0.0061,0.0010
322,0.0029,0.0066,0.0080,0.0013
323,0.0032,0.0098,0.0118,0.0017
324,0.0037,0.0084,0.0078,0.0034
325,0.0035,0.0087,0.0079,0.0020
326,0.0044,0.0111,0.0101,0.0016
327,0.0037,0.0076,0.0065,0.0020
328,0.0038,0.0078,0.0072,0.0018
329,0.0041,0.0087,0.0076,0.0015
330,0.0044,0.0111,0.0101,0.0016
331,0.0044,0.0128,0.0112,0.0024
332,0.0037,0.0164,0.0155,0.0077
333,0.0033,0.0213,0.0233,0.0089
334,0.0031,0.0187,0.0219,0.0068
335,0.0045,0.0168,0.0102,0.0038
336,0.0038,0.0122,0.0106,0.0057
337,0.0026,0.0047,0.0051,0.0008
338,0.0026,0.0047,0.0051,0.0008
339,0.0026,0.0047,0.0051,0.0008
340,0.0026,0.0065,0.0068,0.0008
341,0.0026,0.0065,0.0068,0.0008
342,0.0031,0.0051,0.0056,0.0008
343,0.0029,0.0061,0.0072,0.0010
344,0.0032,0.0092,0.0109,0.0014
345,0.0035,0.0082,0.0082,0.0016
346,0.0036,0.0054,0.0053,0.0016
347,0.0032,0.0139,0.0112,0.0070
348,0.0038,0.0070,0.0071,0.0016
349,0.0041,0.0089,0.0088,0.0016
350,0.0043,0.0107,0.0108,0.0017
351,0.0043,0.0092,0.0084,0.0025
352,0.0031,0.0051,0.0056,0.0008
353,0.0036,0.0127,0.0119,0.0056
354,0.0033,0.0196,0.0214,0.0081
355,0.0031,0.0176,0.0201,0.0070
356,0.0029,0.0089,0.0104,0.0024
357,0.0029,0.0072,0.0071,0.0026
358,0.0029,0.0134,0.0114,0.0063
359,0.0029,0.0072,0.0081,0.0026
360,0.0029,0.0075,0.0075,0.0026
361,0.0030,0.0059,0.0062,0.0028
362,0.0029,0.0051,0.0068,0.0027
363,0.0026,0.0066,0.0077,0.0013
364,0.0029,0.0061,0.0072,0.0010
365,0.0035,0.0083,0.0116,0.0017
366,0.0029,0.0064,0.0095,0.0028
367,0.0028,0.0064,0.0076,0.0024
368,0.0032,0.0074,0.0073,0.0027
369,0.0031,0.0176,0.0150,0.0070
370,0.0032,0.0080,0.0080,0.0032
371,0.0029,0.0085,0.0083,0.0045
372,0.0029,0.0083,0.0075,0.0044
373,0.0031,0.0113,0.0109,0.0050
374,0.0029,0.0114,0.0112,0.0053
375,0.0034,0.0194,0.0204,0.0097
376,0.0032,0.0092,0.0109,0.0014
377,0.0026,0.0047,0.0051,0.0008
378,0.0026,0.0047,0.0051,0.0008
379,0.0026,0.0047,0.0051,0.0008
380,0.0031,0.0195,0.0159,0.0079
381,0.0026,0.0047,0.0051,0.0008
382,0.0026,0.0047,0.0051,0.0008
383,0.0026,0.0047,0.0051,0.0008
384,0.0026,0.0047,0.0051,0.0008
385,0.0026,0.0047,0.0051,0.0008
386,0.0026,0.0047,0.0051,0.0008
387,0.0026,0.0047,0.0051,0.0008
388,0.0035,0.0082,0.0082,0.0016
389,0.0026,0.0047,0.0051,0.0008
390,0.0026,0.0047,0.0051,0.0008
391,0.0035,0.0182,0.0160,0.0084
392,0.0026,0.0047,0.0051,0.0008
393,0.0026,0.0047,0.0051,0.0008
394,0.0026,0.0047,0.0051,0.0008
395,0.0026,0.0047,0.0051,0.0008
396,0.0026,0.0047,0.0051,0.0008
397,0.0026,0.0047,0.0051,0.0008
398,0.0026,0.0047,0.0051,0.0008
399,0.0026,0.0047,0.0051,0.0008
400,0.0036,0.0054,0.0053,0.0016
401,0.0026,0.0047,0.0051,0.0008
402,0.0034,0.0081,0.0073,0.0019
403,0.0026,0.0047,0.0051,0.0008
404,0.0026,0.0047,0.0051,0.0008
405,0.0026,0.0047,0.0051,0.0008
406,0.0026,0.0047,0.0051,0.0008
407,0.0026,0.0047,0.0051,0.0008
408,0.0026,0.0047,0.0051,0.0008
409,0.0026,0.0047,0.0051,0.0008
410,0.0026,0.0047,0.0051,0.0008
411,0.0026,0.0047,0.0051,0.0008
412,0.0038,0.0070,0.0071,0.0016
413,0.0028,0.0067,0.0057,0.0008
414,0.0026,0.0047,0.0051,0.0008
415,0.0026,0.0047,0.0051,0.0008
416,0.0026,0.0047,0.0051,0.0008
417,0.0026,0.0047,0.0051,0.0008
418,0.0026,0.0047,0.0051,0.0008
419,0.0044,0.0080,0.0093,0.0020
420,0.0038,0.0091,0.0081,0.0014
421,0.0034,0.0075,0.0083,0.0013
422,0.0032,0.0079,0.0074,0.0013
423,0.0036,0.0054,0.0053,0.0016
424,0.0028,0.0067,0.0057,0.0008
425,0.0041,0.0089,0.0088,0.0016
426,0.0030,0.0061,0.0069,0.0013
427,0.0029,0.0070,0.0085,0.0012
428,0.0028,0.0050,0.0057,0.0011
429,0.0027,0.0053,0.0059,0.0008
430,0.0026,0.0047,0.0051,0.0008
431,0.0026,0.0065,0.0068,0.0008
432,0.0031,0.0051,0.0056,0.0008
433,0.0029,0.0061,0.0072,0.0010
434,0.0032,0.0092,0.0109,0.0014
435,0.0028,0.0067,0.0057,0.0008
436,0.0035,0.0082,0.0082,0.0016
437,0.0043,0.0107,0.0108,0.0017
438,0.0036,0.0054,0.0053,0.0016
439,0.0038,0.0070,0.0071,0.0016
440,0.0041,0.0089,0.0088,0.0016
441,0.0043,0.0107,0.0108,0.0017
442,0.0043,0.0092,0.0084,0.0025
443,0.0036,0.0127,0.0119,0.0056
444,0.0033,0.0196,0.0214,0.0081
445,0.0031,0.0176,0.0201,0.0070
446,0.0030,0.0076,0.0084,0.0011
447,0.0028,0.0067,0.0057,0.0008
448,0.0026,0.0041,0.0044,0.0008
449,0.0026,0.0041,0.0044,0.0008
450,0.0026,0.0041,0.0044,0.0008
451,0.0027,0.0068,0.0078,0.0008
452,0.0027,0.0068,0.0078,0.0008
453,0.0032,0.0053,0.0057,0.0008
454,0.0029,0.0053,0.0061,0.0010
455,0.0032,0.0074,0.0082,0.0013
456,0.0034,0.0090,0.0088,0.0015
457,0.0037,0.0056,0.0058,0.0015
458,0.0028,0.0067,0.0057,0.0008
459,0.0038,0.0067,0.0070,0.0015
460,0.0040,0.0080,0.0080,0.0015
461,0.0043,0.0081,0.0080,0.0017
462,0.0042,0.0086,0.0081,0.0026
463,0.0032,0.0053,0.0057,0.0008
464,0.0036,0.0121,0.0104,0.0057
465,0.0033,0.0174,0.0185,0.0062
466,0.0031,0.0138,0.0161,0.0048
467,0.0030,0.0080,0.0089,0.0019
468,0.0029,0.0070,0.0068,0.0022
469,0.0028,0.0067,0.0057,0.0008
470,0.0029,0.0069,0.0080,0.0022
471,0.0029,0.0064,0.0065,0.0026
472,0.0030,0.0055,0.0057,0.0028
473,0.0029,0.0051,0.0068,0.0027
474,0.0026,0.0058,0.0080,0.0012
475,0.0029,0.0053,0.0061,0.0010
476,0.0036,0.0097,0.0137,0.0017
477,0.0029,0.0066,0.0099,0.0028
478,0.0028,0.0061,0.0070,0.0022
479,0.0032,0.0075,0.0073,0.0025
480,0.0028,0.0067,0.0057,0.0008
481,0.0031,0.0073,0.0077,0.0031
482,0.0029,0.0093,0.0096,0.0050
483,0.0029,0.0079,0.0075,0.0049
484,0.0031,0.0089,0.0087,0.0040
485,0.0029,0.0102,0.0107,0.0049
486,0.0034,0.0213,0.0212,0.0099
487,0.0032,0.0074,0.0082,0.0013
488,0.0026,0.0041,0.0044,0.0008
489,0.0026,0.0041,0.0044,0.0008
490,0.0026,0.0041,0.0044,0.0008
491,0.0028,0.0067,0.0057,0.0008
492,0.0026,0.0041,0.0044,0.0008
493,0.0026,0.0041,0.0044,0.0008
494,0.0026,0.0041,0.0044,0.0008
495,0.0026,0.0041,0.0044,0.0008
496,0.0026,0.0041,0.0044,0.0008
497,0.0026,0.0041,0.0044,0.0008
498,0.0026,0.0041,0.0044,0.0008
499,0.0034,0.0090,0.0088,0.0015
500,0.0026,0.0041,0.0044,0.0008
501,0.0026,0.0041,0.0044,0.0008
502,0.0028,0.0067,0.0057,0.0008
503,0.0026,0.0041,0.0044,0.0008
504,0.0026,0.0041,0.0044,0.0008
505,0.0026,0.0041,0.0044,0.0008
506,0.0026,0.0041,0.0044,0.0008
507,0.0026,0.0041,0.0044,0.0008
508,0.0026,0.0041,0.0044,0.0008
509,0.0026,0.0041,0.0044,0.0008
510,0.0026,0.0041,0.0044,0.0008
511,0.0037,0.0056,0.0058,0.0015
512,0.0026,0.0041,0.0044,0.0008
513,0.0028,0.0067,0.0057,0.0008
514,0.0026,0.0041,0.0044,0.0008
515,0.0026,0.0041,0.0044,0.0008
516,0.0026,0.0041,0.0044,0.0008
517,0.0026,0.0041,0.0044,0.0008
518,0.0026,0.0041,0.0044,0.0008
519,0.0026,0.0041,0.0044,0.0008
520,0.0026,0.0041,0.0044,0.0008
521,0.0026,0.0041,0.0044,0.0008
522,0.0026,0.0041,0.0044,0.0008
523,0.0038,0.0067,0.0070,0.0015
524,0.0038,0.0098,0.0078,0.0021
525,0.0026,0.0041,0.0044,0.0008
526,0.0026,0.0041,0.0044,0.0008
527,0.0026,0.0041,0.0044,0.0008
528,0.0026,0.0041,0.0044,0.0008
529,0.0026,0.0041,0.0044,0.0008
530,0.0044,0.0078,0.0094,0.0019
531,0.0037,0.0074,0.0085,0.0014
532,0.0034,0.0072,0.0087,0.0013
533,0.0032,0.0068,0.0076,0.0013
534,0.0037,0.0056,0.0058,0.0015
535,0.0028,0.0067,0.0057,0.0008
536,0.0040,0.0080,0.0080,0.0015
537,0.0030,0.0055,0.0066,0.0013
538,0.0029,0.0071,0.0081,0.0012
539,0.0028,0.0063,0.0062,0.0010
540,0.0027,0.0070,0.0075,0.0008
541,0.0026,0.0050,0.0054,0.0008
542,0.0027,0.0068,0.0078,0.0008
543,0.0032,0.0053,0.0057,0.0008
544,0.0029,0.0053,0.0061,0.0010
545,0.0032,0.0074,0.0082,0.0013
546,0.0028,0.0067,0.0057,0.0008
547,0.0034,0.0090,0.0088,0.0015
548,0.0043,0.0081,0.0080,0.0017
549,0.0037,0.0056,0.0058,0.0015
550,0.0038,0.0067,0.0070,0.0015
551,0.0040,0.0080,0.0080,0.0015
552,0.0043,0.0081,0.0080,0.0017
553,0.0042,0.0086,0.0081,0.0026
554,0.0036,0.0121,0.0104,0.0057
555,0.0033,0.0174,0.0185,0.0062
556,0.0031,0.0138,0.0161,0.0048
557,0.0039,0.0247,0.0179,0.0106
558,0.0028,0.0067,0.0057,0.0008
559,0.0028,0.0067,0.0057,0.0008
560,0.0028,0.0067,0.0057,0.0008
561,0.0028,0.0067,0.0057,0.0008
562,0.0028,0.0067,0.0057,0.0008
563,0.0028,0.0067,0.0057,0.0008
564,0.0028,0.0067,0.0057,0.0008
565,0.0028,0.0067,0.0057,0.0008
566,0.0040,0.0105,0.0084,0.0018
567,0.0028,0.0067,0.0057,0.0008
568,0.0035,0.0253,0.0221,0.0078
569,0.0028,0.0067,0.0057,0.0008
570,0.0028,0.0067,0.0057,0.0008
571,0.0028,0.0067,0.0057,0.0008
572,0.0028,0.0067,0.0057,0.0008
573,0.0028,0.0067,0.0057,0.0008
574,0.0028,0.0067,0.0057,0.0008
575,0.0028,0.0067,0.0057,0.0008
576,0.0028,0.0067,0.0057,0.0008
577,0.0028,0.0067,0.0057,0.0008
578,0.0039,0.0120,0.0102,0.0016
579,0.0033,0.0204,0.0193,0.0051
580,0.0028,0.0067,0.0057,0.0008
581,0.0028,0.0067,0.0057,0.0008
582,0.0028,0.0067,0.0057,0.0008
583,0.0028,0.0067,0.0057,0.0008
584,0.0028,0.0067,0.0057,0.0008
585,0.0039,0.0063,0.0103,0.0033
586,0.0036,0.0065,0.0103,0.0020
587,0.0033,0.0058,0.0085,0.0014
588,0.0032,0.0061,0.0079,0.0012
589,0.0040,0.0105,0.0084,0.0018
590,0.0032,0.0141,0.0121,0.0043
591,0.0041,0.0134,0.0102,0.0016
592,0.0029,0.0063,0.0068,0.0012
593,0.0028,0.0073,0.0080,0.0011
594,0.0028,0.0061,0.0060,0.0010
595,0.0028,0.0070,0.0067,0.0008
596,0.0028,0.0062,0.0052,0.0008
597,0.0027,0.0071,0.0078,0.0009
598,0.0029,0.0064,0.0077,0.0011
599,0.0031,0.0080,0.0090,0.0015
600,0.0034,0.0081,0.0073,0.0019
601,0.0033,0.0103,0.0082,0.0030
602,0.0038,0.0098,0.0078,0.0021
603,0.0043,0.0130,0.0090,0.0017
604,0.0040,0.0105,0.0084,0.0018
605,0.0039,0.0120,0.0102,0.0016
606,0.0041,0.0134,0.0102,0.0016
607,0.0043,0.0130,0.0090,0.0017
608,0.0045,0.0143,0.0101,0.0030
609,0.0039,0.0195,0.0152,0.0083
610,0.0035,0.0233,0.0220,0.0075
611,0.0033,0.0182,0.0187,0.0056
612,0.0028,0.0069,0.0058,0.0009
613,0.0033,0.0113,0.0101,0.0041
614,0.0028,0.0057,0.0059,0.0008
615,0.0028,0.0057,0.0059,0.0008
616,0.0028,0.0057,0.0059,0.0008
617,0.0026,0.0068,0.0071,0.0009
618,0.0026,0.0068,0.0071,0.0009
619,0.0028,0.0062,0.0063,0.0010
620,0.0029,0.0063,0.0074,0.0014
621,0.0036,0.0094,0.0113,0.0018
622,0.0040,0.0082,0.0075,0.0020
623,0.0040,0.0077,0.0066,0.0019
624,0.0032,0.0114,0.0107,0.0056
625,0.0039,0.0077,0.0069,0.0018
626,0.0040,0.0091,0.0076,0.0016
627,0.0042,0.0110,0.0100,0.0018
628,0.0044,0.0144,0.0123,0.0025
629,0.0028,0.0062,0.0063,0.0010
630,0.0040,0.0146,0.0123,0.0066
631,0.0035,0.0187,0.0199,0.0062
632,0.0033,0.0165,0.0186,0.0046
633,0.0032,0.0101,0.0104,0.0050
634,0.0033,0.0081,0.0072,0.0064
635,0.0033,0.0097,0.0105,0.0051
636,0.0034,0.0092,0.0094,0.0063
637,0.0034,0.0075,0.0074,0.0032
638,0.0035,0.0086,0.0087,0.0026
639,0.0031,0.0066,0.0084,0.0026
640,0.0026,0.0075,0.0083,0.0013
641,0.0029,0.0063,0.0074,0.0014
642,0.0035,0.0086,0.0118,0.0020
643,0.0030,0.0064,0.0088,0.0028
644,0.0030,0.0067,0.0073,0.0020
645,0.0035,0.0082,0.0080,0.0025
646,0.0031,0.0085,0.0111,0.0031
647,0.0035,0.0100,0.0094,0.0039
648,0.0030,0.0107,0.0098,0.0052
649,0.0029,0.0104,0.0096,0.0051
650,0.0030,0.0144,0.0130,0.0060
651,0.0029,0.0141,0.0127,0.0063
652,0.0035,0.0176,0.0201,0.0118
653,0.0036,0.0094,0.0113,0.0018
654,0.0028,0.0057,0.0059,0.0008
655,0.0028,0.0057,0.0059,0.0008
656,0.0028,0.0057,0.0059,0.0008
657,0.0026,0.0080,0.0081,0.0014
658,0.0028,0.0057,0.0059,0.0008
659,0.0028,0.0057,0.0059,0.0008
660,0.0028,0.0057,0.0059,0.0008
661,0.0028,0.0057,0.0059,0.0008
662,0.0028,0.0057,0.0059,0.0008
663,0.0028,0.0057,0.0059,0.0008
664,0.0028,0.0057,0.0059,0.0008
665,0.0040,0.0082,0.0075,0.0020
666,0.0028,0.0057,0.0059,0.0008
667,0.0028,0.0057,0.0059,0.0008
668,0.0032,0.0092,0.0102,0.0014
669,0.0028,0.0057,0.0059,0.0008
670,0.0028,0.0057,0.0059,0.0008
671,0.0028,0.0057,0.0059,0.0008
672,0.0028,0.0057,0.0059,0.0008
673,0.0028,0.0057,0.0059,0.0008
674,0.0028,0.0057,0.0059,0.0008
675,0.0028,0.0057,0.0059,0.0008
676,0.0028,0.0057,0.0059,0.0008
677,0.0040,0.0077,0.0066,0.0019
678,0.0028,0.0057,0.0059,0.0008
679,0.0041,0.0096,0.0133,0.0019
680,0.0028,0.0057,0.0059,0.0008
681,0.0028,0.0057,0.0059,0.0008
682,0.0028,0.0057,0.0059,0.0008
683,0.0028,0.0057,0.0059,0.0008
684,0.0028,0.0057,0.0059,0.0008
685,0.0028,0.0057,0.0059,0.0008
686,0.0028,0.0057,0.0059,0.0008
687,0.0028,0.0057,0.0059,0.0008
688,0.0028,0.0057,0.0059,0.0008
689,0.0039,0.0077,0.0069,0.0018
690,0.0030,0.0116,0.0091,0.0028
691,0.0028,0.0057,0.0059,0.0008
692,0.0028,0.0057,0.0059,0.0008
693,0.0028,0.0057,0.0059,0.0008
694,0.0028,0.0057,0.0059,0.0008
695,0.0028,0.0057,0.0059,0.0008
696,0.0039,0.0078,0.0086,0.0025
697,0.0035,0.0073,0.0086,0.0016
698,0.0033,0.0067,0.0079,0.0013
699,0.0032,0.0082,0.0088,0.0013
700,0.0040,0.0077,0.0066,0.0019
701,0.0032,0.0105,0.0090,0.0021
702,0.0040,0.0091,0.0076,0.0016
703,0.0030,0.0058,0.0068,0.0012
704,0.0028,0.0063,0.0072,0.0011
705,0.0027,0.0057,0.0059,0.0010
706,0.0027,0.0073,0.0074,0.0008
707,0.0027,0.0061,0.0060,0.0008
708,0.0026,0.0068,0.0071,0.0009
709,0.0028,0.0062,0.0063,0.0010
710,0.0029,0.0063,0.0074,0.0014
711,0.0036,0.0094,0.0113,0.0018
712,0.0037,0.0087,0.0079,0.0029
713,0.0040,0.0082,0.0075,0.0020
714,0.0042,0.0110,0.0100,0.0018
715,0.0040,0.0077,0.0066,0.0019
716,0.0039,0.0077,0.0069,0.0018
717,0.0040,0.0091,0.0076,0.0016
718,0.0042,0.0110,0.0100,0.0018
719,0.0044,0.0144,0.0123,0.0025
720,0.0040,0.0146,0.0123,0.0066
721,0.0035,0.0187,0.0199,0.0062
722,0.0033,0.0165,0.0186,0.0046
723,0.0027,0.0076,0.0087,0.0010
724,0.0038,0.0108,0.0085,0.0045
725,0.0027,0.0045,0.0048,0.0009
726,0.0027,0.0045,0.0048,0.0009
727,0.0027,0.0045,0.0048,0.0009
728,0.0026,0.0067,0.0070,0.0008
729,0.0026,0.0067,0.0070,0.0008
730,0.0028,0.0052,0.0053,0.0009
731,0.0030,0.0056,0.0065,0.0011
732,0.0037,0.0087,0.0102,0.0014
733,0.0040,0.0079,0.0078,0.0016
734,0.0040,0.0055,0.0055,0.0016
735,0.0032,0.0129,0.0097,0.0062
736,0.0039,0.0069,0.0069,0.0017
737,0.0040,0.0085,0.0084,0.0017
738,0.0042,0.0102,0.0104,0.0020
739,0.0045,0.0106,0.0087,0.0028
740,0.0028,0.0052,0.0053,0.0009
741,0.0039,0.0129,0.0103,0.0068
742,0.0034,0.0169,0.0181,0.0056
743,0.0032,0.0151,0.0170,0.0047
744,0.0032,0.0082,0.0088,0.0027
745,0.0032,0.0077,0.0074,0.0041
746,0.0030,0.0138,0.0114,0.0060
747,0.0033,0.0072,0.0081,0.0033
748,0.0034,0.0084,0.0078,0.0023
749,0.0034,0.0069,0.0069,0.0026
750,0.0031,0.0050,0.0067,0.0025
751,0.0026,0.0068,0.0077,0.0012
752,0.0030,0.0056,0.0065,0.0011
753,0.0038,0.0087,0.0124,0.0016
754,0.0029,0.0071,0.0108,0.0026
755,0.0029,0.0060,0.0069,0.0020
756,0.0033,0.0071,0.0074,0.0023
757,0.0033,0.0192,0.0160,0.0070
758,0.0033,0.0091,0.0097,0.0035
759,0.0029,0.0100,0.0104,0.0053
760,0.0029,0.0082,0.0075,0.0048
761,0.0030,0.0104,0.0099,0.0047
762,0.0029,0.0112,0.0110,0.0050
763,0.0036,0.0198,0.0212,0.0111
764,0.0037,0.0087,0.0102,0.0014
765,0.0027,0.0045,0.0048,0.0009
766,0.0027,0.0045,0.0048,0.0009
767,0.0027,0.0045,0.0048,0.0009
768,0.0034,0.0226,0.0176,0.0081
769,0.0027,0.0045,0.0048,0.0009
770,0.0027,0.0045,0.0048,0.0009
771,0.0027,0.0045,0.0048,0.0009
772,0.0027,0.0045,0.0048,0.0009
773,0.0027,0.0045,0.0048,0.0009
774,0.0027,0.0045,0.0048,0.0009
775,0.0027,0.0045,0.0048,0.0009
776,0.0040,0.0079,0.0078,0.0016
777,0.0027,0.0045,0.0048,0.0009
778,0.0027,0.0045,0.0048,0.0009
779,0.0039,0.0219,0.0157,0.0094
780,0.0027,0.0045,0.0048,0.0009
781,0.0027,0.0045,0.0048,0.0009
782,0.0027,0.0045,0.0048,0.0009
783,0.0027,0.0045,0.0048,0.0009
784,0.0027,0.0045,0.0048,0.0009
785,0.0027,0.0045,0.0048,0.0009
786,0.0027,0.0045,0.0048,0.0009
787,0.0027,0.0045,0.0048,0.0009
788,0.0040,0.0055,0.0055,0.0016
789,0.0027,0.0045,0.0048,0.0009
790,0.0035,0.0089,0.0085,0.0017
791,0.0027,0.0045,0.0048,0.0009
792,0.0027,0.0045,0.0048,0.0009
793,0.0027,0.0045,0.0048,0.0009
794,0.0027,0.0045,0.0048,0.0009
795,0.0027,0.0045,0.0048,0.0009
796,0.0027,0.0045,0.0048,0.0009
797,0.0027,0.0045,0.0048,0.0009
798,0.0027,0.0045,0.0048,0.0009
799,0.0027,0.0045,0.0048,0.0009
800,0.0039,0.0069,0.0069,0.0017
801,0.0028,0.0069,0.0058,0.0009
802,0.0027,0.0045,0.0048,0.0009
803,0.0027,0.0045,0.0048,0.0009
804,0.0027,0.0045,0.0048,0.0009
805,0.0027,0.0045,0.0048,0.0009
806,0.0027,0.0045,0.0048,0.0009
807,0.0039,0.0074,0.0088,0.0021
808,0.0035,0.0085,0.0076,0.0014
809,0.0033,0.0070,0.0078,0.0013
810,0.0032,0.0077,0.0071,0.0013
811,0.0040,0.0055,0.0055,0.0016
812,0.0028,0.0069,0.0058,0.0009
813,0.0040,0.0085,0.0084,0.0017
814,0.0030,0.0059,0.0068,0.0013
815,0.0029,0.0068,0.0082,0.0012
816,0.0028,0.0048,0.0057,0.0011
817,0.0027,0.0054,0.0057,0.0008
818,0.0027,0.0047,0.0050,0.0008
819,0.0026,0.0067,0.0070,0.0008
820,0.0028,0.0052,0.0053,0.0009
821,0.0030,0.0056,0.0065,0.0011
822,0.0037,0.0087,0.0102,0.0014
823,0.0028,0.0069,0.0058,0.0009
824,0.0040,0.0079,0.0078,0.0016
825,0.0042,0.0102,0.0104,0.0020
826,0.0040,0.0055,0.0055,0.0016
827,0.0039,0.0069,0.0069,0.0017
828,0.0040,0.0085,0.0084,0.0017
829,0.0042,0.0102,0.0104,0.0020
830,0.0045,0.0106,0.0087,0.0028
831,0.0039,0.0129,0.0103,0.0068
832,0.0034,0.0169,0.0181,0.0056
833,0.0032,0.0151,0.0170,0.0047
834,0.0027,0.0076,0.0087,0.0010
835,0.0028,0.0069,0.0058,0.0009
836,0.0027,0.0040,0.0043,0.0009
837,0.0027,0.0040,0.0043,0.0009
838,0.0027,0.0040,0.0043,0.0009
839,0.0026,0.0068,0.0078,0.0009
840,0.0026,0.0068,0.0078,0.0009
841,0.0028,0.0053,0.0054,0.0008
842,0.0030,0.0055,0.0060,0.0010
843,0.0037,0.0070,0.0077,0.0013
844,0.0040,0.0087,0.0085,0.0015
845,0.0041,0.0055,0.0059,0.0014
846,0.0028,0.0069,0.0058,0.0009
847,0.0039,0.0068,0.0071,0.0016
848,0.0040,0.0075,0.0076,0.0017
849,0.0042,0.0079,0.0078,0.0021
850,0.0046,0.0104,0.0086,0.0029
851,0.0028,0.0053,0.0054,0.0008
852,0.0039,0.0136,0.0104,0.0082
853,0.0034,0.0149,0.0155,0.0045
854,0.0032,0.0121,0.0137,0.0033
855,0.0031,0.0080,0.0081,0.0027
856,0.0031,0.0076,0.0076,0.0035
857,0.0028,0.0069,0.0058,0.0009
858,0.0032,0.0071,0.0080,0.0023
859,0.0033,0.0073,0.0069,0.0023
860,0.0034,0.0065,0.0063,0.0026
861,0.0031,0.0053,0.0070,0.0024
862,0.0026,0.0058,0.0080,0.0011
863,0.0030,0.0055,0.0060,0.0010
864,0.0039,0.0106,0.0152,0.0016
865,0.0029,0.0072,0.0110,0.0026
866,0.0029,0.0057,0.0067,0.0020
867,0.0032,0.0073,0.0078,0.0023
868,0.0028,0.0069,0.0058,0.0009
869,0.0032,0.0087,0.0098,0.0036
870,0.0029,0.0109,0.0115,0.0058
871,0.0029,0.0088,0.0086,0.0057
872,0.0030,0.0083,0.0077,0.0041
873,0.0029,0.0103,0.0107,0.0048
874,0.0036,0.0220,0.0222,0.0114
875,0.0037,0.0070,0.0077,0.0013
876,0.0027,0.0040,0.0043,0.0009
877,0.0027,0.0040,0.0043,0.0009
878,0.0027,0.0040,0.0043,0.0009
879,0.0028,0.0069,0.0058,0.0009
880,0.0027,0.0040,0.0043,0.0009
881,0.0027,0.0040,0.0043,0.0009
882,0.0027,0.0040,0.0043,0.0009
883,0.0027,0.0040,0.0043,0.0009
884,0.0027,0.0040,0.0043,0.0009
885,0.0027,0.0040,0.0043,0.0009
886,0.0027,0.0040,0.0043,0.0009
887,0.0040,0.0087,0.0085,0.0015
888,0.0027,0.0040,0.0043,0.0009
889,0.0027,0.0040,0.0043,0.0009
890,0.0028,0.0069,0.0058,0.0009
891,0.0027,0.0040,0.0043,0.0009
892,0.0027,0.0040,0.0043,0.0009
893,0.0027,0.0040,0.0043,0.0009
894,0.0027,0.0040,0.0043,0.0009
895,0.0027,0.0040,0.0043,0.0009
896,0.0027,0.0040,0.0043,0.0009
897,0.0027,0.0040,0.0043,0.0009
898,0.0027,0.0040,0.0043,0.0009
899,0.0041,0.0055,0.0059,0.0014
900,0.0027,0.0040,0.0043,0.0009
901,0.0028,0.0069,0.0058,0.0009
902,0.0027,0.0040,0.0043,0.0009
903,0.0027,0.0040,0.0043,0.0009
904,0.0027,0.0040,0.0043,0.0009
905,0.0027,0.0040,0.0043,0.0009
906,0.0027,0.0040,0.0043,0.0009
907,0.0027,0.0040,0.0043,0.0009
908,0.0027,0.0040,0.0043,0.0009
909,0.0027,0.0040,0.0043,0.0009
910,0.0027,0.0040,0.0043,0.0009
911,0.0039,0.0068,0.0071,0.0016
912,0.0038,0.0108,0.0083,0.0019
913,0.0027,0.0040,0.0043,0.0009
914,0.0027,0.0040,0.0043,0.0009
915,0.0027,0.0040,0.0043,0.0009
916,0.0027,0.0040,0.0043,0.0009
917,0.0027,0.0040,0.0043,0.0009
918,0.0039,0.0077,0.0093,0.0020
919,0.0035,0.0068,0.0085,0.0015
920,0.0033,0.0068,0.0087,0.0013
921,0.0032,0.0062,0.0073,0.0013
922,0.0041,0.0055,0.0059,0.0014
923,0.0028,0.0069,0.0058,0.0009
924,0.0040,0.0075,0.0076,0.0017
925,0.0030,0.0052,0.0066,0.0014
926,0.0029,0.0070,0.0078,0.0012
927,0.0028,0.0061,0.0059,0.0010
928,0.0027,0.0067,0.0072,0.0008
929,0.0027,0.0050,0.0054,0.0008
930,0.0026,0.0068,0.0078,0.0009
931,0.0028,0.0053,0.0054,0.0008
932,0.0030,0.0055,0.0060,0.0010
933,0.0037,0.0070,0.0077,0.0013
934,0.0028,0.0069,0.0058,0.0009
935,0.0040,0.0087,0.0085,0.0015
936,0.0042,0.0079,0.0078,0.0021
937,0.0041,0.0055,0.0059,0.0014
938,0.0039,0.0068,0.0071,0.0016
939,0.0040,0.0075,0.0076,0.0017
940,0.0042,0.0079,0.0078,0.0021
941,0.0046,0.0104,0.0086,0.0029
942,0.0039,0.0136,0.0104,0.0082
943,0.0034,0.0149,0.0155,0.0045
944,0.0032,0.0121,0.0137,0.0033
945,0.0030,0.0076,0.0084,0.0011
946,0.0028,0.0069,0.0058,0.0009
947,0.0030,0.0068,0.0062,0.0009
948,0.0030,0.0068,0.0062,0.0009
949,0.0030,0.0068,0.0062,0.0009
950,0.0029,0.0075,0.0087,0.0010
951,0.0029,0.0075,0.0087,0.0010
952,0.0030,0.0073,0.0085,0.0010
953,0.0033,0.0092,0.0106,0.0013
954,0.0039,0.0090,0.0094,0.0016
955,0.0043,0.0101,0.0083,0.0017
956,0.0044,0.0110,0.0077,0.0017
957,0.0028,0.0069,0.0058,0.0009
958,0.0042,0.0119,0.0088,0.0018
959,0.0042,0.0153,0.0102,0.0017
960,0.0044,0.0151,0.0097,0.0021
961,0.0048,0.0173,0.0108,0.0039
962,0.0030,0.0073,0.0085,0.0010
963,0.0041,0.0261,0.0177,0.0104
964,0.0036,0.0271,0.0224,0.0072
965,0.0035,0.0223,0.0199,0.0043
966,0.0035,0.0164,0.0137,0.0031
967,0.0036,0.0133,0.0105,0.0027
968,0.0028,0.0069,0.0058,0.0009
969,0.0036,0.0155,0.0141,0.0055
970,0.0035,0.0155,0.0149,0.0069
971,0.0035,0.0131,0.0146,0.0059
972,0.0033,0.0101,0.0136,0.0033
973,0.0027,0.0084,0.0088,0.0015
974,0.0033,0.0092,0.0106,0.0013
975,0.0041,0.0102,0.0132,0.0018
976,0.0030,0.0120,0.0097,0.0028
977,0.0032,0.0104,0.0089,0.0022
978,0.0037,0.0085,0.0080,0.0030
979,0.0028,0.0069,0.0058,0.0009
980,0.0038,0.0111,0.0090,0.0049
981,0.0033,0.0131,0.0102,0.0066
982,0.0030,0.0135,0.0113,0.0061
983,0.0032,0.0188,0.0159,0.0066
984,0.0032,0.0234,0.0184,0.0080
985,0.0038,0.0235,0.0168,0.0100
986,0.0039,0.0090,0.0094,0.0016
987,0.0030,0.0068,0.0062,0.0009
988,0.0030,0.0068,0.0062,0.0009
989,0.0030,0.0068,0.0062,0.0009
990,0.0028,0.0069,0.0058,0.0009
991,0.0030,0.0068,0.0062,0.0009
992,0.0030,0.0068,0.0062,0.0009
993,0.0030,0.0068,0.0062,0.0009
994,0.0030,0.0068,0.0062,0.0009
995,0.0030,0.0068,0.0062,0.0009
996,0.0030,0.0068,0.0062,0.0009
997,0.0030,0.0068,0.0062,0.0009
998,0.0043,0.0101,0.0083,0.0017
999,0.0030,0.0068,0.0062,0.0009
1000,0.0030,0.0068,0.0062,0.0009
1001,0.0028,0.0069,0.0058,0.0009
1002,0.0030,0.0068,0.0062,0.0009
1003,0.0030,0.0068,0.0062,0.0009
1004,0.0030,0.0068,0.0062,0.0009
1005,0.0030,0.0068,0.0062,0.0009
1006,0.0030,0.0068,0.0062,0.0009
1007,0.0030,0.0068,0.0062,0.0009
1008,0.0030,0.0068,0.0062,0.0009
1009,0.0030,0.0068,0.0062,0.0009
1010,0.0044,0.0110,0.0077,0.0017
1011,0.0030,0.0068,0.0062,0.0009
1012,0.0028,0.0069,0.0058,0.0009
1013,0.0030,0.0068,0.0062,0.0009
1014,0.0030,0.0068,0.0062,0.0009
1015,0.0030,0.0068,0.0062,0.0009
1016,0.0030,0.0068,0.0062,0.0009
1017,0.0030,0.0068,0.0062,0.0009
1018,0.0030,0.0068,0.0062,0.0009
1019,0.0030,0.0068,0.0062,0.0009
1020,0.0030,0.0068,0.0062,0.0009
1021,0.0030,0.0068,0.0062,0.0009
1022,0.0042,0.0119,0.0088,0.0018
1023,0.0028,0.0069,0.0058,0.0009
1024,0.0030,0.0068,0.0062,0.0009
1025,0.0030,0.0068,0.0062,0.0009
1026,0.0030,0.0068,0.0062,0.0009
1027,0.0030,0.0068,0.0062,0.0009
1028,0.0030,0.0068,0.0062,0.0009
1029,0.0037,0.0062,0.0107,0.0035
1030,0.0035,0.0059,0.0100,0.0023
1031,0.0033,0.0065,0.0096,0.0016
1032,0.0032,0.0068,0.0077,0.0013
1033,0.0044,0.0110,0.0077,0.0017
1034,0.0040,0.0109,0.0081,0.0018
1035,0.0042,0.0153,0.0102,0.0017
1036,0.0029,0.0068,0.0071,0.0012
1037,0.0028,0.0081,0.0077,0.0011
1038,0.0028,0.0069,0.0061,0.0010
1039,0.0028,0.0073,0.0071,0.0009
1040,0.0029,0.0075,0.0065,0.0009
1041,0.0029,0.0075,0.0087,0.0010
1042,0.0030,0.0073,0.0085,0.0010
1043,0.0033,0.0092,0.0106,0.0013
1044,0.0039,0.0090,0.0094,0.0016
1045,0.0028,0.0069,0.0058,0.0009
1046,0.0043,0.0101,0.0083,0.0017
1047,0.0044,0.0151,0.0097,0.0021
1048,0.0044,0.0110,0.0077,0.0017
1049,0.0042,0.0119,0.0088,0.0018
1050,0.0042,0.0153,0.0102,0.0017
1051,0.0044,0.0151,0.0097,0.0021
1052,0.0048,0.0173,0.0108,0.0039
1053,0.0041,0.0261,0.0177,0.0104
1054,0.0036,0.0271,0.0224,0.0072
1055,0.0035,0.0223,0.0199,0.0043
1056,0.0032,0.0092,0.0102,0.0014
1057,0.0028,0.0069,0.0058,0.0009
1058,0.0031,0.0061,0.0055,0.0008
1059,0.0031,0.0061,0.0055,0.0008
1060,0.0031,0.0061,0.0055,0.0008
1061,0.0028,0.0072,0.0078,0.0009
1062,0.0028,0.0072,0.0078,0.0009
1063,0.0029,0.0063,0.0075,0.0010
1064,0.0032,0.0076,0.0089,0.0014
1065,0.0039,0.0078,0.0074,0.0018
1066,0.0044,0.0096,0.0080,0.0019
1067,0.0045,0.0101,0.0081,0.0016
1068,0.0028,0.0069,0.0058,0.0009
1069,0.0043,0.0119,0.0097,0.0016
1070,0.0043,0.0136,0.0100,0.0017
1071,0.0044,0.0130,0.0088,0.0019
1072,0.0048,0.0151,0.0109,0.0030
1073,0.0029,0.0063,0.0075,0.0010
1074,0.0041,0.0197,0.0143,0.0081
1075,0.0037,0.0235,0.0212,0.0066
1076,0.0036,0.0191,0.0186,0.0049
1077,0.0036,0.0137,0.0126,0.0053
1078,0.0038,0.0090,0.0074,0.0057
1079,0.0028,0.0069,0.0058,0.0009
1080,0.0037,0.0095,0.0086,0.0033
1081,0.0036,0.0115,0.0106,0.0026
1082,0.0036,0.0116,0.0124,0.0029
1083,0.0033,0.0084,0.0107,0.0022
1084,0.0027,0.0080,0.0084,0.0012
1085,0.0032,0.0076,0.0089,0.0014
1086,0.0037,0.0100,0.0124,0.0020
1087,0.0030,0.0081,0.0092,0.0028
1088,0.0032,0.0083,0.0084,0.0029
1089,0.0037,0.0082,0.0078,0.0038
1090,0.0028,0.0069,0.0058,0.0009
1091,0.0038,0.0130,0.0116,0.0062
1092,0.0033,0.0142,0.0117,0.0075
1093,0.0029,0.0132,0.0113,0.0066
1094,0.0030,0.0180,0.0152,0.0069
1095,0.0030,0.0202,0.0164,0.0078
1096,0.0036,0.0187,0.0156,0.0084
1097,0.0039,0.0078,0.0074,0.0018
1098,0.0031,0.0061,0.0055,0.0008
1099,0.0031,0.0061,0.0055,0.0008
1100,0.0031,0.0061,0.0055,0.0008
1101,0.0028,0.0069,0.0058,0.0009
1102,0.0031,0.0061,0.0055,0.0008
1103,0.0031,0.0061,0.0055,0.0008
1104,0.0031,0.0061,0.0055,0.0008
1105,0.0031,0.0061,0.0055,0.0008
1106,0.0031,0.0061,0.0055,0.0008
1107,0.0031,0.0061,0.0055,0.0008
1108,0.0031,0.0061,0.0055,0.0008
1109,0.0044,0.0096,0.0080,0.0019
1110,0.0031,0.0061,0.0055,0.0008
1111,0.0031,0.0061,0.0055,0.0008
1112,0.0028,0.0069,0.0058,0.0009
1113,0.0031,0.0061,0.0055,0.0008
1114,0.0031,0.0061,0.0055,0.0008
1115,0.0031,0.0061,0.0055,0.0008
1116,0.0031,0.0061,0.0055,0.0008
1117,0.0031,0.0061,0.0055,0.0008
1118,0.0031,0.0061,0.0055,0.0008
1119,0.0031,0.0061,0.0055,0.0008
1120,0.0031,0.0061,0.0055,0.0008
1121,0.0045,0.0101,0.0081,0.0016
1122,0.0031,0.0061,0.0055,0.0008
1123,0.0028,0.0069,0.0058,0.0009
1124,0.0031,0.0061,0.0055,0.0008
1125,0.0031,0.0061,0.0055,0.0008
1126,0.0031,0.0061,0.0055,0.0008
1127,0.0031,0.0061,0.0055,0.0008
1128,0.0031,0.0061,0.0055,0.0008
1129,0.0031,0.0061,0.0055,0.0008
1130,0.0031,0.0061,0.0055,0.0008
1131,0.0031,0.0061,0.0055,0.0008
1132,0.0031,0.0061,0.0055,0.0008
1133,0.0043,0.0119,0.0097,0.0016
1134,0.0028,0.0069,0.0058,0.0009
1135,0.0031,0.0061,0.0055,0.0008
1136,0.0031,0.0061,0.0055,0.0008
1137,0.0031,0.0061,0.0055,0.0008
1138,0.0031,0.0061,0.0055,0.0008
1139,0.0031,0.0061,0.0055,0.0008
1140,0.0037,0.0061,0.0103,0.0031
1141,0.0035,0.0063,0.0104,0.0019
1142,0.0033,0.0056,0.0084,0.0015
1143,0.0032,0.0060,0.0074,0.0013
1144,0.0045,0.0101,0.0081,0.0016
1145,0.0028,0.0069,0.0058,0.0009
1146,0.0043,0.0136,0.0100,0.0017
1147,0.0029,0.0062,0.0067,0.0012
1148,0.0028,0.0072,0.0076,0.0011
1149,0.0028,0.0061,0.0061,0.0010
1150,0.0028,0.0070,0.0069,0.0008
1151,0.0030,0.0063,0.0051,0.0008
1152,0.0028,0.0072,0.0078,0.0009
1153,0.0029,0.0063,0.0075,0.0010
1154,0.0032,0.0076,0.0089,0.0014
1155,0.0039,0.0078,0.0074,0.0018
1156,0.0039,0.0122,0.0096,0.0018
1157,0.0044,0.0096,0.0080,0.0019
1158,0.0044,0.0130,0.0088,0.0019
1159,0.0045,0.0101,0.0081,0.0016
1160,0.0043,0.0119,0.0097,0.0016
1161,0.0043,0.0136,0.0100,0.0017
1162,0.0044,0.0130,0.0088,0.0019
1163,0.0048,0.0151,0.0109,0.0030
1164,0.0041,0.0197,0.0143,0.0081
1165,0.0037,0.0235,0.0212,0.0066
1166,0.0036,0.0191,0.0186,0.0049
1167,0.0035,0.0089,0.0085,0.0017
1168,0.0028,0.0069,0.0058,0.0009
1169,0.0031,0.0055,0.0057,0.0008
1170,0.0031,0.0055,0.0057,0.0008
1171,0.0031,0.0055,0.0057,0.0008
1172,0.0028,0.0076,0.0076,0.0009
1173,0.0028,0.0076,0.0076,0.0009
1174,0.0028,0.0067,0.0063,0.0011
1175,0.0032,0.0060,0.0065,0.0014
1176,0.0042,0.0083,0.0100,0.0019
1177,0.0046,0.0080,0.0073,0.0020
1178,0.0046,0.0076,0.0067,0.0019
1179,0.0028,0.0069,0.0058,0.0009
1180,0.0044,0.0077,0.0071,0.0018
1181,0.0043,0.0093,0.0078,0.0016
1182,0.0045,0.0113,0.0100,0.0019
1183,0.0050,0.0169,0.0144,0.0025
1184,0.0028,0.0067,0.0063,0.0011
1185,0.0043,0.0144,0.0115,0.0073
1186,0.0038,0.0182,0.0184,0.0052
1187,0.0036,0.0166,0.0179,0.0040
1188,0.0037,0.0099,0.0101,0.0055
1189,0.0038,0.0076,0.0070,0.0066
1190,0.0028,0.0069,0.0058,0.0009
1191,0.0040,0.0084,0.0087,0.0061
1192,0.0040,0.0093,0.0085,0.0030
1193,0.0039,0.0107,0.0107,0.0026
1194,0.0034,0.0076,0.0094,0.0024
1195,0.0028,0.0075,0.0080,0.0012
1196,0.0032,0.0060,0.0065,0.0014
1197,0.0037,0.0095,0.0128,0.0020
1198,0.0031,0.0066,0.0093,0.0028
1199,0.0031,0.0063,0.0069,0.0022
1200,0.0036,0.0087,0.0087,0.0028
1201,0.0028,0.0069,0.0058,0.0009
1202,0.0036,0.0107,0.0102,0.0043
1203,0.0031,0.0113,0.0107,0.0057
1204,0.0029,0.0103,0.0094,0.0052
1205,0.0029,0.0148,0.0133,0.0060
1206,0.0029,0.0144,0.0128,0.0062
1207,0.0037,0.0167,0.0192,0.0122
1208,0.0042,0.0083,0.0100,0.0019
1209,0.0031,0.0055,0.0057,0.0008
1210,0.0031,0.0055,0.0057,0.0008
1211,0.0031,0.0055,0.0057,0.0008
1212,0.0028,0.0069,0.0058,0.0009
1213,0.0031,0.0055,0.0057,0.0008
1214,0.0031,0.0055,0.0057,0.0008
1215,0.0031,0.0055,0.0057,0.0008
1216,0.0031,0.0055,0.0057,0.0008
1217,0.0031,0.0055,0.0057,0.0008
1218,0.0031,0.0055,0.0057,0.0008
1219,0.0031,0.0055,0.0057,0.0008
1220,0.0046,0.0080,0.0073,0.0020
1221,0.0031,0.0055,0.0057,0.0008
1222,0.0031,0.0055,0.0057,0.0008
1223,0.0039,0.0061,0.0104,0.0037
1224,0.0031,0.0055,0.0057,0.0008
1225,0.0031,0.0055,0.0057,0.0008
1226,0.0031,0.0055,0.0057,0.0008
1227,0.0031,0.0055,0.0057,0.0008
1228,0.0031,0.0055,0.0057,0.0008
1229,0.0031,0.0055,0.0057,0.0008
1230,0.0031,0.0055,0.0057,0.0008
1231,0.0031,0.0055,0.0057,0.0008
1232,0.0046,0.0076,0.0067,0.0019
1233,0.0031,0.0055,0.0057,0.0008
1234,0.0035,0.0060,0.0096,0.0024
1235,0.0031,0.0055,0.0057,0.0008
1236,0.0031,0.0055,0.0057,0.0008
1237,0.0031,0.0055,0.0057,0.0008
1238,0.0031,0.0055,0.0057,0.0008
1239,0.0031,0.0055,0.0057,0.0008
1240,0.0031,0.0055,0.0057,0.0008
1241,0.0031,0.0055,0.0057,0.0008
1242,0.0031,0.0055,0.0057,0.0008
1243,0.0031,0.0055,0.0057,0.0008
1244,0.0044,0.0077,0.0071,0.0018
1245,0.0033,0.0065,0.0095,0.0015
1246,0.0031,0.0055,0.0057,0.0008
1247,0.0031,0.0055,0.0057,0.0008
1248,0.0031,0.0055,0.0057,0.0008
1249,0.0031,0.0055,0.0057,0.0008
1250,0.0031,0.0055,0.0057,0.0008
1251,0.0037,0.0074,0.0082,0.0024
1252,0.0035,0.0069,0.0083,0.0016
1253,0.0034,0.0065,0.0076,0.0014
1254,0.0033,0.0079,0.0089,0.0013
1255,0.0046,0.0076,0.0067,0.0019
1256,0.0032,0.0068,0.0078,0.0012
1257,0.0043,0.0093,0.0078,0.0016
1258,0.0030,0.0057,0.0066,0.0012
1259,0.0028,0.0061,0.0069,0.0011
1260,0.0027,0.0056,0.0057,0.0010
1261,0.0028,0.0070,0.0072,0.0008
1262,0.0029,0.0057,0.0057,0.0008
1263,0.0028,0.0076,0.0076,0.0009
1264,0.0028,0.0067,0.0063,0.0011
1265,0.0032,0.0060,0.0065,0.0014
1266,0.0042,0.0083,0.0100,0.0019
1267,0.0040,0.0109,0.0081,0.0018
1268,0.0046,0.0080,0.0073,0.0020
1269,0.0045,0.0113,0.0100,0.0019
1270,0.0046,0.0076,0.0067,0.0019
1271,0.0044,0.0077,0.0071,0.0018
1272,0.0043,0.0093,0.0078,0.0016
1273,0.0045,0.0113,0.0100,0.0019
1274,0.0050,0.0169,0.0144,0.0025
1275,0.0043,0.0144,0.0115,0.0073
1276,0.0038,0.0182,0.0184,0.0052
1277,0.0036,0.0166,0.0179,0.0040
1278,0.0038,0.0108,0.0083,0.0019
1279,0.0041,0.0150,0.0101,0.0016
1280,0.0030,0.0046,0.0047,0.0009
1281,0.0030,0.0046,0.0047,0.0009
1282,0.0030,0.0046,0.0047,0.0009
1283,0.0027,0.0073,0.0071,0.0009
1284,0.0027,0.0073,0.0071,0.0009
1285,0.0028,0.0056,0.0054,0.0009
1286,0.0034,0.0060,0.0061,0.0012
1287,0.0044,0.0080,0.0093,0.0015
1288,0.0048,0.0074,0.0074,0.0016
1289,0.0047,0.0054,0.0055,0.0017
1290,0.0029,0.0069,0.0070,0.0013
1291,0.0044,0.0068,0.0068,0.0018
1292,0.0044,0.0084,0.0083,0.0019
1293,0.0046,0.0104,0.0104,0.0021
1294,0.0053,0.0143,0.0113,0.0027
1295,0.0028,0.0056,0.0054,0.0009
1296,0.0044,0.0134,0.0103,0.0083
1297,0.0037,0.0164,0.0169,0.0048
1298,0.0036,0.0149,0.0162,0.0040
1299,0.0037,0.0083,0.0086,0.0034
1300,0.0037,0.0072,0.0070,0.0046
1301,0.0028,0.0082,0.0081,0.0011
1302,0.0039,0.0077,0.0083,0.0036
1303,0.0040,0.0099,0.0086,0.0024
1304,0.0039,0.0081,0.0076,0.0025
1305,0.0035,0.0053,0.0069,0.0023
1306,0.0028,0.0070,0.0078,0.0011
1307,0.0034,0.0060,0.0061,0.0012
1308,0.0040,0.0098,0.0138,0.0016
1309,0.0029,0.0079,0.0120,0.0026
1310,0.0029,0.0060,0.0070,0.0019
1311,0.0034,0.0076,0.0082,0.0022
1312,0.0028,0.0072,0.0065,0.0010
1313,0.0034,0.0101,0.0111,0.0039
1314,0.0030,0.0110,0.0116,0.0058
1315,0.0029,0.0083,0.0077,0.0051
1316,0.0029,0.0107,0.0100,0.0047
1317,0.0029,0.0119,0.0114,0.0051
1318,0.0039,0.0184,0.0203,0.0115
1319,0.0044,0.0080,0.0093,0.0015
1320,0.0030,0.0046,0.0047,0.0009
1321,0.0030,0.0046,0.0047,0.0009
1322,0.0030,0.0046,0.0047,0.0009
1323,0.0028,0.0075,0.0070,0.0009
1324,0.0030,0.0046,0.0047,0.0009
1325,0.0030,0.0046,0.0047,0.0009
1326,0.0030,0.0046,0.0047,0.0009
1327,0.0030,0.0046,0.0047,0.0009
1328,0.0030,0.0046,0.0047,0.0009
1329,0.0030,0.0046,0.0047,0.0009
1330,0.0030,0.0046,0.0047,0.0009
1331,0.0048,0.0074,0.0074,0.0016
1332,0.0030,0.0046,0.0047,0.0009
1333,0.0030,0.0046,0.0047,0.0009
1334,0.0028,0.0075,0.0064,0.0009
1335,0.0030,0.0046,0.0047,0.0009
1336,0.0030,0.0046,0.0047,0.0009
1337,0.0030,0.0046,0.0047,0.0009
1338,0.0030,0.0046,0.0047,0.0009
1339,0.0030,0.0046,0.0047,0.0009
1340,0.0030,0.0046,0.0047,0.0009
1341,0.0030,0.0046,0.0047,0.0009
1342,0.0030,0.0046,0.0047,0.0009
1343,0.0047,0.0054,0.0055,0.0017
1344,0.0030,0.0046,0.0047,0.0009
1345,0.0027,0.0076,0.0087,0.0010
1346,0.0030,0.0046,0.0047,0.0009
1347,0.0030,0.0046,0.0047,0.0009
1348,0.0030,0.0046,0.0047,0.0009
1349,0.0030,0.0046,0.0047,0.0009
1350,0.0030,0.0046,0.0047,0.0009
1351,0.0030,0.0046,0.0047,0.0009
1352,0.0030,0.0046,0.0047,0.0009
1353,0.0030,0.0046,0.0047,0.0009
1354,0.0030,0.0046,0.0047,0.0009
1355,0.0044,0.0068,0.0068,0.0018
1356,0.0030,0.0076,0.0084,0.0011
1357,0.0030,0.0046,0.0047,0.0009
1358,0.0030,0.0046,0.0047,0.0009
1359,0.0030,0.0046,0.0047,0.0009
1360,0.0030,0.0046,0.0047,0.0009
1361,0.0030,0.0046,0.0047,0.0009
1362,0.0037,0.0071,0.0082,0.0021
1363,0.0035,0.0083,0.0073,0.0015
1364,0.0034,0.0068,0.0075,0.0014
1365,0.0033,0.0073,0.0068,0.0013
1366,0.0047,0.0054,0.0055,0.0017
1367,0.0032,0.0092,0.0102,0.0014
1368,0.0044,0.0084,0.0083,0.0019
1369,0.0030,0.0058,0.0066,0.0013
1370,0.0028,0.0066,0.0080,0.0012
1371,0.0027,0.0049,0.0058,0.0011
1372,0.0027,0.0054,0.0060,0.0008
1373,0.0029,0.0045,0.0049,0.0008
1374,0.0027,0.0073,0.0071,0.0009
1375,0.0028,0.0056,0.0054,0.0009
1376,0.0034,0.0060,0.0061,0.0012
1377,0.0044,0.0080,0.0093,0.0015
1378,0.0035,0.0089,0.0085,0.0017
1379,0.0048,0.0074,0.0074,0.0016
1380,0.0046,0.0104,0.0104,0.0021
1381,0.0047,0.0054,0.0055,0.0017
1382,0.0044,0.0068,0.0068,0.0018
1383,0.0044,0.0084,0.0083,0.0019
1384,0.0046,0.0104,0.0104,0.0021
1385,0.0053,0.0143,0.0113,0.0027
1386,0.0044,0.0134,0.0103,0.0083
1387,0.0037,0.0164,0.0169,0.0048
1388,0.0036,0.0149,0.0162,0.0040
1389,0.0040,0.0109,0.0081,0.0018
1390,0.0038,0.0108,0.0083,0.0019
1391,0.0030,0.0042,0.0043,0.0009
1392,0.0030,0.0042,0.0043,0.0009
1393,0.0030,0.0042,0.0043,0.0009
1394,0.0027,0.0069,0.0076,0.0009
1395,0.0027,0.0069,0.0076,0.0009
1396,0.0028,0.0067,0.0062,0.0009
1397,0.0034,0.0063,0.0062,0.0011
1398,0.0045,0.0065,0.0072,0.0013
1399,0.0048,0.0082,0.0080,0.0015
1400,0.0048,0.0060,0.0065,0.0015
1401,0.0043,0.0153,0.0099,0.0020
1402,0.0044,0.0067,0.0071,0.0017
1403,0.0044,0.0079,0.0080,0.0019
1404,0.0047,0.0087,0.0080,0.0023
1405,0.0055,0.0140,0.0110,0.0029
1406,0.0028,0.0067,0.0062,0.0009
1407,0.0043,0.0144,0.0112,0.0098
1408,0.0037,0.0143,0.0143,0.0041
1409,0.0035,0.0118,0.0127,0.0030
1410,0.0036,0.0081,0.0080,0.0034
1411,0.0036,0.0077,0.0080,0.0043
1412,0.0040,0.0109,0.0081,0.0018
1413,0.0038,0.0077,0.0081,0.0024
1414,0.0039,0.0092,0.0080,0.0024
1415,0.0039,0.0079,0.0073,0.0026
1416,0.0035,0.0059,0.0075,0.0022
1417,0.0028,0.0058,0.0077,0.0011
1418,0.0034,0.0063,0.0062,0.0011
1419,0.0042,0.0120,0.0170,0.0016
1420,0.0029,0.0081,0.0122,0.0026
1421,0.0029,0.0059,0.0071,0.0018
1422,0.0033,0.0081,0.0090,0.0022
1423,0.0039,0.0122,0.0096,0.0018
1424,0.0033,0.0101,0.0117,0.0040
1425,0.0029,0.0121,0.0129,0.0063
1426,0.0029,0.0093,0.0092,0.0060
1427,0.0029,0.0085,0.0078,0.0042
1428,0.0029,0.0109,0.0112,0.0049
1429,0.0039,0.0208,0.0217,0.0119
1430,0.0045,0.0065,0.0072,0.0013
1431,0.0030,0.0042,0.0043,0.0009
1432,0.0030,0.0042,0.0043,0.0009
1433,0.0030,0.0042,0.0043,0.0009
1434,0.0041,0.0150,0.0101,0.0016
1435,0.0030,0.0042,0.0043,0.0009
1436,0.0030,0.0042,0.0043,0.0009
1437,0.0030,0.0042,0.0043,0.0009
1438,0.0030,0.0042,0.0043,0.0009
1439,0.0030,0.0042,0.0043,0.0009
1440,0.0030,0.0042,0.0043,0.0009
1441,0.0030,0.0042,0.0043,0.0009
1442,0.0048,0.0082,0.0080,0.0015
1443,0.0030,0.0042,0.0043,0.0009
1444,0.0030,0.0042,0.0043,0.0009
1445,0.0043,0.0153,0.0099,0.0020
1446,0.0030,0.0042,0.0043,0.0009
1447,0.0030,0.0042,0.0043,0.0009
1448,0.0030,0.0042,0.0043,0.0009
1449,0.0030,0.0042,0.0043,0.0009
1450,0.0030,0.0042,0.0043,0.0009
1451,0.0030,0.0042,0.0043,0.0009
1452,0.0030,0.0042,0.0043,0.0009
1453,0.0030,0.0042,0.0043,0.0009
1454,0.0048,0.0060,0.0065,0.0015
1455,0.0030,0.0042,0.0043,0.0009
1456,0.0045,0.0168,0.0102,0.0038
1457,0.0030,0.0042,0.0043,0.0009
1458,0.0030,0.0042,0.0043,0.0009
1459,0.0030,0.0042,0.0043,0.0009
1460,0.0030,0.0042,0.0043,0.0009
1461,0.0030,0.0042,0.0043,0.0009
1462,0.0030,0.0042,0.0043,0.0009
1463,0.0030,0.0042,0.0043,0.0009
1464,0.0030,0.0042,0.0043,0.0009
1465,0.0030,0.0042,0.0043,0.0009
1466,0.0044,0.0067,0.0071,0.0017
1467,0.0039,0.0247,0.0179,0.0106
1468,0.0030,0.0042,0.0043,0.0009
1469,0.0030,0.0042,0.0043,0.0009
1470,0.0030,0.0042,0.0043,0.0009
1471,0.0030,0.0042,0.0043,0.0009
1472,0.0030,0.0042,0.0043,0.0009
1473,0.0037,0.0074,0.0090,0.0020
1474,0.0035,0.0064,0.0080,0.0015
1475,0.0034,0.0065,0.0085,0.0014
1476,0.0033,0.0059,0.0070,0.0013
1477,0.0048,0.0060,0.0065,0.0015
1478,0.0035,0.0253,0.0221,0.0078
1479,0.0044,0.0079,0.0080,0.0019
1480,0.0030,0.0050,0.0064,0.0014
1481,0.0028,0.0069,0.0077,0.0012
1482,0.0027,0.0061,0.0059,0.0010
1483,0.0027,0.0066,0.0072,0.0008
1484,0.0028,0.0047,0.0051,0.0008
1485,0.0027,0.0069,0.0076,0.0009
1486,0.0028,0.0067,0.0062,0.0009
1487,0.0034,0.0063,0.0062,0.0011
1488,0.0045,0.0065,0.0072,0.0013
1489,0.0033,0.0204,0.0193,0.0051
1490,0.0048,0.0082,0.0080,0.0015
1491,0.0047,0.0087,0.0080,0.0023
1492,0.0048,0.0060,0.0065,0.0015
1493,0.0044,0.0067,0.0071,0.0017
1494,0.0044,0.0079,0.0080,0.0019
1495,0.0047,0.0087,0.0080,0.0023
1496,0.0055,0.0140,0.0110,0.0029
1497,0.0043,0.0144,0.0112,0.0098
1498,0.0037,0.0143,0.0143,0.0041
1499,0.0035,0.0118,0.0127,0.0030
1500,0.0040,0.0078,0.0059,0.0014
1501,0.0040,0.0078,0.0059,0.0014
1502,0.0053,0.0136,0.0094,0.0027
1503,0.0051,0.0144,0.0214,0.0257
1504,0.0029,0.0035,0.0036,0.0010
1505,0.0034,0.0050,0.0056,0.0009
1506,0.0029,0.0035,0.0036,0.0010
1507,0.0046,0.0059,0.0060,0.0015
1508,0.0024,0.0052,0.0067,0.0011
1509,0.0029,0.0035,0.0036,0.0010
1510,0.0029,0.0035,0.0036,0.0010
1511,0.0034,0.0050,0.0056,0.0009
1512,0.0029,0.0035,0.0036,0.0010
1513,0.0024,0.0052,0.0067,0.0011
1514,0.0051,0.0120,0.0187,0.0185
1515,0.0034,0.0050,0.0056,0.0009
1516,0.0029,0.0035,0.0036,0.0010
1517,0.0029,0.0035,0.0036,0.0010
1518,0.0034,0.0050,0.0056,0.0009
1519,0.0042,0.0088,0.0098,0.0018
1520,0.0029,0.0035,0.0036,0.0010
1521,0.0034,0.0050,0.0056,0.0009
1522,0.0029,0.0035,0.0036,0.0010
1523,0.0029,0.0035,0.0036,0.0010
1524,0.0024,0.0052,0.0067,0.0011
1525,0.0055,0.0118,0.0181,0.0143
1526,0.0040,0.0075,0.0082,0.0023
1527,0.0037,0.0062,0.0070,0.0018
1528,0.0038,0.0073,0.0092,0.0016
1529,0.0035,0.0048,0.0052,0.0014
1530,0.0043,0.0091,0.0109,0.0015
1531,0.0049,0.0085,0.0086,0.0020
1532,0.0034,0.0037,0.0047,0.0014
1533,0.0033,0.0059,0.0060,0.0013
1534,0.0034,0.0071,0.0076,0.0012
1535,0.0028,0.0072,0.0089,0.0009
1536,0.0060,0.0115,0.0183,0.0117
1537,0.0029,0.0040,0.0042,0.0009
1538,0.0030,0.0075,0.0087,0.0009
1539,0.0027,0.0057,0.0052,0.0010
1540,0.0032,0.0068,0.0065,0.0011
1541,0.0039,0.0129,0.0151,0.0014
1542,0.0046,0.0072,0.0071,0.0015
1543,0.0049,0.0078,0.0074,0.0023
1544,0.0049,0.0064,0.0067,0.0016
1545,0.0044,0.0063,0.0063,0.0017
1546,0.0043,0.0101,0.0102,0.0020
1547,0.0065,0.0111,0.0180,0.0113
1548,0.0051,0.0085,0.0084,0.0022
1549,0.0055,0.0131,0.0112,0.0029
1550,0.0041,0.0104,0.0079,0.0093
1551,0.0038,0.0182,0.0188,0.0048
1552,0.0033,0.0123,0.0129,0.0086
1553,0.0030,0.0098,0.0165,0.0209
1554,0.0034,0.0080,0.0112,0.0157
1555,0.0045,0.0073,0.0115,0.0164
1556,0.0049,0.0070,0.0113,0.0147
1557,0.0046,0.0076,0.0115,0.0137
1558,0.0040,0.0077,0.0066,0.0013
1559,0.0024,0.0071,0.0061,0.0010
1560,0.0024,0.0071,0.0061,0.0010
1561,0.0028,0.0071,0.0060,0.0009
1562,0.0025,0.0069,0.0077,0.0010
1563,0.0023,0.0076,0.0095,0.0011
1564,0.0030,0.0075,0.0083,0.0011
1565,0.0032,0.0109,0.0121,0.0013
1566,0.0033,0.0102,0.0108,0.0017
1567,0.0038,0.0109,0.0083,0.0019
1568,0.0034,0.0143,0.0128,0.0018
1569,0.0040,0.0077,0.0066,0.0013
1570,0.0037,0.0126,0.0094,0.0018
1571,0.0041,0.0149,0.0100,0.0016
1572,0.0041,0.0157,0.0101,0.0020
1573,0.0044,0.0187,0.0125,0.0038
1574,0.0029,0.0086,0.0110,0.0012
1575,0.0036,0.0230,0.0159,0.0109
1576,0.0032,0.0215,0.0172,0.0073
1577,0.0033,0.0201,0.0191,0.0049
1578,0.0029,0.0138,0.0108,0.0054
1579,0.0027,0.0153,0.0142,0.0071
1580,0.0040,0.0077,0.0066,0.0013
1581,0.0033,0.0113,0.0102,0.0041
1582,0.0031,0.0127,0.0118,0.0072
1583,0.0032,0.0113,0.0119,0.0064
1584,0.0031,0.0083,0.0110,0.0031
1585,0.0023,0.0125,0.0155,0.0023
1586,0.0032,0.0109,0.0121,0.0013
1587,0.0041,0.0096,0.0133,0.0019
1588,0.0028,0.0135,0.0105,0.0037
1589,0.0029,0.0111,0.0085,0.0027
1590,0.0030,0.0109,0.0121,0.0040
1591,0.0037,0.0071,0.0065,0.0014
1592,0.0033,0.0114,0.0104,0.0053
1593,0.0029,0.0158,0.0141,0.0078
1594,0.0030,0.0140,0.0116,0.0061
1595,0.0033,0.0185,0.0149,0.0077
1596,0.0036,0.0241,0.0198,0.0102
1597,0.0039,0.0220,0.0157,0.0094
1598,0.0033,0.0102,0.0108,0.0017
1599,0.0024,0.0071,0.0061,0.0010
1600,0.0028,0.0071,0.0060,0.0009
1601,0.0021,0.0085,0.0088,0.0013
1602,0.0034,0.0074,0.0066,0.0014
1603,0.0024,0.0071,0.0061,0.0010
1604,0.0028,0.0071,0.0060,0.0009
1605,0.0024,0.0071,0.0061,0.0010
1606,0.0024,0.0071,0.0061,0.0010
1607,0.0021,0.0085,0.0088,0.0013
1608,0.0024,0.0071,0.0061,0.0010
1609,0.0024,0.0071,0.0061,0.0010
1610,0.0038,0.0109,0.0083,0.0019
1611,0.0024,0.0071,0.0061,0.0010
1612,0.0021,0.0085,0.0088,0.0013
1613,0.0057,0.0165,0.0104,0.0028
1614,0.0039,0.0070,0.0069,0.0016
1615,0.0028,0.0071,0.0060,0.0009
1616,0.0024,0.0071,0.0061,0.0010
1617,0.0024,0.0071,0.0061,0.0010
1618,0.0028,0.0071,0.0060,0.0009
1619,0.0021,0.0085,0.0088,0.0013
1620,0.0024,0.0071,0.0061,0.0010
1621,0.0028,0.0071,0.0060,0.0009
1622,0.0024,0.0071,0.0061,0.0010
1623,0.0036,0.0116,0.0086,0.0018
1624,0.0021,0.0085,0.0088,0.0013
1625,0.0039,0.0088,0.0086,0.0020
1626,0.0024,0.0071,0.0061,0.0010
1627,0.0024,0.0071,0.0061,0.0010
1628,0.0028,0.0071,0.0060,0.0009
1629,0.0024,0.0071,0.0061,0.0010
1630,0.0021,0.0085,0.0088,0.0013
1631,0.0028,0.0071,0.0060,0.0009
1632,0.0024,0.0071,0.0061,0.0010
1633,0.0024,0.0071,0.0061,0.0010
1634,0.0028,0.0071,0.0060,0.0009
1635,0.0035,0.0145,0.0122,0.0019
1636,0.0045,0.0098,0.0087,0.0023
1637,0.0024,0.0071,0.0061,0.0010
1638,0.0028,0.0071,0.0060,0.0009
1639,0.0024,0.0071,0.0061,0.0010
1640,0.0024,0.0071,0.0061,0.0010
1641,0.0021,0.0085,0.0088,0.0013
1642,0.0037,0.0061,0.0092,0.0038
1643,0.0033,0.0059,0.0085,0.0024
1644,0.0033,0.0066,0.0095,0.0016
1645,0.0029,0.0059,0.0066,0.0011
1646,0.0034,0.0143,0.0128,0.0018
1647,0.0050,0.0102,0.0076,0.0025
1648,0.0041,0.0149,0.0100,0.0016
1649,0.0027,0.0063,0.0060,0.0012
1650,0.0026,0.0075,0.0068,0.0011
1651,0.0028,0.0071,0.0065,0.0011
1652,0.0022,0.0084,0.0096,0.0012
1653,0.0024,0.0076,0.0060,0.0010
1654,0.0027,0.0075,0.0086,0.0010
1655,0.0029,0.0076,0.0087,0.0011
1656,0.0032,0.0109,0.0121,0.0013
1657,0.0031,0.0157,0.0183,0.0016
1658,0.0049,0.0133,0.0105,0.0024
1659,0.0035,0.0097,0.0080,0.0018
1660,0.0041,0.0157,0.0101,0.0020
1661,0.0040,0.0111,0.0081,0.0018
1662,0.0037,0.0126,0.0094,0.0018
1663,0.0037,0.0174,0.0128,0.0017
1664,0.0043,0.0154,0.0099,0.0020
1665,0.0044,0.0187,0.0125,0.0038
1666,0.0036,0.0230,0.0159,0.0109
1667,0.0035,0.0254,0.0221,0.0078
1668,0.0028,0.0208,0.0183,0.0090
1669,0.0053,0.0130,0.0100,0.0025
1670,0.0035,0.0130,0.0217,0.0267
1671,0.0032,0.0112,0.0174,0.0181
1672,0.0033,0.0118,0.0155,0.0122
1673,0.0034,0.0120,0.0149,0.0089
1674,0.0031,0.0102,0.0132,0.0069
1675,0.0024,0.0064,0.0055,0.0008
1676,0.0024,0.0064,0.0055,0.0008
1677,0.0028,0.0065,0.0057,0.0008
1678,0.0024,0.0066,0.0070,0.0009
1679,0.0022,0.0073,0.0091,0.0010
1680,0.0057,0.0149,0.0101,0.0027
1681,0.0029,0.0065,0.0076,0.0011
1682,0.0030,0.0098,0.0110,0.0015
1683,0.0031,0.0093,0.0091,0.0018
1684,0.0038,0.0100,0.0080,0.0021
1685,0.0034,0.0137,0.0131,0.0016
1686,0.0037,0.0122,0.0099,0.0016
1687,0.0041,0.0133,0.0100,0.0016
1688,0.0041,0.0137,0.0094,0.0017
1689,0.0043,0.0172,0.0133,0.0029
1690,0.0028,0.0074,0.0100,0.0011
1691,0.0063,0.0149,0.0096,0.0030
1692,0.0036,0.0179,0.0135,0.0093
1693,0.0032,0.0185,0.0165,0.0070
1694,0.0033,0.0185,0.0189,0.0056
1695,0.0029,0.0116,0.0101,0.0076
1696,0.0026,0.0131,0.0136,0.0090
1697,0.0033,0.0088,0.0084,0.0043
1698,0.0029,0.0088,0.0080,0.0033
1699,0.0031,0.0097,0.0099,0.0038
1700,0.0030,0.0073,0.0090,0.0024
1701,0.0021,0.0122,0.0153,0.0019
1702,0.0069,0.0162,0.0117,0.0035
1703,0.0030,0.0098,0.0110,0.0015
1704,0.0036,0.0094,0.0121,0.0022
1705,0.0028,0.0098,0.0103,0.0037
1706,0.0028,0.0087,0.0076,0.0034
1707,0.0029,0.0101,0.0121,0.0051
1708,0.0033,0.0136,0.0132,0.0069
1709,0.0029,0.0172,0.0159,0.0092
1710,0.0029,0.0133,0.0112,0.0063
1711,0.0030,0.0173,0.0142,0.0082
1712,0.0029,0.0216,0.0191,0.0112
1713,0.0036,0.0072,0.0068,0.0016
1714,0.0035,0.0184,0.0161,0.0084
1715,0.0031,0.0093,0.0091,0.0018
1716,0.0024,0.0064,0.0055,0.0008
1717,0.0028,0.0065,0.0057,0.0008
1718,0.0021,0.0078,0.0081,0.0010
1719,0.0024,0.0064,0.0055,0.0008
1720,0.0028,0.0065,0.0057,0.0008
1721,0.0024,0.0064,0.0055,0.0008
1722,0.0024,0.0064,0.0055,0.0008
1723,0.0021,0.0078,0.0081,0.0010
1724,0.0063,0.0168,0.0102,0.0031
1725,0.0066,0.0256,0.0216,0.0119
1726,0.0024,0.0064,0.0055,0.0008
1727,0.0024,0.0064,0.0055,0.0008
1728,0.0038,0.0100,0.0080,0.0021
1729,0.0024,0.0064,0.0055,0.0008
1730,0.0021,0.0078,0.0081,0.0010
1731,0.0028,0.0065,0.0057,0.0008
1732,0.0024,0.0064,0.0055,0.0008
1733,0.0024,0.0064,0.0055,0.0008
1734,0.0028,0.0065,0.0057,0.0008
1735,0.0021,0.0078,0.0081,0.0010
1736,0.0063,0.0286,0.0274,0.0113
1737,0.0024,0.0064,0.0055,0.0008
1738,0.0028,0.0065,0.0057,0.0008
1739,0.0024,0.0064,0.0055,0.0008
1740,0.0036,0.0109,0.0087,0.0017
1741,0.0021,0.0078,0.0081,0.0010
1742,0.0024,0.0064,0.0055,0.0008
1743,0.0024,0.0064,0.0055,0.0008
1744,0.0028,0.0065,0.0057,0.0008
1745,0.0024,0.0064,0.0055,0.0008
1746,0.0021,0.0078,0.0081,0.0010
1747,0.0063,0.0255,0.0252,0.0097
1748,0.0028,0.0065,0.0057,0.0008
1749,0.0024,0.0064,0.0055,0.0008
1750,0.0024,0.0064,0.0055,0.0008
1751,0.0028,0.0065,0.0057,0.0008
1752,0.0035,0.0144,0.0128,0.0016
1753,0.0024,0.0064,0.0055,0.0008
1754,0.0028,0.0065,0.0057,0.0008
1755,0.0024,0.0064,0.0055,0.0008
1756,0.0024,0.0064,0.0055,0.0008
1757,0.0021,0.0078,0.0081,0.0010
1758,0.0064,0.0198,0.0177,0.0095
1759,0.0037,0.0061,0.0091,0.0034
1760,0.0033,0.0059,0.0087,0.0020
1761,0.0033,0.0057,0.0085,0.0014
1762,0.0029,0.0051,0.0065,0.0011
1763,0.0034,0.0137,0.0131,0.0016
1764,0.0041,0.0133,0.0100,0.0016
1765,0.0027,0.0055,0.0058,0.0011
1766,0.0026,0.0064,0.0066,0.0010
1767,0.0028,0.0062,0.0060,0.0010
1768,0.0022,0.0079,0.0094,0.0009
1769,0.0062,0.0206,0.0151,0.0138
1770,0.0024,0.0061,0.0048,0.0008
1771,0.0027,0.0072,0.0079,0.0009
1772,0.0028,0.0063,0.0075,0.0011
1773,0.0030,0.0098,0.0110,0.0015
1774,0.0029,0.0149,0.0168,0.0017
1775,0.0035,0.0089,0.0075,0.0019
1776,0.0041,0.0137,0.0094,0.0017
1777,0.0040,0.0103,0.0083,0.0018
1778,0.0037,0.0122,0.0099,0.0016
1779,0.0037,0.0157,0.0126,0.0017
1780,0.0066,0.0139,0.0099,0.0098
1781,0.0043,0.0132,0.0092,0.0017
1782,0.0043,0.0172,0.0133,0.0029
1783,0.0036,0.0179,0.0135,0.0093
1784,0.0035,0.0231,0.0218,0.0073
1785,0.0027,0.0179,0.0172,0.0099
1786,0.0034,0.0127,0.0208,0.0241
1787,0.0032,0.0106,0.0161,0.0160
1788,0.0035,0.0115,0.0146,0.0110
1789,0.0038,0.0106,0.0133,0.0085
1790,0.0033,0.0095,0.0122,0.0082
1791,0.0065,0.0116,0.0094,0.0091
1792,0.0024,0.0056,0.0058,0.0008
1793,0.0024,0.0056,0.0058,0.0008
1794,0.0028,0.0059,0.0060,0.0009
1795,0.0023,0.0063,0.0062,0.0009
1796,0.0022,0.0071,0.0083,0.0010
1797,0.0028,0.0063,0.0063,0.0010
1798,0.0027,0.0080,0.0086,0.0014
1799,0.0032,0.0099,0.0119,0.0019
1800,0.0040,0.0084,0.0077,0.0020
1801,0.0034,0.0116,0.0123,0.0019
1802,0.0065,0.0105,0.0106,0.0082
1803,0.0037,0.0076,0.0069,0.0017
1804,0.0040,0.0090,0.0074,0.0016
1805,0.0040,0.0116,0.0104,0.0017
1806,0.0043,0.0182,0.0159,0.0025
1807,0.0026,0.0070,0.0084,0.0012
1808,0.0037,0.0133,0.0106,0.0084
1809,0.0032,0.0127,0.0136,0.0057
1810,0.0033,0.0166,0.0188,0.0046
1811,0.0029,0.0095,0.0089,0.0075
1812,0.0026,0.0138,0.0148,0.0109
1813,0.0062,0.0088,0.0117,0.0062
1814,0.0034,0.0092,0.0094,0.0063
1815,0.0031,0.0067,0.0066,0.0042
1816,0.0032,0.0085,0.0082,0.0038
1817,0.0031,0.0067,0.0086,0.0026
1818,0.0021,0.0117,0.0155,0.0020
1819,0.0027,0.0080,0.0086,0.0014
1820,0.0035,0.0088,0.0120,0.0020
1821,0.0028,0.0079,0.0110,0.0038
1822,0.0027,0.0060,0.0063,0.0029
1823,0.0028,0.0112,0.0137,0.0048
1824,0.0052,0.0127,0.0135,0.0049
1825,0.0031,0.0122,0.0129,0.0054
1826,0.0027,0.0149,0.0154,0.0076
1827,0.0029,0.0104,0.0095,0.0051
1828,0.0029,0.0136,0.0120,0.0070
1829,0.0026,0.0203,0.0202,0.0122
1830,0.0035,0.0177,0.0202,0.0119
1831,0.0032,0.0099,0.0119,0.0019
1832,0.0024,0.0056,0.0058,0.0008
1833,0.0028,0.0059,0.0060,0.0009
1834,0.0021,0.0069,0.0081,0.0010
1835,0.0069,0.0192,0.0126,0.0042
1836,0.0039,0.0088,0.0086,0.0020
1837,0.0024,0.0056,0.0058,0.0008
1838,0.0028,0.0059,0.0060,0.0009
1839,0.0024,0.0056,0.0058,0.0008
1840,0.0024,0.0056,0.0058,0.0008
1841,0.0021,0.0069,0.0081,0.0010
1842,0.0024,0.0056,0.0058,0.0008
1843,0.0024,0.0056,0.0058,0.0008
1844,0.0040,0.0084,0.0077,0.0020
1845,0.0024,0.0056,0.0058,0.0008
1846,0.0021,0.0069,0.0081,0.0010
1847,0.0053,0.0120,0.0161,0.0031
1848,0.0028,0.0059,0.0060,0.0009
1849,0.0024,0.0056,0.0058,0.0008
1850,0.0024,0.0056,0.0058,0.0008
1851,0.0028,0.0059,0.0060,0.0009
1852,0.0021,0.0069,0.0081,0.0010
1853,0.0024,0.0056,0.0058,0.0008
1854,0.0028,0.0059,0.0060,0.0009
1855,0.0024,0.0056,0.0058,0.0008
1856,0.0037,0.0084,0.0073,0.0019
1857,0.0021,0.0069,0.0081,0.0010
1858,0.0043,0.0100,0.0108,0.0048
1859,0.0024,0.0056,0.0058,0.0008
1860,0.0024,0.0056,0.0058,0.0008
1861,0.0028,0.0059,0.0060,0.0009
1862,0.0024,0.0056,0.0058,0.0008
1863,0.0021,0.0069,0.0081,0.0010
1864,0.0028,0.0059,0.0060,0.0009
1865,0.0024,0.0056,0.0058,0.0008
1866,0.0024,0.0056,0.0058,0.0008
1867,0.0028,0.0059,0.0060,0.0009
1868,0.0035,0.0104,0.0108,0.0016
1869,0.0052,0.0095,0.0109,0.0034
1870,0.0024,0.0056,0.0058,0.0008
1871,0.0028,0.0059,0.0060,0.0009
1872,0.0024,0.0056,0.0058,0.0008
1873,0.0024,0.0056,0.0058,0.0008
1874,0.0021,0.0069,0.0081,0.0010
1875,0.0037,0.0074,0.0074,0.0025
1876,0.0033,0.0069,0.0073,0.0015
1877,0.0033,0.0066,0.0078,0.0013
1878,0.0030,0.0075,0.0076,0.0012
1879,0.0034,0.0116,0.0123,0.0019
1880,0.0057,0.0111,0.0118,0.0045
1881,0.0040,0.0090,0.0074,0.0016
1882,0.0028,0.0047,0.0060,0.0011
1883,0.0026,0.0047,0.0055,0.0010
1884,0.0027,0.0057,0.0058,0.0010
1885,0.0022,0.0077,0.0092,0.0008
1886,0.0024,0.0053,0.0049,0.0008
1887,0.0026,0.0073,0.0075,0.0009
1888,0.0027,0.0060,0.0061,0.0011
1889,0.0027,0.0080,0.0086,0.0014
1890,0.0029,0.0152,0.0182,0.0020
1891,0.0059,0.0144,0.0132,0.0058
1892,0.0036,0.0071,0.0070,0.0019
1893,0.0040,0.0116,0.0104,0.0017
1894,0.0040,0.0071,0.0064,0.0019
1895,0.0037,0.0076,0.0069,0.0017
1896,0.0036,0.0125,0.0116,0.0014
1897,0.0042,0.0110,0.0100,0.0018
1898,0.0043,0.0182,0.0159,0.0025
1899,0.0037,0.0133,0.0106,0.0084
1900,0.0035,0.0188,0.0199,0.0062
1901,0.0027,0.0155,0.0165,0.0091
1902,0.0051,0.0166,0.0153,0.0072
1903,0.0032,0.0115,0.0187,0.0208
1904,0.0033,0.0107,0.0149,0.0149
1905,0.0038,0.0097,0.0127,0.0125
1906,0.0041,0.0088,0.0113,0.0119
1907,0.0039,0.0088,0.0113,0.0116
1908,0.0023,0.0044,0.0048,0.0009
1909,0.0023,0.0044,0.0048,0.0009
1910,0.0027,0.0046,0.0049,0.0009
1911,0.0023,0.0058,0.0056,0.0009
1912,0.0022,0.0065,0.0078,0.0011
1913,0.0043,0.0211,0.0204,0.0088
1914,0.0028,0.0052,0.0053,0.0009
1915,0.0026,0.0074,0.0080,0.0012
1916,0.0033,0.0093,0.0109,0.0015
1917,0.0040,0.0080,0.0079,0.0016
1918,0.0035,0.0094,0.0114,0.0017
1919,0.0037,0.0066,0.0068,0.0017
1920,0.0040,0.0087,0.0086,0.0018
1921,0.0040,0.0103,0.0104,0.0020
1922,0.0043,0.0139,0.0119,0.0028
1923,0.0026,0.0058,0.0076,0.0011
1924,0.0041,0.0274,0.0252,0.0119
1925,0.0037,0.0123,0.0092,0.0088
1926,0.0031,0.0100,0.0117,0.0050
1927,0.0032,0.0153,0.0172,0.0048
1928,0.0029,0.0076,0.0072,0.0054
1929,0.0026,0.0137,0.0152,0.0092
1930,0.0033,0.0072,0.0081,0.0033
1931,0.0031,0.0067,0.0067,0.0035
1932,0.0032,0.0064,0.0064,0.0036
1933,0.0031,0.0051,0.0068,0.0025
1934,0.0021,0.0114,0.0154,0.0018
1935,0.0040,0.0267,0.0224,0.0121
1936,0.0026,0.0074,0.0080,0.0012
1937,0.0038,0.0087,0.0124,0.0016
1938,0.0027,0.0089,0.0131,0.0035
1939,0.0026,0.0056,0.0066,0.0025
1940,0.0026,0.0104,0.0136,0.0038
1941,0.0029,0.0109,0.0129,0.0047
1942,0.0026,0.0147,0.0161,0.0074
1943,0.0029,0.0084,0.0077,0.0049
1944,0.0028,0.0106,0.0100,0.0062
1945,0.0025,0.0185,0.0188,0.0105
1946,0.0036,0.0082,0.0074,0.0017
1947,0.0049,0.0251,0.0186,0.0123
1948,0.0035,0.0196,0.0209,0.0110
1949,0.0033,0.0093,0.0109,0.0015
1950,0.0023,0.0044,0.0048,0.0009
1951,0.0027,0.0046,0.0049,0.0009
1952,0.0020,0.0058,0.0074,0.0011
1953,0.0023,0.0044,0.0048,0.0009
1954,0.0027,0.0046,0.0049,0.0009
1955,0.0023,0.0044,0.0048,0.0009
1956,0.0023,0.0044,0.0048,0.0009
1957,0.0020,0.0058,0.0074,0.0011
1958,0.0045,0.0098,0.0087,0.0023
1959,0.0023,0.0044,0.0048,0.0009
1960,0.0023,0.0044,0.0048,0.0009
1961,0.0040,0.0080,0.0079,0.0016
1962,0.0023,0.0044,0.0048,0.0009
1963,0.0020,0.0058,0.0074,0.0011
1964,0.0027,0.0046,0.0049,0.0009
1965,0.0023,0.0044,0.0048,0.0009
1966,0.0023,0.0044,0.0048,0.0009
1967,0.0027,0.0046,0.0049,0.0009
1968,0.0020,0.0058,0.0074,0.0011
1969,0.0040,0.0077,0.0066,0.0013
1970,0.0023,0.0044,0.0048,0.0009
1971,0.0027,0.0046,0.0049,0.0009
1972,0.0023,0.0044,0.0048,0.0009
1973,0.0037,0.0057,0.0058,0.0016
1974,0.0020,0.0058,0.0074,0.0011
1975,0.0023,0.0044,0.0048,0.0009
1976,0.0023,0.0044,0.0048,0.0009
1977,0.0027,0.0046,0.0049,0.0009
1978,0.0023,0.0044,0.0048,0.0009
1979,0.0020,0.0058,0.0074,0.0011
1980,0.0040,0.0077,0.0066,0.0013
1981,0.0027,0.0046,0.0049,0.0009
1982,0.0023,0.0044,0.0048,0.0009
1983,0.0023,0.0044,0.0048,0.0009
1984,0.0027,0.0046,0.0049,0.0009
1985,0.0035,0.0094,0.0106,0.0018
1986,0.0023,0.0044,0.0048,0.0009
1987,0.0027,0.0046,0.0049,0.0009
1988,0.0023,0.0044,0.0048,0.0009
1989,0.0023,0.0044,0.0048,0.0009
1990,0.0020,0.0058,0.0074,0.0011
1991,0.0036,0.0079,0.0075,0.0014
1992,0.0037,0.0070,0.0088,0.0021
1993,0.0033,0.0083,0.0066,0.0013
1994,0.0033,0.0071,0.0078,0.0013
1995,0.0029,0.0069,0.0055,0.0012
1996,0.0035,0.0094,0.0114,0.0017
1997,0.0040,0.0087,0.0086,0.0018
1998,0.0028,0.0050,0.0058,0.0011
1999,0.0027,0.0055,0.0067,0.0010
2000,0.0028,0.0050,0.0059,0.0011
2001,0.0022,0.0065,0.0089,0.0008
2002,0.0040,0.0077,0.0066,0.0013
2003,0.0024,0.0040,0.0042,0.0008
2004,0.0026,0.0067,0.0070,0.0008
2005,0.0027,0.0046,0.0048,0.0010
2006,0.0026,0.0074,0.0080,0.0012
2007,0.0030,0.0149,0.0178,0.0016
2008,0.0037,0.0065,0.0070,0.0015
2009,0.0040,0.0103,0.0104,0.0020
2010,0.0040,0.0055,0.0054,0.0016
2011,0.0037,0.0066,0.0068,0.0017
2012,0.0036,0.0112,0.0115,0.0018
2013,0.0040,0.0077,0.0066,0.0013
2014,0.0042,0.0102,0.0104,0.0020
2015,0.0043,0.0139,0.0119,0.0028
2016,0.0037,0.0123,0.0092,0.0088
2017,0.0034,0.0168,0.0180,0.0055
2018,0.0027,0.0137,0.0148,0.0084
2019,0.0032,0.0104,0.0176,0.0209
2020,0.0031,0.0091,0.0129,0.0151
2021,0.0038,0.0085,0.0131,0.0162
2022,0.0044,0.0085,0.0124,0.0154
2023,0.0040,0.0094,0.0122,0.0142
2024,0.0040,0.0077,0.0066,0.0013
2025,0.0023,0.0038,0.0043,0.0009
2026,0.0023,0.0038,0.0043,0.0009
2027,0.0027,0.0041,0.0043,0.0009
2028,0.0023,0.0060,0.0066,0.0010
2029,0.0022,0.0067,0.0085,0.0011
2030,0.0028,0.0054,0.0055,0.0008
2031,0.0027,0.0073,0.0077,0.0011
2032,0.0034,0.0074,0.0087,0.0013
2033,0.0040,0.0088,0.0086,0.0015
2034,0.0035,0.0104,0.0128,0.0014
2035,0.0040,0.0077,0.0066,0.0013
2036,0.0037,0.0068,0.0075,0.0015
2037,0.0040,0.0077,0.0077,0.0017
2038,0.0040,0.0082,0.0082,0.0022
2039,0.0044,0.0142,0.0122,0.0029
2040,0.0026,0.0068,0.0080,0.0010
2041,0.0037,0.0138,0.0103,0.0101
2042,0.0031,0.0073,0.0085,0.0043
2043,0.0032,0.0119,0.0134,0.0032
2044,0.0028,0.0076,0.0072,0.0052
2045,0.0025,0.0153,0.0169,0.0092
2046,0.0036,0.0079,0.0075,0.0014
2047,0.0032,0.0071,0.0080,0.0024
2048,0.0030,0.0057,0.0063,0.0032
2049,0.0031,0.0061,0.0061,0.0036
2050,0.0031,0.0053,0.0070,0.0024
2051,0.0021,0.0111,0.0160,0.0018
2052,0.0027,0.0073,0.0077,0.0011
2053,0.0039,0.0104,0.0149,0.0016
2054,0.0027,0.0095,0.0140,0.0035
2055,0.0026,0.0055,0.0069,0.0025
2056,0.0026,0.0106,0.0139,0.0037
2057,0.0066,0.0305,0.0242,0.0144
2058,0.0040,0.0077,0.0066,0.0013
2059,0.0028,0.0110,0.0136,0.0048
2060,0.0026,0.0153,0.0170,0.0078
2061,0.0029,0.0091,0.0088,0.0058
2062,0.0029,0.0098,0.0093,0.0063
2063,0.0025,0.0187,0.0187,0.0103
2064,0.0036,0.0222,0.0224,0.0115
2065,0.0034,0.0074,0.0087,0.0013
2066,0.0023,0.0038,0.0043,0.0009
2067,0.0027,0.0041,0.0043,0.0009
2068,0.0020,0.0053,0.0070,0.0011
2069,0.0040,0.0077,0.0066,0.0013
2070,0.0023,0.0038,0.0043,0.0009
2071,0.0027,0.0041,0.0043,0.0009
2072,0.0023,0.0038,0.0043,0.0009
2073,0.0023,0.0038,0.0043,0.0009
2074,0.0020,0.0053,0.0070,0.0011
2075,0.0023,0.0038,0.0043,0.0009
2076,0.0023,0.0038,0.0043,0.0009
2077,0.0040,0.0088,0.0086,0.0015
2078,0.0023,0.0038,0.0043,0.0009
2079,0.0020,0.0053,0.0070,0.0011
2080,0.0050,0.0102,0.0076,0.0025
2081,0.0027,0.0041,0.0043,0.0009
2082,0.0023,0.0038,0.0043,0.0009
2083,0.0023,0.0038,0.0043,0.0009
2084,0.0027,0.0041,0.0043,0.0009
2085,0.0020,0.0053,0.0070,0.0011
2086,0.0023,0.0038,0.0043,0.0009
2087,0.0027,0.0041,0.0043,0.0009
2088,0.0023,0.0038,0.0043,0.0009
2089,0.0037,0.0066,0.0073,0.0014
2090,0.0020,0.0053,0.0070,0.0011
2091,0.0040,0.0077,0.0066,0.0013
2092,0.0023,0.0038,0.0043,0.0009
2093,0.0023,0.0038,0.0043,0.0009
2094,0.0027,0.0041,0.0043,0.0009
2095,0.0023,0.0038,0.0043,0.0009
2096,0.0020,0.0053,0.0070,0.0011
2097,0.0027,0.0041,0.0043,0.0009
2098,0.0023,0.0038,0.0043,0.0009
2099,0.0023,0.0038,0.0043,0.0009
2100,0.0027,0.0041,0.0043,0.0009
2101,0.0035,0.0097,0.0112,0.0016
2102,0.0036,0.0079,0.0075,0.0014
2103,0.0023,0.0038,0.0043,0.0009
2104,0.0027,0.0041,0.0043,0.0009
2105,0.0023,0.0038,0.0043,0.0009
2106,0.0023,0.0038,0.0043,0.0009
2107,0.0020,0.0053,0.0070,0.0011
2108,0.0036,0.0075,0.0089,0.0019
2109,0.0032,0.0063,0.0078,0.0014
2110,0.0033,0.0067,0.0086,0.0013
2111,0.0030,0.0049,0.0064,0.0012
2112,0.0035,0.0104,0.0128,0.0014
2113,0.0040,0.0077,0.0066,0.0013
2114,0.0040,0.0077,0.0077,0.0017
2115,0.0028,0.0036,0.0059,0.0011
2116,0.0027,0.0055,0.0061,0.0011
2117,0.0028,0.0061,0.0060,0.0010
2118,0.0022,0.0072,0.0091,0.0008
2119,0.0023,0.0039,0.0043,0.0008
2120,0.0026,0.0068,0.0078,0.0009
2121,0.0027,0.0054,0.0052,0.0009
2122,0.0027,0.0073,0.0077,0.0011
2123,0.0031,0.0137,0.0164,0.0014
2124,0.0040,0.0077,0.0066,0.0013
2125,0.0037,0.0075,0.0078,0.0014
2126,0.0040,0.0082,0.0082,0.0022
2127,0.0041,0.0056,0.0060,0.0014
2128,0.0037,0.0068,0.0075,0.0015
2129,0.0036,0.0108,0.0114,0.0018
2130,0.0042,0.0079,0.0078,0.0021
2131,0.0044,0.0142,0.0122,0.0029
2132,0.0037,0.0138,0.0103,0.0101
2133,0.0034,0.0149,0.0155,0.0044
2134,0.0027,0.0123,0.0130,0.0084
2135,0.0040,0.0077,0.0066,0.0013
2136,0.0032,0.0103,0.0182,0.0223
2137,0.0030,0.0083,0.0123,0.0156
2138,0.0039,0.0080,0.0131,0.0171
2139,0.0044,0.0086,0.0137,0.0172
2140,0.0040,0.0099,0.0139,0.0158
2141,0.0023,0.0071,0.0059,0.0010
2142,0.0023,0.0071,0.0059,0.0010
2143,0.0027,0.0071,0.0057,0.0009
2144,0.0026,0.0069,0.0074,0.0010
2145,0.0026,0.0076,0.0093,0.0011
2146,0.0040,0.0077,0.0066,0.0013
2147,0.0032,0.0076,0.0077,0.0011
2148,0.0034,0.0110,0.0114,0.0015
2149,0.0032,0.0100,0.0096,0.0019
2150,0.0035,0.0111,0.0087,0.0021
2151,0.0033,0.0151,0.0137,0.0020
2152,0.0037,0.0130,0.0107,0.0019
2153,0.0043,0.0144,0.0103,0.0016
2154,0.0045,0.0155,0.0098,0.0018
2155,0.0045,0.0181,0.0122,0.0036
2156,0.0033,0.0088,0.0103,0.0012
2157,0.0036,0.0079,0.0075,0.0014
2158,0.0034,0.0237,0.0177,0.0121
2159,0.0031,0.0227,0.0196,0.0089
2160,0.0031,0.0207,0.0207,0.0065
2161,0.0028,0.0137,0.0114,0.0061
2162,0.0026,0.0146,0.0139,0.0073
2163,0.0030,0.0093,0.0082,0.0031
2164,0.0029,0.0096,0.0084,0.0062
2165,0.0031,0.0089,0.0087,0.0059
2166,0.0030,0.0074,0.0089,0.0031
2167,0.0024,0.0125,0.0153,0.0024
2168,0.0063,0.0312,0.0280,0.0122
2169,0.0040,0.0077,0.0066,0.0013
2170,0.0034,0.0110,0.0114,0.0015
2171,0.0041,0.0097,0.0140,0.0021
2172,0.0028,0.0136,0.0101,0.0038
2173,0.0029,0.0118,0.0087,0.0027
2174,0.0030,0.0114,0.0118,0.0039
2175,0.0033,0.0108,0.0094,0.0046
2176,0.0029,0.0152,0.0134,0.0071
2177,0.0030,0.0154,0.0130,0.0060
2178,0.0034,0.0196,0.0159,0.0080
2179,0.0037,0.0248,0.0202,0.0107
2180,0.0040,0.0077,0.0066,0.0013
2181,0.0040,0.0216,0.0152,0.0097
2182,0.0032,0.0100,0.0096,0.0019
2183,0.0023,0.0071,0.0059,0.0010
2184,0.0027,0.0071,0.0057,0.0009
2185,0.0021,0.0088,0.0085,0.0012
2186,0.0023,0.0071,0.0059,0.0010
2187,0.0027,0.0071,0.0057,0.0009
2188,0.0023,0.0071,0.0059,0.0010
2189,0.0023,0.0071,0.0059,0.0010
2190,0.0021,0.0088,0.0085,0.0012
2191,0.0040,0.0077,0.0066,0.0013
2192,0.0023,0.0071,0.0059,0.0010
2193,0.0023,0.0071,0.0059,0.0010
2194,0.0035,0.0111,0.0087,0.0021
2195,0.0023,0.0071,0.0059,0.0010
2196,0.0021,0.0088,0.0085,0.0012
2197,0.0027,0.0071,0.0057,0.0009
2198,0.0023,0.0071,0.0059,0.0010
2199,0.0023,0.0071,0.0059,0.0010
2200,0.0027,0.0071,0.0057,0.0009
2201,0.0021,0.0088,0.0085,0.0012
2202,0.0052,0.0118,0.0086,0.0025
2203,0.0023,0.0071,0.0059,0.0010
2204,0.0027,0.0071,0.0057,0.0009
2205,0.0023,0.0071,0.0059,0.0010
2206,0.0034,0.0122,0.0090,0.0019
2207,0.0021,0.0088,0.0085,0.0012
2208,0.0023,0.0071,0.0059,0.0010
2209,0.0023,0.0071,0.0059,0.0010
2210,0.0027,0.0071,0.0057,0.0009
2211,0.0023,0.0071,0.0059,0.0010
2212,0.0021,0.0088,0.0085,0.0012
2213,0.0036,0.0079,0.0075,0.0014
2214,0.0027,0.0071,0.0057,0.0009
2215,0.0023,0.0071,0.0059,0.0010
2216,0.0023,0.0071,0.0059,0.0010
2217,0.0027,0.0071,0.0057,0.0009
2218,0.0036,0.0154,0.0136,0.0019
2219,0.0023,0.0071,0.0059,0.0010
2220,0.0027,0.0071,0.0057,0.0009
2221,0.0023,0.0071,0.0059,0.0010
2222,0.0023,0.0071,0.0059,0.0010
2223,0.0021,0.0088,0.0085,0.0012
2224,0.0040,0.0077,0.0066,0.0013
2225,0.0043,0.0060,0.0096,0.0037
2226,0.0037,0.0060,0.0091,0.0023
2227,0.0035,0.0068,0.0105,0.0014
2228,0.0030,0.0057,0.0070,0.0010
2229,0.0033,0.0151,0.0137,0.0020
2230,0.0043,0.0144,0.0103,0.0016
2231,0.0027,0.0062,0.0059,0.0012
2232,0.0026,0.0074,0.0068,0.0012
2233,0.0028,0.0072,0.0065,0.0011
2234,0.0022,0.0087,0.0097,0.0012
2235,0.0040,0.0077,0.0066,0.0013
2236,0.0023,0.0078,0.0057,0.0010
2237,0.0027,0.0077,0.0085,0.0010
2238,0.0033,0.0076,0.0080,0.0012
2239,0.0034,0.0110,0.0114,0.0015
2240,0.0032,0.0156,0.0176,0.0018
2241,0.0033,0.0105,0.0081,0.0020
2242,0.0045,0.0155,0.0098,0.0018
2243,0.0037,0.0116,0.0087,0.0020
2244,0.0037,0.0130,0.0107,0.0019
2245,0.0040,0.0173,0.0131,0.0017
2246,0.0040,0.0077,0.0066,0.0013
2247,0.0047,0.0150,0.0095,0.0018
2248,0.0045,0.0181,0.0122,0.0036
2249,0.0034,0.0237,0.0177,0.0121
2250,0.0034,0.0269,0.0249,0.0103
2251,0.0028,0.0208,0.0190,0.0095
2252,0.0039,0.0122,0.0237,0.0293
2253,0.0033,0.0110,0.0212,0.0218
2254,0.0030,0.0115,0.0193,0.0158
2255,0.0029,0.0118,0.0179,0.0118
2256,0.0029,0.0105,0.0146,0.0082
2257,0.0040,0.0077,0.0066,0.0013
2258,0.0023,0.0065,0.0055,0.0008
2259,0.0023,0.0065,0.0055,0.0008
2260,0.0027,0.0068,0.0057,0.0008
2261,0.0025,0.0066,0.0068,0.0009
2262,0.0025,0.0074,0.0088,0.0010
2263,0.0032,0.0067,0.0073,0.0011
2264,0.0031,0.0098,0.0104,0.0016
2265,0.0030,0.0094,0.0086,0.0019
2266,0.0035,0.0102,0.0080,0.0022
2267,0.0032,0.0141,0.0138,0.0019
2268,0.0036,0.0079,0.0075,0.0014
2269,0.0037,0.0127,0.0108,0.0017
2270,0.0042,0.0131,0.0102,0.0016
2271,0.0044,0.0133,0.0092,0.0015
2272,0.0044,0.0169,0.0132,0.0027
2273,0.0032,0.0074,0.0093,0.0012
2274,0.0034,0.0190,0.0152,0.0098
2275,0.0031,0.0202,0.0192,0.0084
2276,0.0031,0.0196,0.0211,0.0066
2277,0.0027,0.0124,0.0111,0.0074
2278,0.0024,0.0147,0.0146,0.0096
2279,0.0063,0.0267,0.0247,0.0096
2280,0.0040,0.0077,0.0066,0.0013
2281,0.0030,0.0106,0.0098,0.0049
2282,0.0027,0.0076,0.0068,0.0035
2283,0.0029,0.0082,0.0079,0.0041
2284,0.0029,0.0069,0.0081,0.0027
2285,0.0022,0.0123,0.0154,0.0021
2286,0.0031,0.0098,0.0104,0.0016
2287,0.0035,0.0094,0.0128,0.0023
2288,0.0029,0.0098,0.0098,0.0038
2289,0.0028,0.0093,0.0080,0.0032
2290,0.0029,0.0102,0.0117,0.0048
2291,0.0040,0.0077,0.0066,0.0013
2292,0.0033,0.0124,0.0116,0.0060
2293,0.0028,0.0162,0.0148,0.0082
2294,0.0029,0.0145,0.0125,0.0062
2295,0.0031,0.0186,0.0156,0.0085
2296,0.0031,0.0224,0.0196,0.0113
2297,0.0035,0.0183,0.0161,0.0082
2298,0.0030,0.0094,0.0086,0.0019
2299,0.0023,0.0065,0.0055,0.0008
2300,0.0027,0.0068,0.0057,0.0008
2301,0.0021,0.0081,0.0081,0.0010
2302,0.0040,0.0077,0.0066,0.0013
2303,0.0023,0.0065,0.0055,0.0008
2304,0.0027,0.0068,0.0057,0.0008
2305,0.0023,0.0065,0.0055,0.0008
2306,0.0023,0.0065,0.0055,0.0008
2307,0.0021,0.0081,0.0081,0.0010
2308,0.0023,0.0065,0.0055,0.0008
2309,0.0023,0.0065,0.0055,0.0008
2310,0.0035,0.0102,0.0080,0.0022
2311,0.0023,0.0065,0.0055,0.0008
2312,0.0021,0.0081,0.0081,0.0010
2313,0.0040,0.0077,0.0066,0.0013
2314,0.0027,0.0068,0.0057,0.0008
2315,0.0023,0.0065,0.0055,0.0008
2316,0.0023,0.0065,0.0055,0.0008
2317,0.0027,0.0068,0.0057,0.0008
2318,0.0021,0.0081,0.0081,0.0010
2319,0.0023,0.0065,0.0055,0.0008
2320,0.0027,0.0068,0.0057,0.0008
2321,0.0023,0.0065,0.0055,0.0008
2322,0.0034,0.0114,0.0091,0.0019
2323,0.0021,0.0081,0.0081,0.0010
2324,0.0051,0.0151,0.0122,0.0024
2325,0.0023,0.0065,0.0055,0.0008
2326,0.0023,0.0065,0.0055,0.0008
2327,0.0027,0.0068,0.0057,0.0008
2328,0.0023,0.0065,0.0055,0.0008
2329,0.0021,0.0081,0.0081,0.0010
2330,0.0027,0.0068,0.0057,0.0008
2331,0.0023,0.0065,0.0055,0.0008
2332,0.0023,0.0065,0.0055,0.0008
2333,0.0027,0.0068,0.0057,0.0008
2334,0.0035,0.0150,0.0139,0.0017
2335,0.0040,0.0077,0.0066,0.0013
2336,0.0023,0.0065,0.0055,0.0008
2337,0.0027,0.0068,0.0057,0.0008
2338,0.0023,0.0065,0.0055,0.0008
2339,0.0023,0.0065,0.0055,0.0008
2340,0.0021,0.0081,0.0081,0.0010
2341,0.0043,0.0062,0.0099,0.0033
2342,0.0037,0.0064,0.0096,0.0020
2343,0.0035,0.0061,0.0093,0.0013
2344,0.0030,0.0052,0.0070,0.0011
2345,0.0032,0.0141,0.0138,0.0019
2346,0.0040,0.0077,0.0066,0.0013
2347,0.0042,0.0131,0.0102,0.0016
2348,0.0027,0.0058,0.0063,0.0011
2349,0.0026,0.0062,0.0066,0.0010
2350,0.0027,0.0064,0.0063,0.0010
2351,0.0022,0.0082,0.0095,0.0009
2352,0.0023,0.0064,0.0051,0.0008
2353,0.0027,0.0074,0.0079,0.0009
2354,0.0032,0.0064,0.0073,0.0011
2355,0.0031,0.0098,0.0104,0.0016
2356,0.0029,0.0152,0.0168,0.0019
2357,0.0040,0.0077,0.0066,0.0013
2358,0.0032,0.0093,0.0075,0.0021
2359,0.0044,0.0133,0.0092,0.0015
2360,0.0037,0.0108,0.0089,0.0020
2361,0.0037,0.0127,0.0108,0.0017
2362,0.0039,0.0158,0.0130,0.0016
2363,0.0046,0.0127,0.0088,0.0016
2364,0.0044,0.0169,0.0132,0.0027
2365,0.0034,0.0190,0.0152,0.0098
2366,0.0033,0.0253,0.0250,0.0098
2367,0.0027,0.0189,0.0186,0.0100
2368,0.0040,0.0077,0.0066,0.0013
2369,0.0038,0.0122,0.0232,0.0268
2370,0.0032,0.0105,0.0199,0.0192
2371,0.0030,0.0118,0.0193,0.0149
2372,0.0030,0.0116,0.0176,0.0115
2373,0.0029,0.0105,0.0140,0.0089
2374,0.0023,0.0057,0.0059,0.0009
2375,0.0023,0.0057,0.0059,0.0009
2376,0.0026,0.0059,0.0061,0.0009
2377,0.0025,0.0062,0.0060,0.0009
2378,0.0024,0.0070,0.0080,0.0010
2379,0.0036,0.0079,0.0075,0.0014
2380,0.0031,0.0064,0.0063,0.0010
2381,0.0028,0.0080,0.0088,0.0014
2382,0.0029,0.0099,0.0120,0.0018
2383,0.0035,0.0086,0.0080,0.0020
2384,0.0032,0.0120,0.0129,0.0019
2385,0.0036,0.0079,0.0073,0.0018
2386,0.0041,0.0089,0.0076,0.0016
2387,0.0042,0.0114,0.0104,0.0016
2388,0.0042,0.0165,0.0147,0.0023
2389,0.0031,0.0069,0.0084,0.0012
2390,0.0064,0.0205,0.0174,0.0091
2391,0.0081,0.0073,0.0145,0.0037
2392,0.0034,0.0132,0.0116,0.0074
2393,0.0030,0.0149,0.0168,0.0069
2394,0.0031,0.0187,0.0219,0.0068
2395,0.0027,0.0102,0.0100,0.0061
2396,0.0023,0.0148,0.0151,0.0102
2397,0.0029,0.0099,0.0098,0.0056
2398,0.0027,0.0067,0.0071,0.0043
2399,0.0028,0.0078,0.0077,0.0042
2400,0.0029,0.0062,0.0081,0.0028
2401,0.0021,0.0120,0.0157,0.0021
2402,0.0077,0.0070,0.0138,0.0026
2403,0.0028,0.0080,0.0088,0.0014
2404,0.0033,0.0087,0.0120,0.0020
2405,0.0029,0.0080,0.0102,0.0038
2406,0.0027,0.0065,0.0066,0.0027
2407,0.0028,0.0104,0.0127,0.0043
2408,0.0030,0.0105,0.0108,0.0046
2409,0.0027,0.0134,0.0137,0.0067
2410,0.0029,0.0114,0.0107,0.0053
2411,0.0030,0.0147,0.0132,0.0072
2412,0.0028,0.0203,0.0200,0.0116
2413,0.0074,0.0063,0.0121,0.0022
2414,0.0033,0.0176,0.0198,0.0107
2415,0.0029,0.0099,0.0120,0.0018
2416,0.0023,0.0057,0.0059,0.0009
2417,0.0026,0.0059,0.0061,0.0009
2418,0.0020,0.0073,0.0082,0.0010
2419,0.0023,0.0057,0.0059,0.0009
2420,0.0026,0.0059,0.0061,0.0009
2421,0.0023,0.0057,0.0059,0.0009
2422,0.0023,0.0057,0.0059,0.0009
2423,0.0020,0.0073,0.0082,0.0010
2424,0.0072,0.0060,0.0104,0.0022
2425,0.0023,0.0057,0.0059,0.0009
2426,0.0023,0.0057,0.0059,0.0009
2427,0.0035,0.0086,0.0080,0.0020
2428,0.0023,0.0057,0.0059,0.0009
2429,0.0020,0.0073,0.0082,0.0010
2430,0.0026,0.0059,0.0061,0.0009
2431,0.0023,0.0057,0.0059,0.0009
2432,0.0023,0.0057,0.0059,0.0009
2433,0.0026,0.0059,0.0061,0.0009
2434,0.0020,0.0073,0.0082,0.0010
2435,0.0049,0.0133,0.0105,0.0024
2436,0.0023,0.0057,0.0059,0.0009
2437,0.0026,0.0059,0.0061,0.0009
2438,0.0023,0.0057,0.0059,0.0009
2439,0.0034,0.0086,0.0076,0.0019
2440,0.0020,0.0073,0.0082,0.0010
2441,0.0023,0.0057,0.0059,0.0009
2442,0.0023,0.0057,0.0059,0.0009
2443,0.0026,0.0059,0.0061,0.0009
2444,0.0023,0.0057,0.0059,0.0009
2445,0.0020,0.0073,0.0082,0.0010
2446,0.0057,0.0149,0.0101,0.0027
2447,0.0026,0.0059,0.0061,0.0009
2448,0.0023,0.0057,0.0059,0.0009
2449,0.0023,0.0057,0.0059,0.0009
2450,0.0026,0.0059,0.0061,0.0009
2451,0.0035,0.0108,0.0112,0.0017
2452,0.0023,0.0057,0.0059,0.0009
2453,0.0026,0.0059,0.0061,0.0009
2454,0.0023,0.0057,0.0059,0.0009
2455,0.0023,0.0057,0.0059,0.0009
2456,0.0020,0.0073,0.0082,0.0010
2457,0.0067,0.0072,0.0093,0.0021
2458,0.0043,0.0079,0.0080,0.0024
2459,0.0036,0.0073,0.0078,0.0015
2460,0.0034,0.0075,0.0088,0.0013
2461,0.0030,0.0078,0.0077,0.0012
2462,0.0032,0.0120,0.0129,0.0019
2463,0.0041,0.0089,0.0076,0.0016
2464,0.0028,0.0050,0.0063,0.0011
2465,0.0026,0.0048,0.0056,0.0010
2466,0.0027,0.0060,0.0063,0.0010
2467,0.0022,0.0079,0.0095,0.0008
2468,0.0062,0.0071,0.0082,0.0017
2469,0.0023,0.0056,0.0052,0.0008
2470,0.0026,0.0071,0.0073,0.0009
2471,0.0030,0.0060,0.0060,0.0011
2472,0.0028,0.0080,0.0088,0.0014
2473,0.0026,0.0155,0.0184,0.0019
2474,0.0032,0.0074,0.0071,0.0019
2475,0.0042,0.0114,0.0104,0.0016
2476,0.0037,0.0077,0.0065,0.0020
2477,0.0036,0.0079,0.0073,0.0018
2478,0.0038,0.0124,0.0117,0.0014
2479,0.0056,0.0072,0.0080,0.0013
2480,0.0044,0.0114,0.0104,0.0016
2481,0.0042,0.0165,0.0147,0.0023
2482,0.0034,0.0132,0.0116,0.0074
2483,0.0033,0.0215,0.0235,0.0090
2484,0.0027,0.0165,0.0181,0.0089
2485,0.0033,0.0119,0.0207,0.0222
2486,0.0031,0.0119,0.0190,0.0160
2487,0.0029,0.0111,0.0170,0.0123
2488,0.0031,0.0102,0.0152,0.0119
2489,0.0031,0.0098,0.0132,0.0109
2490,0.0047,0.0089,0.0099,0.0014
2491,0.0023,0.0043,0.0047,0.0009
2492,0.0023,0.0043,0.0047,0.0009
2493,0.0026,0.0045,0.0049,0.0008
2494,0.0025,0.0057,0.0055,0.0008
2495,0.0025,0.0064,0.0077,0.0010
2496,0.0031,0.0050,0.0054,0.0008
2497,0.0027,0.0074,0.0081,0.0011
2498,0.0029,0.0095,0.0113,0.0014
2499,0.0035,0.0081,0.0082,0.0016
2500,0.0032,0.0099,0.0119,0.0016
2501,0.0062,0.0213,0.0157,0.0125
2502,0.0044,0.0076,0.0068,0.0013
2503,0.0036,0.0068,0.0071,0.0016
2504,0.0041,0.0088,0.0087,0.0016
2505,0.0041,0.0104,0.0106,0.0018
2506,0.0041,0.0123,0.0114,0.0026
2507,0.0031,0.0057,0.0076,0.0010
2508,0.0034,0.0098,0.0080,0.0061
2509,0.0030,0.0124,0.0146,0.0061
2510,0.0031,0.0174,0.0199,0.0069
2511,0.0027,0.0073,0.0076,0.0043
2512,0.0023,0.0141,0.0148,0.0083
2513,0.0037,0.0071,0.0065,0.0014
2514,0.0029,0.0072,0.0082,0.0026
2515,0.0027,0.0069,0.0070,0.0037
2516,0.0028,0.0063,0.0067,0.0040
2517,0.0029,0.0052,0.0069,0.0027
2518,0.0021,0.0116,0.0156,0.0020
2519,0.0027,0.0074,0.0081,0.0011
2520,0.0035,0.0083,0.0115,0.0017
2521,0.0027,0.0083,0.0117,0.0036
2522,0.0026,0.0054,0.0060,0.0027
2523,0.0026,0.0093,0.0122,0.0037
2524,0.0039,0.0070,0.0069,0.0016
2525,0.0028,0.0091,0.0106,0.0041
2526,0.0026,0.0124,0.0137,0.0065
2527,0.0029,0.0084,0.0076,0.0044
2528,0.0030,0.0109,0.0104,0.0061
2529,0.0027,0.0183,0.0184,0.0099
2530,0.0034,0.0192,0.0203,0.0096
2531,0.0029,0.0095,0.0113,0.0014
2532,0.0023,0.0043,0.0047,0.0009
2533,0.0026,0.0045,0.0049,0.0008
2534,0.0020,0.0057,0.0074,0.0010
2535,0.0039,0.0088,0.0086,0.0020
2536,0.0023,0.0043,0.0047,0.0009
2537,0.0026,0.0045,0.0049,0.0008
2538,0.0023,0.0043,0.0047,0.0009
2539,0.0023,0.0043,0.0047,0.0009
2540,0.0020,0.0057,0.0074,0.0010
2541,0.0023,0.0043,0.0047,0.0009
2542,0.0023,0.0043,0.0047,0.0009
2543,0.0035,0.0081,0.0082,0.0016
2544,0.0023,0.0043,0.0047,0.0009
2545,0.0020,0.0057,0.0074,0.0010
2546,0.0042,0.0130,0.0126,0.0023
2547,0.0026,0.0045,0.0049,0.0008
2548,0.0023,0.0043,0.0047,0.0009
2549,0.0023,0.0043,0.0047,0.0009
2550,0.0026,0.0045,0.0049,0.0008
2551,0.0020,0.0057,0.0074,0.0010
2552,0.0023,0.0043,0.0047,0.0009
2553,0.0026,0.0045,0.0049,0.0008
2554,0.0023,0.0043,0.0047,0.0009
2555,0.0034,0.0059,0.0061,0.0016
2556,0.0020,0.0057,0.0074,0.0010
2557,0.0050,0.0102,0.0076,0.0025
2558,0.0023,0.0043,0.0047,0.0009
2559,0.0023,0.0043,0.0047,0.0009
2560,0.0026,0.0045,0.0049,0.0008
2561,0.0023,0.0043,0.0047,0.0009
2562,0.0020,0.0057,0.0074,0.0010
2563,0.0026,0.0045,0.0049,0.0008
2564,0.0023,0.0043,0.0047,0.0009
2565,0.0023,0.0043,0.0047,0.0009
2566,0.0026,0.0045,0.0049,0.0008
2567,0.0034,0.0099,0.0111,0.0016
2568,0.0063,0.0149,0.0096,0.0030
2569,0.0023,0.0043,0.0047,0.0009
2570,0.0026,0.0045,0.0049,0.0008
2571,0.0023,0.0043,0.0047,0.0009
2572,0.0023,0.0043,0.0047,0.0009
2573,0.0020,0.0057,0.0074,0.0010
2574,0.0043,0.0076,0.0084,0.0020
2575,0.0036,0.0088,0.0067,0.0013
2576,0.0034,0.0076,0.0083,0.0013
2577,0.0029,0.0069,0.0053,0.0012
2578,0.0032,0.0099,0.0119,0.0016
2579,0.0052,0.0118,0.0086,0.0025
2580,0.0041,0.0088,0.0087,0.0016
2581,0.0028,0.0048,0.0057,0.0011
2582,0.0027,0.0056,0.0068,0.0011
2583,0.0028,0.0049,0.0057,0.0011
2584,0.0023,0.0066,0.0091,0.0008
2585,0.0023,0.0041,0.0043,0.0008
2586,0.0026,0.0064,0.0068,0.0008
2587,0.0031,0.0045,0.0048,0.0009
2588,0.0027,0.0074,0.0081,0.0011
2589,0.0026,0.0151,0.0179,0.0015
2590,0.0053,0.0130,0.0100,0.0025
2591,0.0032,0.0066,0.0072,0.0015
2592,0.0041,0.0104,0.0106,0.0018
2593,0.0036,0.0052,0.0050,0.0016
2594,0.0036,0.0068,0.0071,0.0016
2595,0.0038,0.0116,0.0117,0.0017
2596,0.0043,0.0105,0.0107,0.0017
2597,0.0041,0.0123,0.0114,0.0026
2598,0.0034,0.0098,0.0080,0.0061
2599,0.0033,0.0194,0.0212,0.0079
2600,0.0027,0.0148,0.0163,0.0086
2601,0.0054,0.0172,0.0124,0.0026
2602,0.0033,0.0112,0.0182,0.0204
2603,0.0030,0.0105,0.0154,0.0128
2604,0.0028,0.0097,0.0128,0.0088
2605,0.0031,0.0099,0.0139,0.0121
2606,0.0031,0.0098,0.0125,0.0123
2607,0.0023,0.0036,0.0043,0.0009
2608,0.0023,0.0036,0.0043,0.0009
2609,0.0026,0.0040,0.0043,0.0008
2610,0.0026,0.0059,0.0066,0.0009
2611,0.0026,0.0065,0.0083,0.0010
2612,0.0040,0.0078,0.0059,0.0014
2613,0.0065,0.0143,0.0103,0.0091
2614,0.0063,0.0149,0.0096,0.0030
2615,0.0032,0.0053,0.0056,0.0008
2616,0.0027,0.0072,0.0075,0.0010
2617,0.0029,0.0076,0.0089,0.0013
2618,0.0034,0.0089,0.0087,0.0015
2619,0.0032,0.0106,0.0130,0.0014
2620,0.0036,0.0069,0.0076,0.0014
2621,0.0040,0.0081,0.0081,0.0015
2622,0.0041,0.0079,0.0081,0.0018
2623,0.0040,0.0119,0.0112,0.0027
2624,0.0031,0.0065,0.0079,0.0009
2625,0.0069,0.0162,0.0117,0.0035
2626,0.0033,0.0102,0.0075,0.0067
2627,0.0031,0.0092,0.0111,0.0044
2628,0.0031,0.0139,0.0161,0.0048
2629,0.0027,0.0071,0.0068,0.0043
2630,0.0024,0.0148,0.0159,0.0081
2631,0.0029,0.0069,0.0080,0.0022
2632,0.0026,0.0059,0.0064,0.0035
2633,0.0028,0.0059,0.0064,0.0040
2634,0.0029,0.0051,0.0068,0.0026
2635,0.0021,0.0117,0.0163,0.0020
2636,0.0066,0.0256,0.0216,0.0119
2637,0.0027,0.0072,0.0075,0.0010
2638,0.0036,0.0097,0.0136,0.0017
2639,0.0027,0.0087,0.0123,0.0037
2640,0.0026,0.0051,0.0058,0.0026
2641,0.0025,0.0094,0.0124,0.0037
2642,0.0028,0.0087,0.0108,0.0041
2643,0.0026,0.0133,0.0148,0.0069
2644,0.0029,0.0080,0.0075,0.0049
2645,0.0030,0.0096,0.0092,0.0058
2646,0.0027,0.0181,0.0179,0.0095
2647,0.0063,0.0286,0.0274,0.0113
2648,0.0034,0.0216,0.0215,0.0102
2649,0.0029,0.0076,0.0089,0.0013
2650,0.0023,0.0036,0.0043,0.0009
2651,0.0026,0.0040,0.0043,0.0008
2652,0.0021,0.0054,0.0072,0.0011
2653,0.0023,0.0036,0.0043,0.0009
2654,0.0026,0.0040,0.0043,0.0008
2655,0.0023,0.0036,0.0043,0.0009
2656,0.0023,0.0036,0.0043,0.0009
2657,0.0021,0.0054,0.0072,0.0011
2658,0.0061,0.0280,0.0250,0.0128
2659,0.0023,0.0036,0.0043,0.0009
2660,0.0023,0.0036,0.0043,0.0009
2661,0.0034,0.0089,0.0087,0.0015
2662,0.0023,0.0036,0.0043,0.0009
2663,0.0021,0.0054,0.0072,0.0011
2664,0.0026,0.0040,0.0043,0.0008
2665,0.0023,0.0036,0.0043,0.0009
2666,0.0023,0.0036,0.0043,0.0009
2667,0.0026,0.0040,0.0043,0.0008
2668,0.0021,0.0054,0.0072,0.0011
2669,0.0051,0.0144,0.0206,0.0229
2670,0.0023,0.0036,0.0043,0.0009
2671,0.0026,0.0040,0.0043,0.0008
2672,0.0023,0.0036,0.0043,0.0009
2673,0.0034,0.0069,0.0075,0.0014
2674,0.0021,0.0054,0.0072,0.0011
2675,0.0023,0.0036,0.0043,0.0009
2676,0.0023,0.0036,0.0043,0.0009
2677,0.0026,0.0040,0.0043,0.0008
2678,0.0023,0.0036,0.0043,0.0009
2679,0.0021,0.0054,0.0072,0.0011
2680,0.0051,0.0115,0.0171,0.0156
2681,0.0026,0.0040,0.0043,0.0008
2682,0.0023,0.0036,0.0043,0.0009
2683,0.0023,0.0036,0.0043,0.0009
2684,0.0026,0.0040,0.0043,0.0008
2685,0.0035,0.0105,0.0120,0.0015
2686,0.0023,0.0036,0.0043,0.0009
2687,0.0026,0.0040,0.0043,0.0008
2688,0.0023,0.0036,0.0043,0.0009
2689,0.0023,0.0036,0.0043,0.0009
2690,0.0021,0.0054,0.0072,0.0011
2691,0.0056,0.0120,0.0175,0.0126
2692,0.0042,0.0077,0.0086,0.0019
2693,0.0035,0.0067,0.0076,0.0013
2694,0.0034,0.0071,0.0087,0.0013
2695,0.0029,0.0051,0.0060,0.0012
2696,0.0032,0.0106,0.0130,0.0014
2697,0.0040,0.0081,0.0081,0.0015
2698,0.0028,0.0037,0.0052,0.0011
2699,0.0028,0.0056,0.0061,0.0011
2700,0.0028,0.0063,0.0062,0.0010
2701,0.0023,0.0073,0.0092,0.0008
2702,0.0061,0.0112,0.0173,0.0105
2703,0.0023,0.0040,0.0044,0.0008
2704,0.0027,0.0069,0.0079,0.0008
2705,0.0031,0.0050,0.0051,0.0008
2706,0.0027,0.0072,0.0075,0.0010
2707,0.0026,0.0137,0.0164,0.0013
2708,0.0032,0.0079,0.0082,0.0014
2709,0.0041,0.0079,0.0081,0.0018
2710,0.0036,0.0058,0.0060,0.0015
2711,0.0036,0.0069,0.0076,0.0014
2712,0.0038,0.0113,0.0119,0.0016
2713,0.0066,0.0105,0.0164,0.0104
2714,0.0043,0.0081,0.0080,0.0017
2715,0.0040,0.0119,0.0112,0.0027
2716,0.0033,0.0102,0.0075,0.0067
2717,0.0033,0.0173,0.0185,0.0062
2718,0.0027,0.0125,0.0137,0.0080
2719,0.0034,0.0118,0.0183,0.0214
2720,0.0030,0.0087,0.0126,0.0120
2721,0.0028,0.0086,0.0108,0.0077
2722,0.0030,0.0091,0.0125,0.0115
2723,0.0031,0.0100,0.0134,0.0133
2724,0.0065,0.0128,0.0106,0.0097
2725,0.0040,0.0066,0.0067,0.0013
2726,0.0040,0.0066,0.0067,0.0013
2727,0.0040,0.0066,0.0067,0.0013
2728,0.0037,0.0067,0.0059,0.0013
2729,0.0034,0.0070,0.0062,0.0013
2730,0.0038,0.0067,0.0065,0.0015
2731,0.0039,0.0076,0.0091,0.0017
2732,0.0045,0.0109,0.0130,0.0020
2733,0.0050,0.0086,0.0088,0.0021
2734,0.0049,0.0104,0.0091,0.0023
2735,0.0065,0.0112,0.0111,0.0088
2736,0.0053,0.0091,0.0067,0.0024
2737,0.0057,0.0098,0.0063,0.0026
2738,0.0063,0.0128,0.0103,0.0029
2739,0.0069,0.0158,0.0133,0.0032
2740,0.0035,0.0069,0.0065,0.0015
2741,0.0066,0.0181,0.0169,0.0080
2742,0.0063,0.0235,0.0244,0.0095
2743,0.0063,0.0238,0.0246,0.0093
2744,0.0063,0.0173,0.0164,0.0084
2745,0.0062,0.0198,0.0150,0.0133
2746,0.0062,0.0091,0.0124,0.0063
2747,0.0065,0.0127,0.0095,0.0100
2748,0.0066,0.0116,0.0102,0.0093
2749,0.0066,0.0114,0.0119,0.0083
2750,0.0063,0.0088,0.0126,0.0062
2751,0.0052,0.0127,0.0139,0.0048
2752,0.0039,0.0076,0.0091,0.0017
2753,0.0054,0.0115,0.0152,0.0028
2754,0.0042,0.0087,0.0101,0.0048
2755,0.0051,0.0085,0.0107,0.0034
2756,0.0056,0.0101,0.0113,0.0042
2757,0.0052,0.0129,0.0131,0.0049
2758,0.0057,0.0107,0.0110,0.0048
2759,0.0049,0.0131,0.0133,0.0062
2760,0.0043,0.0176,0.0179,0.0080
2761,0.0041,0.0235,0.0226,0.0109
2762,0.0039,0.0198,0.0179,0.0100
2763,0.0050,0.0179,0.0156,0.0105
2764,0.0045,0.0109,0.0130,0.0020
2765,0.0040,0.0066,0.0067,0.0013
2766,0.0040,0.0066,0.0067,0.0013
2767,0.0036,0.0071,0.0077,0.0013
2768,0.0040,0.0100,0.0090,0.0020
2769,0.0040,0.0066,0.0067,0.0013
2770,0.0040,0.0066,0.0067,0.0013
2771,0.0040,0.0066,0.0067,0.0013
2772,0.0040,0.0066,0.0067,0.0013
2773,0.0036,0.0071,0.0077,0.0013
2774,0.0040,0.0066,0.0067,0.0013
2775,0.0040,0.0066,0.0067,0.0013
2776,0.0050,0.0086,0.0088,0.0021
2777,0.0040,0.0066,0.0067,0.0013
2778,0.0036,0.0071,0.0077,0.0013
2779,0.0055,0.0124,0.0166,0.0030
2780,0.0040,0.0066,0.0067,0.0013
2781,0.0040,0.0066,0.0067,0.0013
2782,0.0040,0.0066,0.0067,0.0013
2783,0.0040,0.0066,0.0067,0.0013
2784,0.0036,0.0071,0.0077,0.0013
2785,0.0040,0.0066,0.0067,0.0013
2786,0.0040,0.0066,0.0067,0.0013
2787,0.0040,0.0066,0.0067,0.0013
2788,0.0052,0.0090,0.0072,0.0023
2789,0.0036,0.0071,0.0077,0.0013
2790,0.0042,0.0122,0.0111,0.0048
2791,0.0040,0.0066,0.0067,0.0013
2792,0.0040,0.0066,0.0067,0.0013
2793,0.0040,0.0066,0.0067,0.0013
2794,0.0040,0.0066,0.0067,0.0013
2795,0.0036,0.0071,0.0077,0.0013
2796,0.0040,0.0066,0.0067,0.0013
2797,0.0040,0.0066,0.0067,0.0013
2798,0.0040,0.0066,0.0067,0.0013
2799,0.0040,0.0066,0.0067,0.0013
2800,0.0051,0.0114,0.0095,0.0023
2801,0.0052,0.0112,0.0116,0.0033
2802,0.0040,0.0066,0.0067,0.0013
2803,0.0040,0.0066,0.0067,0.0013
2804,0.0040,0.0066,0.0067,0.0013
2805,0.0040,0.0066,0.0067,0.0013
2806,0.0036,0.0071,0.0077,0.0013
2807,0.0081,0.0082,0.0112,0.0032
2808,0.0077,0.0076,0.0111,0.0024
2809,0.0074,0.0073,0.0110,0.0021
2810,0.0073,0.0079,0.0107,0.0022
2811,0.0049,0.0104,0.0091,0.0023
2812,0.0057,0.0118,0.0119,0.0043
2813,0.0057,0.0098,0.0063,0.0026
2814,0.0067,0.0066,0.0087,0.0022
2815,0.0062,0.0061,0.0075,0.0018
2816,0.0056,0.0066,0.0079,0.0014
2817,0.0047,0.0088,0.0104,0.0014
2818,0.0043,0.0069,0.0077,0.0013
2819,0.0037,0.0067,0.0059,0.0013
2820,0.0038,0.0067,0.0065,0.0015
2821,0.0039,0.0076,0.0091,0.0017
2822,0.0043,0.0140,0.0158,0.0021
2823,0.0038,0.0077,0.0071,0.0015
2824,0.0060,0.0142,0.0128,0.0054
2825,0.0050,0.0086,0.0088,0.0021
2826,0.0063,0.0128,0.0103,0.0029
2827,0.0052,0.0090,0.0072,0.0023
2828,0.0053,0.0091,0.0067,0.0024
2829,0.0054,0.0128,0.0096,0.0025
2830,0.0063,0.0128,0.0103,0.0029
2831,0.0069,0.0158,0.0133,0.0032
2832,0.0066,0.0181,0.0169,0.0080
2833,0.0063,0.0235,0.0244,0.0095
2834,0.0061,0.0259,0.0242,0.0120
2835,0.0051,0.0176,0.0160,0.0073
2836,0.0050,0.0135,0.0176,0.0181
2837,0.0052,0.0121,0.0155,0.0130
2838,0.0057,0.0104,0.0143,0.0113
2839,0.0062,0.0090,0.0131,0.0098
2840,0.0068,0.0099,0.0147,0.0108
2841,0.0039,0.0049,0.0053,0.0012
2842,0.0039,0.0049,0.0053,0.0012
2843,0.0039,0.0049,0.0053,0.0012
2844,0.0036,0.0058,0.0057,0.0012
2845,0.0033,0.0062,0.0059,0.0013
2846,0.0043,0.0220,0.0209,0.0089
2847,0.0037,0.0055,0.0058,0.0014
2848,0.0039,0.0067,0.0079,0.0016
2849,0.0046,0.0105,0.0125,0.0018
2850,0.0050,0.0081,0.0088,0.0018
2851,0.0049,0.0083,0.0083,0.0019
2852,0.0053,0.0069,0.0055,0.0022
2853,0.0057,0.0099,0.0082,0.0026
2854,0.0063,0.0120,0.0107,0.0030
2855,0.0069,0.0129,0.0113,0.0033
2856,0.0034,0.0056,0.0056,0.0014
2857,0.0042,0.0287,0.0259,0.0120
2858,0.0066,0.0118,0.0115,0.0051
2859,0.0062,0.0199,0.0207,0.0075
2860,0.0062,0.0210,0.0209,0.0083
2861,0.0063,0.0142,0.0123,0.0074
2862,0.0061,0.0186,0.0138,0.0124
2863,0.0064,0.0116,0.0086,0.0090
2864,0.0065,0.0126,0.0108,0.0093
2865,0.0065,0.0092,0.0092,0.0082
2866,0.0063,0.0064,0.0098,0.0061
2867,0.0052,0.0117,0.0128,0.0048
2868,0.0042,0.0303,0.0247,0.0130
2869,0.0039,0.0067,0.0079,0.0016
2870,0.0056,0.0106,0.0138,0.0027
2871,0.0041,0.0081,0.0100,0.0047
2872,0.0049,0.0064,0.0085,0.0034
2873,0.0054,0.0081,0.0096,0.0040
2874,0.0055,0.0090,0.0095,0.0044
2875,0.0048,0.0104,0.0109,0.0057
2876,0.0043,0.0124,0.0125,0.0063
2877,0.0041,0.0169,0.0167,0.0080
2878,0.0038,0.0147,0.0142,0.0078
2879,0.0050,0.0300,0.0208,0.0139
2880,0.0051,0.0136,0.0127,0.0084
2881,0.0046,0.0105,0.0125,0.0018
2882,0.0039,0.0049,0.0053,0.0012
2883,0.0039,0.0049,0.0053,0.0012
2884,0.0035,0.0053,0.0062,0.0013
2885,0.0039,0.0049,0.0053,0.0012
2886,0.0039,0.0049,0.0053,0.0012
2887,0.0039,0.0049,0.0053,0.0012
2888,0.0039,0.0049,0.0053,0.0012
2889,0.0035,0.0053,0.0062,0.0013
2890,0.0044,0.0101,0.0078,0.0024
2891,0.0039,0.0049,0.0053,0.0012
2892,0.0039,0.0049,0.0053,0.0012
2893,0.0050,0.0081,0.0088,0.0018
2894,0.0039,0.0049,0.0053,0.0012
2895,0.0035,0.0053,0.0062,0.0013
2896,0.0039,0.0049,0.0053,0.0012
2897,0.0039,0.0049,0.0053,0.0012
2898,0.0039,0.0049,0.0053,0.0012
2899,0.0039,0.0049,0.0053,0.0012
2900,0.0035,0.0053,0.0062,0.0013
2901,0.0040,0.0078,0.0059,0.0014
2902,0.0039,0.0049,0.0053,0.0012
2903,0.0039,0.0049,0.0053,0.0012
2904,0.0039,0.0049,0.0053,0.0012
2905,0.0052,0.0068,0.0063,0.0019
2906,0.0035,0.0053,0.0062,0.0013
2907,0.0039,0.0049,0.0053,0.0012
2908,0.0039,0.0049,0.0053,0.0012
2909,0.0039,0.0049,0.0053,0.0012
2910,0.0039,0.0049,0.0053,0.0012
2911,0.0035,0.0053,0.0062,0.0013
2912,0.0040,0.0078,0.0059,0.0014
2913,0.0039,0.0049,0.0053,0.0012
2914,0.0039,0.0049,0.0053,0.0012
2915,0.0039,0.0049,0.0053,0.0012
2916,0.0039,0.0049,0.0053,0.0012
2917,0.0051,0.0098,0.0090,0.0021
2918,0.0039,0.0049,0.0053,0.0012
2919,0.0039,0.0049,0.0053,0.0012
2920,0.0039,0.0049,0.0053,0.0012
2921,0.0039,0.0049,0.0053,0.0012
2922,0.0035,0.0053,0.0062,0.0013
2923,0.0036,0.0082,0.0070,0.0015
2924,0.0081,0.0080,0.0094,0.0029
2925,0.0077,0.0082,0.0084,0.0023
2926,0.0074,0.0072,0.0088,0.0021
2927,0.0073,0.0067,0.0075,0.0022
2928,0.0049,0.0083,0.0083,0.0019
2929,0.0057,0.0099,0.0082,0.0026
2930,0.0067,0.0058,0.0068,0.0022
2931,0.0062,0.0066,0.0077,0.0019
2932,0.0056,0.0050,0.0058,0.0015
2933,0.0047,0.0066,0.0082,0.0014
2934,0.0035,0.0078,0.0073,0.0015
2935,0.0040,0.0078,0.0059,0.0014
2936,0.0043,0.0049,0.0055,0.0013
2937,0.0036,0.0058,0.0057,0.0012
2938,0.0037,0.0055,0.0058,0.0014
2939,0.0039,0.0067,0.0079,0.0016
2940,0.0044,0.0132,0.0150,0.0018
2941,0.0050,0.0081,0.0088,0.0018
2942,0.0063,0.0120,0.0107,0.0030
2943,0.0052,0.0068,0.0063,0.0019
2944,0.0053,0.0069,0.0055,0.0022
2945,0.0054,0.0127,0.0109,0.0025
2946,0.0040,0.0078,0.0059,0.0014
2947,0.0063,0.0120,0.0107,0.0030
2948,0.0069,0.0129,0.0113,0.0033
2949,0.0066,0.0118,0.0115,0.0051
2950,0.0062,0.0199,0.0207,0.0075
2951,0.0061,0.0238,0.0213,0.0114
2952,0.0050,0.0125,0.0156,0.0174
2953,0.0051,0.0103,0.0119,0.0112
2954,0.0057,0.0089,0.0120,0.0127
2955,0.0064,0.0083,0.0114,0.0113
2956,0.0068,0.0084,0.0113,0.0115
2957,0.0040,0.0078,0.0059,0.0014
2958,0.0039,0.0039,0.0040,0.0012
2959,0.0039,0.0039,0.0040,0.0012
2960,0.0039,0.0039,0.0040,0.0012
2961,0.0035,0.0063,0.0070,0.0013
2962,0.0033,0.0064,0.0070,0.0013
2963,0.0037,0.0059,0.0062,0.0014
2964,0.0039,0.0057,0.0064,0.0015
2965,0.0046,0.0074,0.0085,0.0017
2966,0.0050,0.0086,0.0089,0.0017
2967,0.0050,0.0079,0.0083,0.0018
2968,0.0040,0.0078,0.0059,0.0014
2969,0.0053,0.0071,0.0060,0.0021
2970,0.0057,0.0086,0.0072,0.0026
2971,0.0063,0.0097,0.0081,0.0030
2972,0.0070,0.0123,0.0109,0.0033
2973,0.0034,0.0058,0.0058,0.0014
2974,0.0066,0.0097,0.0087,0.0054
2975,0.0062,0.0155,0.0159,0.0048
2976,0.0062,0.0163,0.0155,0.0062
2977,0.0063,0.0124,0.0091,0.0069
2978,0.0061,0.0183,0.0133,0.0122
2979,0.0036,0.0082,0.0070,0.0015
2980,0.0064,0.0113,0.0080,0.0089
2981,0.0065,0.0108,0.0085,0.0092
2982,0.0065,0.0084,0.0079,0.0082
2983,0.0063,0.0061,0.0093,0.0061
2984,0.0052,0.0110,0.0125,0.0048
2985,0.0039,0.0057,0.0064,0.0015
2986,0.0056,0.0116,0.0151,0.0027
2987,0.0041,0.0080,0.0101,0.0048
2988,0.0049,0.0056,0.0071,0.0032
2989,0.0053,0.0080,0.0096,0.0039
2990,0.0040,0.0078,0.0059,0.0014
2991,0.0054,0.0080,0.0089,0.0044
2992,0.0048,0.0102,0.0109,0.0061
2993,0.0043,0.0103,0.0105,0.0064
2994,0.0041,0.0127,0.0126,0.0064
2995,0.0038,0.0122,0.0128,0.0070
2996,0.0051,0.0142,0.0132,0.0084
2997,0.0046,0.0074,0.0085,0.0017
2998,0.0039,0.0039,0.0040,0.0012
2999,0.0039,0.0039,0.0040,0.0012
3000,0.0035,0.0047,0.0058,0.0013
3001,0.0040,0.0078,0.0059,0.0014
3002,0.0039,0.0039,0.0040,0.0012
3003,0.0039,0.0039,0.0040,0.0012
3004,0.0039,0.0039,0.0040,0.0012
3005,0.0039,0.0039,0.0040,0.0012
3006,0.0035,0.0047,0.0058,0.0013
3007,0.0039,0.0039,0.0040,0.0012
3008,0.0039,0.0039,0.0040,0.0012
3009,0.0050,0.0086,0.0089,0.0017
3010,0.0039,0.0039,0.0040,0.0012
3011,0.0035,0.0047,0.0058,0.0013
3012,0.0050,0.0119,0.0081,0.0025
3013,0.0039,0.0039,0.0040,0.0012
3014,0.0039,0.0039,0.0040,0.0012
3015,0.0039,0.0039,0.0040,0.0012
3016,0.0039,0.0039,0.0040,0.0012
3017,0.0035,0.0047,0.0058,0.0013
3018,0.0039,0.0039,0.0040,0.0012
3019,0.0039,0.0039,0.0040,0.0012
3020,0.0039,0.0039,0.0040,0.0012
3021,0.0052,0.0060,0.0055,0.0018
3022,0.0035,0.0047,0.0058,0.0013
3023,0.0040,0.0078,0.0059,0.0014
3024,0.0039,0.0039,0.0040,0.0012
3025,0.0039,0.0039,0.0040,0.0012
3026,0.0039,0.0039,0.0040,0.0012
3027,0.0039,0.0039,0.0040,0.0012
3028,0.0035,0.0047,0.0058,0.0013
3029,0.0039,0.0039,0.0040,0.0012
3030,0.0039,0.0039,0.0040,0.0012
3031,0.0039,0.0039,0.0040,0.0012
3032,0.0039,0.0039,0.0040,0.0012
3033,0.0051,0.0098,0.0091,0.0020
3034,0.0036,0.0082,0.0070,0.0015
3035,0.0039,0.0039,0.0040,0.0012
3036,0.0039,0.0039,0.0040,0.0012
3037,0.0039,0.0039,0.0040,0.0012
3038,0.0039,0.0039,0.0040,0.0012
3039,0.0035,0.0047,0.0058,0.0013
3040,0.0080,0.0077,0.0087,0.0029
3041,0.0077,0.0066,0.0076,0.0023
3042,0.0074,0.0067,0.0084,0.0021
3043,0.0073,0.0055,0.0067,0.0022
3044,0.0050,0.0079,0.0083,0.0018
3045,0.0039,0.0079,0.0069,0.0017
3046,0.0040,0.0078,0.0059,0.0014
3047,0.0057,0.0086,0.0072,0.0026
3048,0.0067,0.0050,0.0057,0.0022
3049,0.0062,0.0064,0.0071,0.0018
3050,0.0056,0.0059,0.0061,0.0014
3051,0.0047,0.0073,0.0089,0.0014
3052,0.0043,0.0048,0.0052,0.0013
3053,0.0035,0.0063,0.0070,0.0013
3054,0.0037,0.0059,0.0062,0.0014
3055,0.0039,0.0057,0.0064,0.0015
3056,0.0044,0.0116,0.0127,0.0017
3057,0.0040,0.0078,0.0059,0.0014
3058,0.0050,0.0086,0.0089,0.0017
3059,0.0063,0.0097,0.0081,0.0030
3060,0.0052,0.0060,0.0055,0.0018
3061,0.0053,0.0071,0.0060,0.0021
3062,0.0054,0.0115,0.0099,0.0025
3063,0.0063,0.0097,0.0081,0.0030
3064,0.0070,0.0123,0.0109,0.0033
3065,0.0066,0.0097,0.0087,0.0054
3066,0.0062,0.0155,0.0159,0.0048
3067,0.0060,0.0206,0.0171,0.0104
3068,0.0040,0.0078,0.0059,0.0014
3069,0.0050,0.0125,0.0159,0.0187
3070,0.0051,0.0093,0.0102,0.0112
3071,0.0057,0.0081,0.0109,0.0130
3072,0.0063,0.0074,0.0109,0.0126
3073,0.0068,0.0083,0.0111,0.0123
3074,0.0030,0.0071,0.0055,0.0010
3075,0.0030,0.0071,0.0055,0.0010
3076,0.0035,0.0076,0.0068,0.0010
3077,0.0028,0.0071,0.0074,0.0011
3078,0.0024,0.0075,0.0085,0.0012
3079,0.0040,0.0078,0.0059,0.0014
3080,0.0032,0.0079,0.0085,0.0012
3081,0.0033,0.0101,0.0103,0.0015
3082,0.0037,0.0095,0.0089,0.0018
3083,0.0046,0.0123,0.0100,0.0020
3084,0.0041,0.0139,0.0116,0.0020
3085,0.0044,0.0126,0.0088,0.0020
3086,0.0048,0.0157,0.0110,0.0019
3087,0.0048,0.0160,0.0097,0.0021
3088,0.0052,0.0185,0.0121,0.0038
3089,0.0027,0.0083,0.0100,0.0013
3090,0.0036,0.0082,0.0070,0.0015
3091,0.0039,0.0251,0.0176,0.0114
3092,0.0036,0.0249,0.0206,0.0083
3093,0.0039,0.0239,0.0235,0.0058
3094,0.0038,0.0158,0.0130,0.0058
3095,0.0036,0.0159,0.0136,0.0079
3096,0.0045,0.0133,0.0129,0.0039
3097,0.0041,0.0130,0.0122,0.0073
3098,0.0042,0.0116,0.0123,0.0068
3099,0.0041,0.0095,0.0133,0.0034
3100,0.0029,0.0124,0.0143,0.0029
3101,0.0040,0.0078,0.0059,0.0014
3102,0.0033,0.0101,0.0103,0.0015
3103,0.0043,0.0115,0.0152,0.0022
3104,0.0030,0.0123,0.0097,0.0042
3105,0.0034,0.0101,0.0080,0.0031
3106,0.0036,0.0107,0.0113,0.0044
3107,0.0040,0.0118,0.0096,0.0053
3108,0.0033,0.0151,0.0126,0.0075
3109,0.0032,0.0170,0.0156,0.0063
3110,0.0032,0.0211,0.0175,0.0083
3111,0.0033,0.0247,0.0195,0.0101
3112,0.0040,0.0078,0.0059,0.0014
3113,0.0043,0.0255,0.0177,0.0110
3114,0.0037,0.0095,0.0089,0.0018
3115,0.0030,0.0071,0.0055,0.0010
3116,0.0035,0.0076,0.0068,0.0010
3117,0.0025,0.0086,0.0081,0.0012
3118,0.0030,0.0071,0.0055,0.0010
3119,0.0035,0.0076,0.0068,0.0010
3120,0.0030,0.0071,0.0055,0.0010
3121,0.0030,0.0071,0.0055,0.0010
3122,0.0025,0.0086,0.0081,0.0012
3123,0.0040,0.0078,0.0059,0.0014
3124,0.0030,0.0071,0.0055,0.0010
3125,0.0030,0.0071,0.0055,0.0010
3126,0.0046,0.0123,0.0100,0.0020
3127,0.0030,0.0071,0.0055,0.0010
3128,0.0025,0.0086,0.0081,0.0012
3129,0.0035,0.0076,0.0068,0.0010
3130,0.0030,0.0071,0.0055,0.0010
3131,0.0030,0.0071,0.0055,0.0010
3132,0.0035,0.0076,0.0068,0.0010
3133,0.0025,0.0086,0.0081,0.0012
3134,0.0052,0.0130,0.0086,0.0026
3135,0.0030,0.0071,0.0055,0.0010
3136,0.0035,0.0076,0.0068,0.0010
3137,0.0030,0.0071,0.0055,0.0010
3138,0.0044,0.0116,0.0077,0.0019
3139,0.0025,0.0086,0.0081,0.0012
3140,0.0030,0.0071,0.0055,0.0010
3141,0.0030,0.0071,0.0055,0.0010
3142,0.0035,0.0076,0.0068,0.0010
3143,0.0030,0.0071,0.0055,0.0010
3144,0.0025,0.0086,0.0081,0.0012
3145,0.0036,0.0082,0.0070,0.0015
3146,0.0035,0.0076,0.0068,0.0010
3147,0.0030,0.0071,0.0055,0.0010
3148,0.0030,0.0071,0.0055,0.0010
3149,0.0035,0.0076,0.0068,0.0010
3150,0.0041,0.0143,0.0111,0.0020
3151,0.0030,0.0071,0.0055,0.0010
3152,0.0035,0.0076,0.0068,0.0010
3153,0.0030,0.0071,0.0055,0.0010
3154,0.0030,0.0071,0.0055,0.0010
3155,0.0025,0.0086,0.0081,0.0012
3156,0.0040,0.0100,0.0090,0.0020
3157,0.0040,0.0078,0.0059,0.0014
3158,0.0040,0.0065,0.0111,0.0036
3159,0.0037,0.0059,0.0101,0.0025
3160,0.0037,0.0074,0.0119,0.0017
3161,0.0034,0.0060,0.0072,0.0013
3162,0.0041,0.0139,0.0116,0.0020
3163,0.0048,0.0157,0.0110,0.0019
3164,0.0033,0.0064,0.0059,0.0013
3165,0.0032,0.0075,0.0063,0.0012
3166,0.0034,0.0080,0.0077,0.0011
3167,0.0028,0.0085,0.0093,0.0011
3168,0.0040,0.0078,0.0059,0.0014
3169,0.0030,0.0078,0.0059,0.0010
3170,0.0032,0.0084,0.0093,0.0011
3171,0.0029,0.0075,0.0082,0.0012
3172,0.0033,0.0101,0.0103,0.0015
3173,0.0035,0.0148,0.0164,0.0018
3174,0.0042,0.0100,0.0068,0.0019
3175,0.0048,0.0160,0.0097,0.0021
3176,0.0048,0.0117,0.0086,0.0020
3177,0.0044,0.0126,0.0088,0.0020
3178,0.0043,0.0170,0.0122,0.0019
3179,0.0040,0.0078,0.0059,0.0014
3180,0.0050,0.0157,0.0106,0.0021
3181,0.0052,0.0185,0.0121,0.0038
3182,0.0039,0.0251,0.0176,0.0114
3183,0.0039,0.0298,0.0267,0.0092
3184,0.0033,0.0228,0.0200,0.0096
3185,0.0032,0.0149,0.0212,0.0257
3186,0.0032,0.0122,0.0169,0.0173
3187,0.0036,0.0125,0.0156,0.0119
3188,0.0038,0.0123,0.0167,0.0096
3189,0.0037,0.0098,0.0146,0.0073
3190,0.0040,0.0078,0.0059,0.0014
3191,0.0030,0.0067,0.0054,0.0009
3192,0.0030,0.0067,0.0054,0.0009
3193,0.0035,0.0073,0.0069,0.0009
3194,0.0027,0.0069,0.0069,0.0010
3195,0.0024,0.0073,0.0082,0.0011
3196,0.0032,0.0072,0.0083,0.0012
3197,0.0032,0.0089,0.0093,0.0016
3198,0.0037,0.0087,0.0075,0.0019
3199,0.0047,0.0113,0.0098,0.0022
3200,0.0041,0.0129,0.0119,0.0018
3201,0.0036,0.0082,0.0070,0.0015
3202,0.0044,0.0121,0.0095,0.0018
3203,0.0048,0.0139,0.0108,0.0019
3204,0.0048,0.0137,0.0089,0.0019
3205,0.0052,0.0162,0.0121,0.0029
3206,0.0026,0.0071,0.0090,0.0012
3207,0.0040,0.0193,0.0147,0.0094
3208,0.0036,0.0218,0.0198,0.0077
3209,0.0039,0.0221,0.0233,0.0060
3210,0.0038,0.0135,0.0121,0.0073
3211,0.0037,0.0137,0.0124,0.0096
3212,0.0040,0.0078,0.0059,0.0014
3213,0.0045,0.0108,0.0110,0.0044
3214,0.0041,0.0096,0.0086,0.0046
3215,0.0042,0.0105,0.0108,0.0051
3216,0.0041,0.0087,0.0117,0.0030
3217,0.0028,0.0122,0.0141,0.0027
3218,0.0032,0.0089,0.0093,0.0016
3219,0.0040,0.0111,0.0145,0.0023
3220,0.0030,0.0094,0.0094,0.0042
3221,0.0034,0.0081,0.0075,0.0035
3222,0.0036,0.0103,0.0114,0.0051
3223,0.0040,0.0078,0.0059,0.0014
3224,0.0040,0.0130,0.0114,0.0063
3225,0.0033,0.0156,0.0136,0.0082
3226,0.0032,0.0165,0.0153,0.0064
3227,0.0030,0.0198,0.0167,0.0084
3228,0.0029,0.0216,0.0178,0.0103
3229,0.0041,0.0207,0.0158,0.0096
3230,0.0037,0.0087,0.0075,0.0019
3231,0.0030,0.0067,0.0054,0.0009
3232,0.0035,0.0073,0.0069,0.0009
3233,0.0026,0.0080,0.0079,0.0011
3234,0.0040,0.0078,0.0059,0.0014
3235,0.0030,0.0067,0.0054,0.0009
3236,0.0035,0.0073,0.0069,0.0009
3237,0.0030,0.0067,0.0054,0.0009
3238,0.0030,0.0067,0.0054,0.0009
3239,0.0026,0.0080,0.0079,0.0011
3240,0.0030,0.0067,0.0054,0.0009
3241,0.0030,0.0067,0.0054,0.0009
3242,0.0047,0.0113,0.0098,0.0022
3243,0.0030,0.0067,0.0054,0.0009
3244,0.0026,0.0080,0.0079,0.0011
3245,0.0040,0.0078,0.0059,0.0014
3246,0.0035,0.0073,0.0069,0.0009
3247,0.0030,0.0067,0.0054,0.0009
3248,0.0030,0.0067,0.0054,0.0009
3249,0.0035,0.0073,0.0069,0.0009
3250,0.0026,0.0080,0.0079,0.0011
3251,0.0030,0.0067,0.0054,0.0009
3252,0.0035,0.0073,0.0069,0.0009
3253,0.0030,0.0067,0.0054,0.0009
3254,0.0045,0.0109,0.0082,0.0019
3255,0.0026,0.0080,0.0079,0.0011
3256,0.0051,0.0156,0.0115,0.0026
3257,0.0030,0.0067,0.0054,0.0009
3258,0.0030,0.0067,0.0054,0.0009
3259,0.0035,0.0073,0.0069,0.0009
3260,0.0030,0.0067,0.0054,0.0009
3261,0.0026,0.0080,0.0079,0.0011
3262,0.0035,0.0073,0.0069,0.0009
3263,0.0030,0.0067,0.0054,0.0009
3264,0.0030,0.0067,0.0054,0.0009
3265,0.0035,0.0073,0.0069,0.0009
3266,0.0042,0.0139,0.0119,0.0018
3267,0.0044,0.0101,0.0078,0.0024
3268,0.0040,0.0078,0.0059,0.0014
3269,0.0030,0.0067,0.0054,0.0009
3270,0.0035,0.0073,0.0069,0.0009
3271,0.0030,0.0067,0.0054,0.0009
3272,0.0030,0.0067,0.0054,0.0009
3273,0.0026,0.0080,0.0079,0.0011
3274,0.0040,0.0064,0.0106,0.0033
3275,0.0037,0.0062,0.0103,0.0022
3276,0.0037,0.0068,0.0108,0.0016
3277,0.0035,0.0051,0.0068,0.0013
3278,0.0041,0.0129,0.0119,0.0018
3279,0.0040,0.0078,0.0059,0.0014
3280,0.0048,0.0139,0.0108,0.0019
3281,0.0033,0.0059,0.0060,0.0012
3282,0.0032,0.0066,0.0061,0.0012
3283,0.0034,0.0073,0.0077,0.0011
3284,0.0028,0.0080,0.0090,0.0010
3285,0.0031,0.0064,0.0046,0.0009
3286,0.0032,0.0082,0.0088,0.0009
3287,0.0028,0.0064,0.0074,0.0012
3288,0.0032,0.0089,0.0093,0.0016
3289,0.0035,0.0142,0.0153,0.0019
3290,0.0040,0.0078,0.0059,0.0014
3291,0.0043,0.0088,0.0065,0.0021
3292,0.0048,0.0137,0.0089,0.0019
3293,0.0048,0.0108,0.0087,0.0020
3294,0.0044,0.0121,0.0095,0.0018
3295,0.0043,0.0153,0.0119,0.0019
3296,0.0050,0.0135,0.0097,0.0019
3297,0.0052,0.0162,0.0121,0.0029
3298,0.0040,0.0193,0.0147,0.0094
3299,0.0039,0.0275,0.0262,0.0086
3300,0.0033,0.0200,0.0190,0.0101
3301,0.0040,0.0078,0.0059,0.0014
3302,0.0031,0.0143,0.0199,0.0227
3303,0.0034,0.0115,0.0152,0.0147
3304,0.0039,0.0118,0.0142,0.0101
3305,0.0042,0.0109,0.0147,0.0079
3306,0.0039,0.0087,0.0131,0.0072
3307,0.0030,0.0058,0.0057,0.0009
3308,0.0030,0.0058,0.0057,0.0009
3309,0.0035,0.0063,0.0069,0.0009
3310,0.0027,0.0067,0.0059,0.0010
3311,0.0023,0.0070,0.0073,0.0011
3312,0.0036,0.0082,0.0070,0.0015
3313,0.0031,0.0071,0.0074,0.0011
3314,0.0031,0.0074,0.0075,0.0014
3315,0.0039,0.0091,0.0107,0.0019
3316,0.0048,0.0100,0.0098,0.0020
3317,0.0042,0.0109,0.0109,0.0020
3318,0.0044,0.0078,0.0063,0.0019
3319,0.0048,0.0093,0.0079,0.0019
3320,0.0048,0.0114,0.0098,0.0019
3321,0.0052,0.0170,0.0146,0.0024
3322,0.0024,0.0070,0.0078,0.0013
3323,0.0081,0.0068,0.0149,0.0040
3324,0.0041,0.0125,0.0106,0.0076
3325,0.0036,0.0156,0.0166,0.0060
3326,0.0039,0.0206,0.0232,0.0056
3327,0.0038,0.0106,0.0105,0.0068
3328,0.0037,0.0128,0.0126,0.0106
3329,0.0046,0.0102,0.0110,0.0057
3330,0.0043,0.0081,0.0075,0.0051
3331,0.0044,0.0100,0.0099,0.0050
3332,0.0042,0.0086,0.0120,0.0030
3333,0.0028,0.0118,0.0142,0.0028
3334,0.0077,0.0064,0.0139,0.0028
3335,0.0031,0.0074,0.0075,0.0014
3336,0.0042,0.0105,0.0142,0.0021
3337,0.0030,0.0080,0.0097,0.0042
3338,0.0032,0.0059,0.0061,0.0030
3339,0.0034,0.0107,0.0124,0.0046
3340,0.0037,0.0106,0.0104,0.0048
3341,0.0032,0.0124,0.0122,0.0066
3342,0.0032,0.0140,0.0139,0.0058
3343,0.0029,0.0159,0.0142,0.0074
3344,0.0027,0.0168,0.0158,0.0095
3345,0.0074,0.0068,0.0133,0.0022
3346,0.0043,0.0151,0.0153,0.0094
3347,0.0039,0.0091,0.0107,0.0019
3348,0.0030,0.0058,0.0057,0.0009
3349,0.0035,0.0063,0.0069,0.0009
3350,0.0025,0.0073,0.0080,0.0011
3351,0.0030,0.0058,0.0057,0.0009
3352,0.0035,0.0063,0.0069,0.0009
3353,0.0030,0.0058,0.0057,0.0009
3354,0.0030,0.0058,0.0057,0.0009
3355,0.0025,0.0073,0.0080,0.0011
3356,0.0072,0.0065,0.0108,0.0022
3357,0.0030,0.0058,0.0057,0.0009
3358,0.0030,0.0058,0.0057,0.0009
3359,0.0048,0.0100,0.0098,0.0020
3360,0.0030,0.0058,0.0057,0.0009
3361,0.0025,0.0073,0.0080,0.0011
3362,0.0035,0.0063,0.0069,0.0009
3363,0.0030,0.0058,0.0057,0.0009
3364,0.0030,0.0058,0.0057,0.0009
3365,0.0035,0.0063,0.0069,0.0009
3366,0.0025,0.0073,0.0080,0.0011
3367,0.0049,0.0143,0.0104,0.0026
3368,0.0030,0.0058,0.0057,0.0009
3369,0.0035,0.0063,0.0069,0.0009
3370,0.0030,0.0058,0.0057,0.0009
3371,0.0045,0.0082,0.0065,0.0020
3372,0.0025,0.0073,0.0080,0.0011
3373,0.0030,0.0058,0.0057,0.0009
3374,0.0030,0.0058,0.0057,0.0009
3375,0.0035,0.0063,0.0069,0.0009
3376,0.0030,0.0058,0.0057,0.0009
3377,0.0025,0.0073,0.0080,0.0011
3378,0.0050,0.0119,0.0081,0.0025
3379,0.0057,0.0165,0.0104,0.0028
3380,0.0035,0.0063,0.0069,0.0009
3381,0.0030,0.0058,0.0057,0.0009
3382,0.0030,0.0058,0.0057,0.0009
3383,0.0035,0.0063,0.0069,0.0009
3384,0.0042,0.0102,0.0096,0.0019
3385,0.0030,0.0058,0.0057,0.0009
3386,0.0035,0.0063,0.0069,0.0009
3387,0.0030,0.0058,0.0057,0.0009
3388,0.0030,0.0058,0.0057,0.0009
3389,0.0025,0.0073,0.0080,0.0011
3390,0.0067,0.0071,0.0083,0.0021
3391,0.0040,0.0077,0.0081,0.0026
3392,0.0037,0.0069,0.0081,0.0019
3393,0.0038,0.0077,0.0099,0.0015
3394,0.0035,0.0073,0.0080,0.0014
3395,0.0042,0.0109,0.0109,0.0020
3396,0.0048,0.0093,0.0079,0.0019
3397,0.0033,0.0053,0.0058,0.0013
3398,0.0032,0.0051,0.0053,0.0012
3399,0.0034,0.0069,0.0078,0.0011
3400,0.0028,0.0079,0.0093,0.0010
3401,0.0062,0.0080,0.0078,0.0017
3402,0.0030,0.0057,0.0055,0.0009
3403,0.0031,0.0080,0.0082,0.0009
3404,0.0027,0.0064,0.0059,0.0011
3405,0.0031,0.0074,0.0075,0.0014
3406,0.0036,0.0145,0.0171,0.0020
3407,0.0044,0.0070,0.0062,0.0020
3408,0.0048,0.0114,0.0098,0.0019
3409,0.0049,0.0084,0.0074,0.0020
3410,0.0044,0.0078,0.0063,0.0019
3411,0.0043,0.0118,0.0102,0.0017
3412,0.0056,0.0078,0.0079,0.0013
3413,0.0050,0.0115,0.0106,0.0019
3414,0.0052,0.0170,0.0146,0.0024
3415,0.0041,0.0125,0.0106,0.0076
3416,0.0039,0.0227,0.0237,0.0071
3417,0.0033,0.0170,0.0178,0.0093
3418,0.0031,0.0121,0.0168,0.0188
3419,0.0036,0.0113,0.0132,0.0133
3420,0.0042,0.0096,0.0111,0.0107
3421,0.0045,0.0084,0.0107,0.0096
3422,0.0045,0.0078,0.0112,0.0096
3423,0.0047,0.0092,0.0101,0.0014
3424,0.0029,0.0043,0.0042,0.0010
3425,0.0029,0.0043,0.0042,0.0010
3426,0.0034,0.0056,0.0062,0.0009
3427,0.0026,0.0060,0.0053,0.0009
3428,0.0022,0.0068,0.0073,0.0011
3429,0.0030,0.0062,0.0065,0.0009
3430,0.0032,0.0068,0.0068,0.0012
3431,0.0041,0.0086,0.0101,0.0015
3432,0.0049,0.0096,0.0100,0.0016
3433,0.0042,0.0089,0.0100,0.0017
3434,0.0044,0.0088,0.0077,0.0014
3435,0.0044,0.0066,0.0062,0.0018
3436,0.0049,0.0095,0.0094,0.0020
3437,0.0049,0.0103,0.0101,0.0021
3438,0.0054,0.0135,0.0115,0.0027
3439,0.0024,0.0059,0.0069,0.0011
3440,0.0041,0.0097,0.0077,0.0080
3441,0.0036,0.0125,0.0140,0.0053
3442,0.0038,0.0188,0.0210,0.0055
3443,0.0038,0.0074,0.0074,0.0051
3444,0.0036,0.0125,0.0127,0.0092
3445,0.0038,0.0077,0.0071,0.0015
3446,0.0045,0.0095,0.0106,0.0032
3447,0.0043,0.0092,0.0081,0.0048
3448,0.0044,0.0080,0.0075,0.0049
3449,0.0042,0.0067,0.0098,0.0029
3450,0.0028,0.0114,0.0141,0.0027
3451,0.0032,0.0068,0.0068,0.0012
3452,0.0044,0.0105,0.0143,0.0019
3453,0.0029,0.0083,0.0112,0.0041
3454,0.0031,0.0051,0.0057,0.0029
3455,0.0032,0.0097,0.0121,0.0040
3456,0.0039,0.0079,0.0069,0.0017
3457,0.0035,0.0093,0.0105,0.0044
3458,0.0030,0.0115,0.0125,0.0066
3459,0.0031,0.0101,0.0099,0.0048
3460,0.0029,0.0106,0.0098,0.0058
3461,0.0027,0.0137,0.0137,0.0079
3462,0.0044,0.0142,0.0150,0.0083
3463,0.0041,0.0086,0.0101,0.0015
3464,0.0029,0.0043,0.0042,0.0010
3465,0.0034,0.0056,0.0062,0.0009
3466,0.0025,0.0059,0.0071,0.0011
3467,0.0040,0.0100,0.0090,0.0020
3468,0.0029,0.0043,0.0042,0.0010
3469,0.0034,0.0056,0.0062,0.0009
3470,0.0029,0.0043,0.0042,0.0010
3471,0.0029,0.0043,0.0042,0.0010
3472,0.0025,0.0059,0.0071,0.0011
3473,0.0029,0.0043,0.0042,0.0010
3474,0.0029,0.0043,0.0042,0.0010
3475,0.0049,0.0096,0.0100,0.0016
3476,0.0029,0.0043,0.0042,0.0010
3477,0.0025,0.0059,0.0071,0.0011
3478,0.0042,0.0136,0.0127,0.0024
3479,0.0034,0.0056,0.0062,0.0009
3480,0.0029,0.0043,0.0042,0.0010
3481,0.0029,0.0043,0.0042,0.0010
3482,0.0034,0.0056,0.0062,0.0009
3483,0.0025,0.0059,0.0071,0.0011
3484,0.0029,0.0043,0.0042,0.0010
3485,0.0034,0.0056,0.0062,0.0009
3486,0.0029,0.0043,0.0042,0.0010
3487,0.0046,0.0059,0.0052,0.0017
3488,0.0025,0.0059,0.0071,0.0011
3489,0.0049,0.0143,0.0104,0.0026
3490,0.0050,0.0119,0.0081,0.0025
3491,0.0029,0.0043,0.0042,0.0010
3492,0.0029,0.0043,0.0042,0.0010
3493,0.0034,0.0056,0.0062,0.0009
3494,0.0029,0.0043,0.0042,0.0010
3495,0.0025,0.0059,0.0071,0.0011
3496,0.0034,0.0056,0.0062,0.0009
3497,0.0029,0.0043,0.0042,0.0010
3498,0.0029,0.0043,0.0042,0.0010
3499,0.0034,0.0056,0.0062,0.0009
3500,0.0042,0.0089,0.0094,0.0019
3501,0.0063,0.0168,0.0102,0.0031
3502,0.0029,0.0043,0.0042,0.0010
3503,0.0034,0.0056,0.0062,0.0009
3504,0.0029,0.0043,0.0042,0.0010
3505,0.0029,0.0043,0.0042,0.0010
3506,0.0025,0.0059,0.0071,0.0011
3507,0.0040,0.0073,0.0080,0.0024
3508,0.0037,0.0080,0.0064,0.0018
3509,0.0038,0.0078,0.0091,0.0016
3510,0.0035,0.0066,0.0053,0.0014
3511,0.0042,0.0089,0.0100,0.0017
3512,0.0052,0.0130,0.0086,0.0026
3513,0.0049,0.0095,0.0094,0.0020
3514,0.0034,0.0049,0.0051,0.0014
3515,0.0033,0.0060,0.0067,0.0013
3516,0.0034,0.0060,0.0071,0.0012
3517,0.0028,0.0065,0.0084,0.0010
3518,0.0030,0.0041,0.0041,0.0009
3519,0.0030,0.0076,0.0081,0.0009
3520,0.0027,0.0050,0.0048,0.0010
3521,0.0032,0.0068,0.0068,0.0012
3522,0.0038,0.0141,0.0165,0.0016
3523,0.0053,0.0136,0.0094,0.0027
3524,0.0045,0.0064,0.0064,0.0016
3525,0.0049,0.0103,0.0101,0.0021
3526,0.0049,0.0064,0.0064,0.0017
3527,0.0044,0.0066,0.0062,0.0018
3528,0.0043,0.0111,0.0107,0.0020
3529,0.0051,0.0108,0.0110,0.0021
3530,0.0054,0.0135,0.0115,0.0027
3531,0.0041,0.0097,0.0077,0.0080
3532,0.0038,0.0207,0.0217,0.0063
3533,0.0033,0.0150,0.0159,0.0089
3534,0.0054,0.0187,0.0127,0.0027
3535,0.0030,0.0102,0.0157,0.0193
3536,0.0035,0.0091,0.0113,0.0147
3537,0.0043,0.0077,0.0109,0.0150
3538,0.0049,0.0076,0.0104,0.0128
3539,0.0046,0.0071,0.0100,0.0120
3540,0.0029,0.0035,0.0036,0.0010
3541,0.0029,0.0035,0.0036,0.0010
3542,0.0034,0.0050,0.0056,0.0009
3543,0.0026,0.0059,0.0063,0.0010
3544,0.0022,0.0064,0.0078,0.0011
3545,0.0063,0.0168,0.0102,0.0031
3546,0.0030,0.0066,0.0070,0.0009
3547,0.0032,0.0068,0.0065,0.0011
3548,0.0041,0.0070,0.0078,0.0014
3549,0.0049,0.0107,0.0109,0.0015
3550,0.0043,0.0091,0.0109,0.0015
3551,0.0044,0.0063,0.0063,0.0017
3552,0.0049,0.0085,0.0086,0.0020
3553,0.0049,0.0078,0.0074,0.0023
3554,0.0055,0.0131,0.0112,0.0029
3555,0.0024,0.0066,0.0073,0.0011
3556,0.0069,0.0192,0.0126,0.0042
3557,0.0041,0.0104,0.0079,0.0093
3558,0.0035,0.0091,0.0103,0.0041
3559,0.0038,0.0152,0.0172,0.0036
3560,0.0037,0.0067,0.0061,0.0050
3561,0.0035,0.0129,0.0135,0.0090
3562,0.0044,0.0094,0.0106,0.0029
3563,0.0043,0.0079,0.0069,0.0047
3564,0.0043,0.0073,0.0068,0.0049
3565,0.0042,0.0068,0.0099,0.0029
3566,0.0028,0.0109,0.0144,0.0027
3567,0.0066,0.0305,0.0242,0.0144
3568,0.0032,0.0068,0.0065,0.0011
3569,0.0045,0.0122,0.0166,0.0019
3570,0.0029,0.0085,0.0117,0.0041
3571,0.0030,0.0048,0.0056,0.0029
3572,0.0032,0.0097,0.0124,0.0040
3573,0.0034,0.0090,0.0108,0.0046
3574,0.0030,0.0123,0.0135,0.0071
3575,0.0031,0.0093,0.0092,0.0053
3576,0.0029,0.0084,0.0076,0.0053
3577,0.0027,0.0130,0.0133,0.0077
3578,0.0063,0.0312,0.0280,0.0122
3579,0.0044,0.0156,0.0159,0.0087
3580,0.0041,0.0070,0.0078,0.0014
3581,0.0029,0.0035,0.0036,0.0010
3582,0.0034,0.0050,0.0056,0.0009
3583,0.0024,0.0052,0.0067,0.0011
3584,0.0029,0.0035,0.0036,0.0010
3585,0.0034,0.0050,0.0056,0.0009
3586,0.0029,0.0035,0.0036,0.0010
3587,0.0029,0.0035,0.0036,0.0010
3588,0.0024,0.0052,0.0067,0.0011
3589,0.0061,0.0295,0.0253,0.0127
3590,0.0029,0.0035,0.0036,0.0010
3591,0.0029,0.0035,0.0036,0.0010
3592,0.0049,0.0107,0.0109,0.0015
3593,0.0029,0.0035,0.0036,0.0010
3594,0.0024,0.0052,0.0067,0.0011
3595,0.0034,0.0050,0.0056,0.0009
3596,0.0029,0.0035,0.0036,0.0010
3597,0.0029,0.0035,0.0036,0.0010
3598,0.0034,0.0050,0.0056,0.0009
3599,0.0024,0.0052,0.0067,0.0011
Total Error Summary
Vdc  RMSE=  0.0036
Idc  RMSE=  0.0098
Id   RMSE=  0.0095
Iq   RMSE=  0.0042
