Read Model from: ./ucf7s2/
Export Model to: ./ucf7s2/ucf7s2_fhf.json
idx_in [0, 1, 2, 3, 4, 5, 6]
idx_out [7, 8, 9, 10]
make_mimo_block iir
H1s[0][0]  Real Poles: [-92.43938401 -92.43938401] Freqs [Hz]: [3.5599642073323765]
H1s[0][1]  Real Poles: [-151.86755857  -22.42229381] Freqs [Hz]: []
H1s[0][2]  Real Poles: [-112.26020157 -112.26020157] Freqs [Hz]: [8.701761290578066]
H1s[0][3]  Real Poles: [-146.15035679  -28.44336901] Freqs [Hz]: []
H1s[1][0]  Real Poles: [-99.84570554 -99.84570554] Freqs [Hz]: [9.793790883517946]
H1s[1][1]  Real Poles: [-101.92473941 -101.92473941] Freqs [Hz]: [5.431883465512788]
H1s[1][2]  Real Poles: [-132.53091276 -132.53091276] Freqs [Hz]: [11.699842442668945]
H1s[1][3]  Real Poles: [-100.90023316 -100.90023316] Freqs [Hz]: [8.986470827273287]
H1s[2][0]  Real Poles: [-132.63988495 -132.63988495] Freqs [Hz]: [11.62692375253185]
H1s[2][1] ** unstable ** Real Poles: [-155.08564631    2.11413721] Freqs [Hz]: []
H1s[2][2]  Real Poles: [-104.63056862 -104.63056862] Freqs [Hz]: [5.4354650373976074]
H1s[2][3]  Real Poles: [-108.35605413 -108.35605413] Freqs [Hz]: [6.165616699680484]
H1s[3][0]  Real Poles: [-92.3045814 -92.3045814] Freqs [Hz]: [8.419617762878447]
H1s[3][1]  Real Poles: [-120.26310088  -80.03329718] Freqs [Hz]: []
H1s[3][2]  Real Poles: [-99.05574378 -99.05574378] Freqs [Hz]: [4.528886338078711]
H1s[3][3]  Real Poles: [-104.63852175 -104.63852175] Freqs [Hz]: [7.131544392319497]
==H(z)[2][1] (Id from Idc)

 -0.01914 z + 0.02774
-----------------------
z^2 - 0.4703 z - 0.5625

dt = 0.01

 *** UNSTABLE *** Magnitudes of Poles: [1.02114137 0.55085646]
model_folder = ./ucf7s2/
model_root = ucf7s2
data_path = d:/data/ucf3/ucf7.hdf5
idx_in [0, 1, 2, 3, 4, 5, 6]
idx_out [7, 8, 9, 10]
read 3600 dataframes
dt=0.010000 data_len=401 n_io=11 n_case=3600
['G', 'Ud', 'Uq', 'Vd', 'Vq', 'GVrms', 'Ctrl'] ['Vdc', 'Idc', 'Id', 'Iq'] (3600, 401, 11)
make_mimo_block iir
Idx,Vdc,Idc,Id,Iq
#,RMSE,RMSE,RMSE,RMSE
Total,0.0046,0.0189,0.0198,0.0125
0,0.0021,0.0126,0.0138,0.0063
1,0.0021,0.0126,0.0138,0.0063
2,0.0026,0.0252,0.0225,0.0048
3,0.0019,0.0109,0.0124,0.0060
4,0.0019,0.0137,0.0160,0.0071
5,0.0019,0.0137,0.0160,0.0071
6,0.0019,0.0137,0.0160,0.0071
7,0.0020,0.0158,0.0144,0.0071
8,0.0020,0.0158,0.0144,0.0071
9,0.0021,0.0153,0.0147,0.0071
10,0.0021,0.0180,0.0186,0.0070
11,0.0022,0.0207,0.0204,0.0066
12,0.0024,0.0219,0.0204,0.0061
13,0.0023,0.0239,0.0216,0.0057
14,0.0019,0.0109,0.0124,0.0060
15,0.0024,0.0249,0.0221,0.0056
16,0.0026,0.0298,0.0258,0.0058
17,0.0028,0.0330,0.0277,0.0061
18,0.0029,0.0367,0.0303,0.0064
19,0.0021,0.0153,0.0147,0.0071
20,0.0067,0.0508,0.0346,0.0554
21,0.0064,0.0474,0.0401,0.0485
22,0.0058,0.0395,0.0399,0.0414
23,0.0051,0.0287,0.0334,0.0344
24,0.0045,0.0174,0.0248,0.0277
25,0.0019,0.0109,0.0124,0.0060
26,0.0042,0.0124,0.0189,0.0218
27,0.0039,0.0122,0.0166,0.0174
28,0.0035,0.0125,0.0168,0.0137
29,0.0030,0.0136,0.0178,0.0106
30,0.0024,0.0138,0.0173,0.0085
31,0.0021,0.0180,0.0186,0.0070
32,0.0018,0.0153,0.0150,0.0065
33,0.0023,0.0188,0.0167,0.0068
34,0.0030,0.0224,0.0196,0.0077
35,0.0036,0.0240,0.0210,0.0089
36,0.0019,0.0131,0.0123,0.0061
37,0.0041,0.0224,0.0206,0.0111
38,0.0048,0.0186,0.0187,0.0148
39,0.0057,0.0243,0.0238,0.0209
40,0.0065,0.0310,0.0267,0.0287
41,0.0070,0.0317,0.0235,0.0368
42,0.0077,0.0327,0.0319,0.0442
43,0.0022,0.0207,0.0204,0.0066
44,0.0019,0.0137,0.0160,0.0071
45,0.0019,0.0137,0.0160,0.0071
46,0.0019,0.0137,0.0160,0.0071
47,0.0019,0.0131,0.0123,0.0061
48,0.0019,0.0137,0.0160,0.0071
49,0.0019,0.0137,0.0160,0.0071
50,0.0019,0.0137,0.0160,0.0071
51,0.0019,0.0137,0.0160,0.0071
52,0.0019,0.0137,0.0160,0.0071
53,0.0019,0.0137,0.0160,0.0071
54,0.0019,0.0137,0.0160,0.0071
55,0.0024,0.0219,0.0204,0.0061
56,0.0019,0.0137,0.0160,0.0071
57,0.0019,0.0137,0.0160,0.0071
58,0.0020,0.0117,0.0118,0.0061
59,0.0019,0.0137,0.0160,0.0071
60,0.0019,0.0137,0.0160,0.0071
61,0.0019,0.0137,0.0160,0.0071
62,0.0019,0.0137,0.0160,0.0071
63,0.0019,0.0137,0.0160,0.0071
64,0.0019,0.0137,0.0160,0.0071
65,0.0019,0.0137,0.0160,0.0071
66,0.0019,0.0137,0.0160,0.0071
67,0.0023,0.0239,0.0216,0.0057
68,0.0019,0.0137,0.0160,0.0071
69,0.0022,0.0147,0.0157,0.0060
70,0.0019,0.0137,0.0160,0.0071
71,0.0019,0.0137,0.0160,0.0071
72,0.0019,0.0137,0.0160,0.0071
73,0.0019,0.0137,0.0160,0.0071
74,0.0019,0.0137,0.0160,0.0071
75,0.0019,0.0137,0.0160,0.0071
76,0.0019,0.0137,0.0160,0.0071
77,0.0019,0.0137,0.0160,0.0071
78,0.0019,0.0137,0.0160,0.0071
79,0.0024,0.0249,0.0221,0.0056
80,0.0023,0.0180,0.0182,0.0056
81,0.0019,0.0137,0.0160,0.0071
82,0.0019,0.0137,0.0160,0.0071
83,0.0019,0.0137,0.0160,0.0071
84,0.0019,0.0137,0.0160,0.0071
85,0.0019,0.0137,0.0160,0.0071
86,0.0035,0.0139,0.0230,0.0046
87,0.0031,0.0125,0.0206,0.0040
88,0.0028,0.0113,0.0180,0.0035
89,0.0025,0.0113,0.0165,0.0034
90,0.0023,0.0239,0.0216,0.0057
91,0.0024,0.0185,0.0179,0.0052
92,0.0026,0.0298,0.0258,0.0058
93,0.0023,0.0114,0.0175,0.0043
94,0.0023,0.0129,0.0190,0.0051
95,0.0022,0.0139,0.0208,0.0059
96,0.0023,0.0162,0.0236,0.0066
97,0.0021,0.0150,0.0211,0.0070
98,0.0020,0.0158,0.0144,0.0071
99,0.0021,0.0153,0.0147,0.0071
100,0.0021,0.0180,0.0186,0.0070
101,0.0022,0.0207,0.0204,0.0066
102,0.0023,0.0200,0.0190,0.0049
103,0.0024,0.0219,0.0204,0.0061
104,0.0028,0.0330,0.0277,0.0061
105,0.0023,0.0239,0.0216,0.0057
106,0.0024,0.0249,0.0221,0.0056
107,0.0026,0.0298,0.0258,0.0058
108,0.0028,0.0330,0.0277,0.0061
109,0.0029,0.0367,0.0303,0.0064
110,0.0067,0.0508,0.0346,0.0554
111,0.0064,0.0474,0.0401,0.0485
112,0.0058,0.0395,0.0399,0.0414
113,0.0027,0.0300,0.0262,0.0049
114,0.0024,0.0207,0.0192,0.0048
115,0.0017,0.0118,0.0143,0.0068
116,0.0017,0.0118,0.0143,0.0068
117,0.0017,0.0118,0.0143,0.0068
118,0.0018,0.0127,0.0125,0.0070
119,0.0018,0.0127,0.0125,0.0070
120,0.0019,0.0123,0.0130,0.0072
121,0.0020,0.0160,0.0178,0.0071
122,0.0021,0.0191,0.0195,0.0067
123,0.0021,0.0192,0.0186,0.0062
124,0.0021,0.0196,0.0183,0.0058
125,0.0025,0.0249,0.0229,0.0049
126,0.0023,0.0204,0.0186,0.0057
127,0.0024,0.0252,0.0229,0.0058
128,0.0026,0.0275,0.0242,0.0061
129,0.0027,0.0301,0.0260,0.0062
130,0.0019,0.0123,0.0130,0.0072
131,0.0060,0.0366,0.0243,0.0401
132,0.0059,0.0381,0.0336,0.0351
133,0.0054,0.0322,0.0344,0.0298
134,0.0049,0.0245,0.0301,0.0245
135,0.0043,0.0143,0.0213,0.0192
136,0.0027,0.0264,0.0235,0.0051
137,0.0041,0.0112,0.0163,0.0150
138,0.0038,0.0107,0.0153,0.0119
139,0.0034,0.0109,0.0154,0.0094
140,0.0029,0.0120,0.0163,0.0079
141,0.0022,0.0119,0.0156,0.0070
142,0.0020,0.0160,0.0178,0.0071
143,0.0017,0.0133,0.0132,0.0072
144,0.0022,0.0167,0.0148,0.0079
145,0.0029,0.0202,0.0175,0.0085
146,0.0035,0.0211,0.0183,0.0089
147,0.0028,0.0274,0.0240,0.0052
148,0.0040,0.0201,0.0180,0.0092
149,0.0046,0.0162,0.0162,0.0103
150,0.0054,0.0212,0.0219,0.0140
151,0.0061,0.0265,0.0238,0.0200
152,0.0065,0.0253,0.0195,0.0266
153,0.0072,0.0290,0.0321,0.0323
154,0.0021,0.0191,0.0195,0.0067
155,0.0017,0.0118,0.0143,0.0068
156,0.0017,0.0118,0.0143,0.0068
157,0.0017,0.0118,0.0143,0.0068
158,0.0020,0.0117,0.0118,0.0061
159,0.0017,0.0118,0.0143,0.0068
160,0.0017,0.0118,0.0143,0.0068
161,0.0017,0.0118,0.0143,0.0068
162,0.0017,0.0118,0.0143,0.0068
163,0.0017,0.0118,0.0143,0.0068
164,0.0017,0.0118,0.0143,0.0068
165,0.0017,0.0118,0.0143,0.0068
166,0.0021,0.0192,0.0186,0.0062
167,0.0017,0.0118,0.0143,0.0068
168,0.0017,0.0118,0.0143,0.0068
169,0.0062,0.0353,0.0219,0.0381
170,0.0017,0.0118,0.0143,0.0068
171,0.0017,0.0118,0.0143,0.0068
172,0.0017,0.0118,0.0143,0.0068
173,0.0017,0.0118,0.0143,0.0068
174,0.0017,0.0118,0.0143,0.0068
175,0.0017,0.0118,0.0143,0.0068
176,0.0017,0.0118,0.0143,0.0068
177,0.0017,0.0118,0.0143,0.0068
178,0.0021,0.0196,0.0183,0.0058
179,0.0017,0.0118,0.0143,0.0068
180,0.0062,0.0368,0.0309,0.0332
181,0.0017,0.0118,0.0143,0.0068
182,0.0017,0.0118,0.0143,0.0068
183,0.0017,0.0118,0.0143,0.0068
184,0.0017,0.0118,0.0143,0.0068
185,0.0017,0.0118,0.0143,0.0068
186,0.0017,0.0118,0.0143,0.0068
187,0.0017,0.0118,0.0143,0.0068
188,0.0017,0.0118,0.0143,0.0068
189,0.0017,0.0118,0.0143,0.0068
190,0.0023,0.0204,0.0186,0.0057
191,0.0056,0.0311,0.0317,0.0280
192,0.0017,0.0118,0.0143,0.0068
193,0.0017,0.0118,0.0143,0.0068
194,0.0017,0.0118,0.0143,0.0068
195,0.0017,0.0118,0.0143,0.0068
196,0.0017,0.0118,0.0143,0.0068
197,0.0035,0.0137,0.0202,0.0048
198,0.0031,0.0117,0.0176,0.0041
199,0.0028,0.0101,0.0153,0.0036
200,0.0025,0.0099,0.0143,0.0034
201,0.0021,0.0196,0.0183,0.0058
202,0.0050,0.0236,0.0275,0.0229
203,0.0024,0.0252,0.0229,0.0058
204,0.0022,0.0103,0.0151,0.0041
205,0.0022,0.0112,0.0165,0.0049
206,0.0022,0.0128,0.0192,0.0056
207,0.0022,0.0145,0.0208,0.0064
208,0.0020,0.0130,0.0183,0.0068
209,0.0018,0.0127,0.0125,0.0070
210,0.0019,0.0123,0.0130,0.0072
211,0.0020,0.0160,0.0178,0.0071
212,0.0021,0.0191,0.0195,0.0067
213,0.0045,0.0142,0.0194,0.0179
214,0.0021,0.0192,0.0186,0.0062
215,0.0026,0.0275,0.0242,0.0061
216,0.0021,0.0196,0.0183,0.0058
217,0.0023,0.0204,0.0186,0.0057
218,0.0024,0.0252,0.0229,0.0058
219,0.0026,0.0275,0.0242,0.0061
220,0.0027,0.0301,0.0260,0.0062
221,0.0060,0.0366,0.0243,0.0401
222,0.0059,0.0381,0.0336,0.0351
223,0.0054,0.0322,0.0344,0.0298
224,0.0029,0.0320,0.0270,0.0052
225,0.0042,0.0116,0.0146,0.0138
226,0.0016,0.0085,0.0118,0.0068
227,0.0016,0.0085,0.0118,0.0068
228,0.0016,0.0085,0.0118,0.0068
229,0.0017,0.0083,0.0102,0.0071
230,0.0017,0.0083,0.0102,0.0071
231,0.0017,0.0095,0.0121,0.0075
232,0.0018,0.0139,0.0169,0.0075
233,0.0019,0.0167,0.0198,0.0071
234,0.0020,0.0141,0.0158,0.0067
235,0.0020,0.0132,0.0142,0.0063
236,0.0039,0.0115,0.0141,0.0109
237,0.0021,0.0130,0.0137,0.0060
238,0.0022,0.0153,0.0163,0.0060
239,0.0024,0.0180,0.0185,0.0060
240,0.0025,0.0210,0.0208,0.0060
241,0.0017,0.0095,0.0121,0.0075
242,0.0052,0.0151,0.0131,0.0127
243,0.0051,0.0180,0.0189,0.0111
244,0.0047,0.0177,0.0226,0.0093
245,0.0043,0.0121,0.0189,0.0075
246,0.0041,0.0103,0.0157,0.0061
247,0.0035,0.0111,0.0136,0.0085
248,0.0039,0.0112,0.0129,0.0052
249,0.0037,0.0100,0.0131,0.0043
250,0.0033,0.0090,0.0132,0.0036
251,0.0028,0.0094,0.0142,0.0036
252,0.0021,0.0090,0.0133,0.0047
253,0.0018,0.0139,0.0169,0.0075
254,0.0016,0.0079,0.0098,0.0090
255,0.0021,0.0111,0.0110,0.0114
256,0.0028,0.0153,0.0138,0.0135
257,0.0034,0.0169,0.0140,0.0149
258,0.0030,0.0108,0.0136,0.0069
259,0.0039,0.0137,0.0115,0.0150
260,0.0045,0.0100,0.0125,0.0136
261,0.0050,0.0163,0.0204,0.0109
262,0.0055,0.0196,0.0207,0.0095
263,0.0059,0.0162,0.0131,0.0108
264,0.0066,0.0285,0.0318,0.0127
265,0.0019,0.0167,0.0198,0.0071
266,0.0016,0.0085,0.0118,0.0068
267,0.0016,0.0085,0.0118,0.0068
268,0.0016,0.0085,0.0118,0.0068
269,0.0024,0.0108,0.0131,0.0061
270,0.0016,0.0085,0.0118,0.0068
271,0.0016,0.0085,0.0118,0.0068
272,0.0016,0.0085,0.0118,0.0068
273,0.0016,0.0085,0.0118,0.0068
274,0.0016,0.0085,0.0118,0.0068
275,0.0016,0.0085,0.0118,0.0068
276,0.0016,0.0085,0.0118,0.0068
277,0.0020,0.0141,0.0158,0.0067
278,0.0016,0.0085,0.0118,0.0068
279,0.0016,0.0085,0.0118,0.0068
280,0.0022,0.0147,0.0157,0.0060
281,0.0016,0.0085,0.0118,0.0068
282,0.0016,0.0085,0.0118,0.0068
283,0.0016,0.0085,0.0118,0.0068
284,0.0016,0.0085,0.0118,0.0068
285,0.0016,0.0085,0.0118,0.0068
286,0.0016,0.0085,0.0118,0.0068
287,0.0016,0.0085,0.0118,0.0068
288,0.0016,0.0085,0.0118,0.0068
289,0.0020,0.0132,0.0142,0.0063
290,0.0016,0.0085,0.0118,0.0068
291,0.0018,0.0132,0.0127,0.0064
292,0.0016,0.0085,0.0118,0.0068
293,0.0016,0.0085,0.0118,0.0068
294,0.0016,0.0085,0.0118,0.0068
295,0.0016,0.0085,0.0118,0.0068
296,0.0016,0.0085,0.0118,0.0068
297,0.0016,0.0085,0.0118,0.0068
298,0.0016,0.0085,0.0118,0.0068
299,0.0016,0.0085,0.0118,0.0068
300,0.0016,0.0085,0.0118,0.0068
301,0.0021,0.0130,0.0137,0.0060
302,0.0022,0.0168,0.0153,0.0073
303,0.0016,0.0085,0.0118,0.0068
304,0.0016,0.0085,0.0118,0.0068
305,0.0016,0.0085,0.0118,0.0068
306,0.0016,0.0085,0.0118,0.0068
307,0.0016,0.0085,0.0118,0.0068
308,0.0034,0.0137,0.0149,0.0046
309,0.0030,0.0107,0.0132,0.0040
310,0.0027,0.0087,0.0122,0.0035
311,0.0025,0.0084,0.0115,0.0033
312,0.0020,0.0132,0.0142,0.0063
313,0.0029,0.0209,0.0193,0.0081
314,0.0022,0.0153,0.0163,0.0060
315,0.0022,0.0084,0.0117,0.0041
316,0.0022,0.0095,0.0131,0.0048
317,0.0021,0.0116,0.0158,0.0056
318,0.0022,0.0139,0.0184,0.0063
319,0.0020,0.0120,0.0168,0.0067
320,0.0017,0.0083,0.0102,0.0071
321,0.0017,0.0095,0.0121,0.0075
322,0.0018,0.0139,0.0169,0.0075
323,0.0019,0.0167,0.0198,0.0071
324,0.0036,0.0219,0.0200,0.0087
325,0.0020,0.0141,0.0158,0.0067
326,0.0024,0.0180,0.0185,0.0060
327,0.0020,0.0132,0.0142,0.0063
328,0.0021,0.0130,0.0137,0.0060
329,0.0022,0.0153,0.0163,0.0060
330,0.0024,0.0180,0.0185,0.0060
331,0.0025,0.0210,0.0208,0.0060
332,0.0052,0.0151,0.0131,0.0127
333,0.0051,0.0180,0.0189,0.0111
334,0.0047,0.0177,0.0226,0.0093
335,0.0030,0.0339,0.0279,0.0054
336,0.0042,0.0199,0.0183,0.0091
337,0.0017,0.0080,0.0113,0.0072
338,0.0017,0.0080,0.0113,0.0072
339,0.0017,0.0080,0.0113,0.0072
340,0.0018,0.0076,0.0104,0.0076
341,0.0018,0.0076,0.0104,0.0076
342,0.0018,0.0109,0.0141,0.0082
343,0.0019,0.0124,0.0159,0.0080
344,0.0020,0.0146,0.0188,0.0077
345,0.0020,0.0124,0.0157,0.0073
346,0.0020,0.0102,0.0131,0.0069
347,0.0049,0.0155,0.0147,0.0103
348,0.0022,0.0102,0.0123,0.0065
349,0.0023,0.0127,0.0155,0.0064
350,0.0024,0.0148,0.0177,0.0063
351,0.0024,0.0176,0.0216,0.0062
352,0.0018,0.0109,0.0141,0.0082
353,0.0051,0.0210,0.0215,0.0181
354,0.0048,0.0135,0.0144,0.0164
355,0.0045,0.0111,0.0153,0.0150
356,0.0042,0.0117,0.0131,0.0143
357,0.0040,0.0124,0.0124,0.0130
358,0.0057,0.0205,0.0191,0.0141
359,0.0039,0.0122,0.0123,0.0114
360,0.0037,0.0100,0.0121,0.0091
361,0.0033,0.0087,0.0117,0.0062
362,0.0028,0.0085,0.0124,0.0036
363,0.0022,0.0091,0.0132,0.0038
364,0.0019,0.0124,0.0159,0.0080
365,0.0016,0.0066,0.0091,0.0111
366,0.0021,0.0082,0.0095,0.0152
367,0.0028,0.0109,0.0103,0.0188
368,0.0034,0.0126,0.0106,0.0216
369,0.0063,0.0260,0.0215,0.0201
370,0.0039,0.0099,0.0094,0.0232
371,0.0044,0.0090,0.0141,0.0230
372,0.0049,0.0141,0.0201,0.0212
373,0.0053,0.0161,0.0201,0.0187
374,0.0057,0.0131,0.0115,0.0171
375,0.0066,0.0330,0.0329,0.0170
376,0.0020,0.0146,0.0188,0.0077
377,0.0017,0.0080,0.0113,0.0072
378,0.0017,0.0080,0.0113,0.0072
379,0.0017,0.0080,0.0113,0.0072
380,0.0068,0.0258,0.0196,0.0266
381,0.0017,0.0080,0.0113,0.0072
382,0.0017,0.0080,0.0113,0.0072
383,0.0017,0.0080,0.0113,0.0072
384,0.0017,0.0080,0.0113,0.0072
385,0.0017,0.0080,0.0113,0.0072
386,0.0017,0.0080,0.0113,0.0072
387,0.0017,0.0080,0.0113,0.0072
388,0.0020,0.0124,0.0157,0.0073
389,0.0017,0.0080,0.0113,0.0072
390,0.0017,0.0080,0.0113,0.0072
391,0.0074,0.0312,0.0360,0.0321
392,0.0017,0.0080,0.0113,0.0072
393,0.0017,0.0080,0.0113,0.0072
394,0.0017,0.0080,0.0113,0.0072
395,0.0017,0.0080,0.0113,0.0072
396,0.0017,0.0080,0.0113,0.0072
397,0.0017,0.0080,0.0113,0.0072
398,0.0017,0.0080,0.0113,0.0072
399,0.0017,0.0080,0.0113,0.0072
400,0.0020,0.0102,0.0131,0.0069
401,0.0017,0.0080,0.0113,0.0072
402,0.0023,0.0180,0.0182,0.0056
403,0.0017,0.0080,0.0113,0.0072
404,0.0017,0.0080,0.0113,0.0072
405,0.0017,0.0080,0.0113,0.0072
406,0.0017,0.0080,0.0113,0.0072
407,0.0017,0.0080,0.0113,0.0072
408,0.0017,0.0080,0.0113,0.0072
409,0.0017,0.0080,0.0113,0.0072
410,0.0017,0.0080,0.0113,0.0072
411,0.0017,0.0080,0.0113,0.0072
412,0.0022,0.0102,0.0123,0.0065
413,0.0019,0.0109,0.0124,0.0060
414,0.0017,0.0080,0.0113,0.0072
415,0.0017,0.0080,0.0113,0.0072
416,0.0017,0.0080,0.0113,0.0072
417,0.0017,0.0080,0.0113,0.0072
418,0.0017,0.0080,0.0113,0.0072
419,0.0033,0.0134,0.0131,0.0042
420,0.0030,0.0112,0.0116,0.0037
421,0.0027,0.0083,0.0121,0.0033
422,0.0025,0.0075,0.0105,0.0032
423,0.0020,0.0102,0.0131,0.0069
424,0.0019,0.0109,0.0124,0.0060
425,0.0023,0.0127,0.0155,0.0064
426,0.0022,0.0077,0.0100,0.0042
427,0.0022,0.0098,0.0119,0.0051
428,0.0022,0.0114,0.0132,0.0059
429,0.0022,0.0127,0.0153,0.0066
430,0.0020,0.0109,0.0140,0.0070
431,0.0018,0.0076,0.0104,0.0076
432,0.0018,0.0109,0.0141,0.0082
433,0.0019,0.0124,0.0159,0.0080
434,0.0020,0.0146,0.0188,0.0077
435,0.0019,0.0109,0.0124,0.0060
436,0.0020,0.0124,0.0157,0.0073
437,0.0024,0.0148,0.0177,0.0063
438,0.0020,0.0102,0.0131,0.0069
439,0.0022,0.0102,0.0123,0.0065
440,0.0023,0.0127,0.0155,0.0064
441,0.0024,0.0148,0.0177,0.0063
442,0.0024,0.0176,0.0216,0.0062
443,0.0051,0.0210,0.0215,0.0181
444,0.0048,0.0135,0.0144,0.0164
445,0.0045,0.0111,0.0153,0.0150
446,0.0022,0.0146,0.0137,0.0061
447,0.0019,0.0109,0.0124,0.0060
448,0.0018,0.0081,0.0108,0.0074
449,0.0018,0.0081,0.0108,0.0074
450,0.0018,0.0081,0.0108,0.0074
451,0.0018,0.0101,0.0131,0.0080
452,0.0018,0.0101,0.0131,0.0080
453,0.0019,0.0115,0.0148,0.0085
454,0.0019,0.0119,0.0157,0.0084
455,0.0020,0.0162,0.0206,0.0082
456,0.0021,0.0137,0.0175,0.0077
457,0.0021,0.0095,0.0122,0.0071
458,0.0019,0.0109,0.0124,0.0060
459,0.0022,0.0106,0.0131,0.0068
460,0.0023,0.0122,0.0152,0.0065
461,0.0024,0.0142,0.0185,0.0065
462,0.0025,0.0177,0.0221,0.0063
463,0.0019,0.0115,0.0148,0.0085
464,0.0052,0.0290,0.0281,0.0266
465,0.0049,0.0175,0.0162,0.0238
466,0.0044,0.0137,0.0136,0.0216
467,0.0042,0.0147,0.0131,0.0200
468,0.0040,0.0158,0.0127,0.0178
469,0.0019,0.0109,0.0124,0.0060
470,0.0040,0.0135,0.0128,0.0151
471,0.0037,0.0109,0.0120,0.0119
472,0.0033,0.0089,0.0116,0.0082
473,0.0029,0.0088,0.0129,0.0043
474,0.0023,0.0085,0.0119,0.0035
475,0.0019,0.0119,0.0157,0.0084
476,0.0017,0.0068,0.0089,0.0121
477,0.0022,0.0077,0.0092,0.0169
478,0.0028,0.0098,0.0099,0.0212
479,0.0035,0.0113,0.0100,0.0247
480,0.0019,0.0109,0.0124,0.0060
481,0.0039,0.0098,0.0113,0.0269
482,0.0044,0.0101,0.0158,0.0274
483,0.0048,0.0140,0.0207,0.0263
484,0.0053,0.0181,0.0237,0.0240
485,0.0056,0.0137,0.0134,0.0227
486,0.0066,0.0353,0.0336,0.0233
487,0.0020,0.0162,0.0206,0.0082
488,0.0018,0.0081,0.0108,0.0074
489,0.0018,0.0081,0.0108,0.0074
490,0.0018,0.0081,0.0108,0.0074
491,0.0019,0.0109,0.0124,0.0060
492,0.0018,0.0081,0.0108,0.0074
493,0.0018,0.0081,0.0108,0.0074
494,0.0018,0.0081,0.0108,0.0074
495,0.0018,0.0081,0.0108,0.0074
496,0.0018,0.0081,0.0108,0.0074
497,0.0018,0.0081,0.0108,0.0074
498,0.0018,0.0081,0.0108,0.0074
499,0.0021,0.0137,0.0175,0.0077
500,0.0018,0.0081,0.0108,0.0074
501,0.0018,0.0081,0.0108,0.0074
502,0.0019,0.0109,0.0124,0.0060
503,0.0018,0.0081,0.0108,0.0074
504,0.0018,0.0081,0.0108,0.0074
505,0.0018,0.0081,0.0108,0.0074
506,0.0018,0.0081,0.0108,0.0074
507,0.0018,0.0081,0.0108,0.0074
508,0.0018,0.0081,0.0108,0.0074
509,0.0018,0.0081,0.0108,0.0074
510,0.0018,0.0081,0.0108,0.0074
511,0.0021,0.0095,0.0122,0.0071
512,0.0018,0.0081,0.0108,0.0074
513,0.0019,0.0109,0.0124,0.0060
514,0.0018,0.0081,0.0108,0.0074
515,0.0018,0.0081,0.0108,0.0074
516,0.0018,0.0081,0.0108,0.0074
517,0.0018,0.0081,0.0108,0.0074
518,0.0018,0.0081,0.0108,0.0074
519,0.0018,0.0081,0.0108,0.0074
520,0.0018,0.0081,0.0108,0.0074
521,0.0018,0.0081,0.0108,0.0074
522,0.0018,0.0081,0.0108,0.0074
523,0.0022,0.0106,0.0131,0.0068
524,0.0024,0.0185,0.0179,0.0052
525,0.0018,0.0081,0.0108,0.0074
526,0.0018,0.0081,0.0108,0.0074
527,0.0018,0.0081,0.0108,0.0074
528,0.0018,0.0081,0.0108,0.0074
529,0.0018,0.0081,0.0108,0.0074
530,0.0033,0.0136,0.0126,0.0040
531,0.0029,0.0109,0.0123,0.0036
532,0.0027,0.0082,0.0128,0.0033
533,0.0025,0.0075,0.0120,0.0033
534,0.0021,0.0095,0.0122,0.0071
535,0.0019,0.0109,0.0124,0.0060
536,0.0023,0.0122,0.0152,0.0065
537,0.0023,0.0079,0.0103,0.0044
538,0.0022,0.0107,0.0116,0.0053
539,0.0023,0.0132,0.0137,0.0061
540,0.0022,0.0147,0.0164,0.0069
541,0.0021,0.0123,0.0146,0.0073
542,0.0018,0.0101,0.0131,0.0080
543,0.0019,0.0115,0.0148,0.0085
544,0.0019,0.0119,0.0157,0.0084
545,0.0020,0.0162,0.0206,0.0082
546,0.0019,0.0109,0.0124,0.0060
547,0.0021,0.0137,0.0175,0.0077
548,0.0024,0.0142,0.0185,0.0065
549,0.0021,0.0095,0.0122,0.0071
550,0.0022,0.0106,0.0131,0.0068
551,0.0023,0.0122,0.0152,0.0065
552,0.0024,0.0142,0.0185,0.0065
553,0.0025,0.0177,0.0221,0.0063
554,0.0052,0.0290,0.0281,0.0266
555,0.0049,0.0175,0.0162,0.0238
556,0.0044,0.0137,0.0136,0.0216
557,0.0069,0.0503,0.0326,0.0534
558,0.0019,0.0109,0.0124,0.0060
559,0.0019,0.0109,0.0124,0.0060
560,0.0019,0.0109,0.0124,0.0060
561,0.0019,0.0109,0.0124,0.0060
562,0.0019,0.0109,0.0124,0.0060
563,0.0019,0.0109,0.0124,0.0060
564,0.0019,0.0109,0.0124,0.0060
565,0.0019,0.0109,0.0124,0.0060
566,0.0023,0.0200,0.0190,0.0049
567,0.0019,0.0109,0.0124,0.0060
568,0.0066,0.0464,0.0376,0.0466
569,0.0019,0.0109,0.0124,0.0060
570,0.0019,0.0109,0.0124,0.0060
571,0.0019,0.0109,0.0124,0.0060
572,0.0019,0.0109,0.0124,0.0060
573,0.0019,0.0109,0.0124,0.0060
574,0.0019,0.0109,0.0124,0.0060
575,0.0019,0.0109,0.0124,0.0060
576,0.0019,0.0109,0.0124,0.0060
577,0.0019,0.0109,0.0124,0.0060
578,0.0024,0.0207,0.0192,0.0048
579,0.0060,0.0392,0.0381,0.0398
580,0.0019,0.0109,0.0124,0.0060
581,0.0019,0.0109,0.0124,0.0060
582,0.0019,0.0109,0.0124,0.0060
583,0.0019,0.0109,0.0124,0.0060
584,0.0019,0.0109,0.0124,0.0060
585,0.0035,0.0087,0.0128,0.0047
586,0.0031,0.0082,0.0121,0.0040
587,0.0027,0.0084,0.0123,0.0034
588,0.0026,0.0087,0.0120,0.0032
589,0.0023,0.0200,0.0190,0.0049
590,0.0053,0.0284,0.0314,0.0329
591,0.0025,0.0249,0.0229,0.0049
592,0.0024,0.0087,0.0119,0.0037
593,0.0025,0.0095,0.0129,0.0045
594,0.0026,0.0121,0.0163,0.0051
595,0.0026,0.0133,0.0176,0.0057
596,0.0023,0.0115,0.0152,0.0061
597,0.0019,0.0131,0.0123,0.0061
598,0.0020,0.0117,0.0118,0.0061
599,0.0022,0.0147,0.0157,0.0060
600,0.0023,0.0180,0.0182,0.0056
601,0.0047,0.0174,0.0231,0.0264
602,0.0024,0.0185,0.0179,0.0052
603,0.0027,0.0264,0.0235,0.0051
604,0.0023,0.0200,0.0190,0.0049
605,0.0024,0.0207,0.0192,0.0048
606,0.0025,0.0249,0.0229,0.0049
607,0.0027,0.0264,0.0235,0.0051
608,0.0028,0.0274,0.0240,0.0052
609,0.0062,0.0353,0.0219,0.0381
610,0.0062,0.0368,0.0309,0.0332
611,0.0056,0.0311,0.0317,0.0280
612,0.0021,0.0126,0.0138,0.0063
613,0.0043,0.0126,0.0174,0.0207
614,0.0018,0.0082,0.0101,0.0058
615,0.0018,0.0082,0.0101,0.0058
616,0.0018,0.0082,0.0101,0.0058
617,0.0018,0.0096,0.0106,0.0061
618,0.0018,0.0096,0.0106,0.0061
619,0.0019,0.0089,0.0105,0.0064
620,0.0020,0.0118,0.0140,0.0064
621,0.0021,0.0149,0.0175,0.0060
622,0.0021,0.0134,0.0150,0.0056
623,0.0021,0.0142,0.0153,0.0052
624,0.0039,0.0126,0.0153,0.0163
625,0.0022,0.0142,0.0154,0.0050
626,0.0022,0.0163,0.0174,0.0050
627,0.0024,0.0172,0.0178,0.0050
628,0.0025,0.0182,0.0186,0.0049
629,0.0019,0.0089,0.0105,0.0064
630,0.0055,0.0144,0.0137,0.0112
631,0.0054,0.0164,0.0164,0.0098
632,0.0050,0.0159,0.0193,0.0083
633,0.0045,0.0115,0.0161,0.0070
634,0.0042,0.0111,0.0140,0.0062
635,0.0035,0.0123,0.0148,0.0127
636,0.0040,0.0128,0.0125,0.0056
637,0.0037,0.0119,0.0124,0.0048
638,0.0034,0.0101,0.0120,0.0038
639,0.0030,0.0089,0.0117,0.0031
640,0.0023,0.0082,0.0107,0.0038
641,0.0020,0.0118,0.0140,0.0064
642,0.0017,0.0094,0.0105,0.0082
643,0.0021,0.0132,0.0134,0.0108
644,0.0028,0.0172,0.0167,0.0130
645,0.0034,0.0190,0.0173,0.0145
646,0.0031,0.0123,0.0153,0.0097
647,0.0041,0.0150,0.0129,0.0147
648,0.0047,0.0105,0.0109,0.0133
649,0.0053,0.0151,0.0167,0.0108
650,0.0058,0.0185,0.0174,0.0095
651,0.0061,0.0173,0.0143,0.0106
652,0.0068,0.0322,0.0378,0.0124
653,0.0021,0.0149,0.0175,0.0060
654,0.0018,0.0082,0.0101,0.0058
655,0.0018,0.0082,0.0101,0.0058
656,0.0018,0.0082,0.0101,0.0058
657,0.0025,0.0125,0.0147,0.0076
658,0.0018,0.0082,0.0101,0.0058
659,0.0018,0.0082,0.0101,0.0058
660,0.0018,0.0082,0.0101,0.0058
661,0.0018,0.0082,0.0101,0.0058
662,0.0018,0.0082,0.0101,0.0058
663,0.0018,0.0082,0.0101,0.0058
664,0.0018,0.0082,0.0101,0.0058
665,0.0021,0.0134,0.0150,0.0056
666,0.0018,0.0082,0.0101,0.0058
667,0.0018,0.0082,0.0101,0.0058
668,0.0023,0.0165,0.0166,0.0060
669,0.0018,0.0082,0.0101,0.0058
670,0.0018,0.0082,0.0101,0.0058
671,0.0018,0.0082,0.0101,0.0058
672,0.0018,0.0082,0.0101,0.0058
673,0.0018,0.0082,0.0101,0.0058
674,0.0018,0.0082,0.0101,0.0058
675,0.0018,0.0082,0.0101,0.0058
676,0.0018,0.0082,0.0101,0.0058
677,0.0021,0.0142,0.0153,0.0052
678,0.0018,0.0082,0.0101,0.0058
679,0.0020,0.0146,0.0138,0.0058
680,0.0018,0.0082,0.0101,0.0058
681,0.0018,0.0082,0.0101,0.0058
682,0.0018,0.0082,0.0101,0.0058
683,0.0018,0.0082,0.0101,0.0058
684,0.0018,0.0082,0.0101,0.0058
685,0.0018,0.0082,0.0101,0.0058
686,0.0018,0.0082,0.0101,0.0058
687,0.0018,0.0082,0.0101,0.0058
688,0.0018,0.0082,0.0101,0.0058
689,0.0022,0.0142,0.0154,0.0050
690,0.0024,0.0184,0.0165,0.0063
691,0.0018,0.0082,0.0101,0.0058
692,0.0018,0.0082,0.0101,0.0058
693,0.0018,0.0082,0.0101,0.0058
694,0.0018,0.0082,0.0101,0.0058
695,0.0018,0.0082,0.0101,0.0058
696,0.0035,0.0080,0.0116,0.0046
697,0.0031,0.0069,0.0124,0.0039
698,0.0028,0.0071,0.0134,0.0034
699,0.0027,0.0073,0.0121,0.0031
700,0.0021,0.0142,0.0153,0.0052
701,0.0030,0.0222,0.0203,0.0074
702,0.0022,0.0163,0.0174,0.0050
703,0.0024,0.0072,0.0097,0.0036
704,0.0025,0.0082,0.0098,0.0043
705,0.0026,0.0102,0.0119,0.0050
706,0.0026,0.0125,0.0146,0.0056
707,0.0023,0.0101,0.0128,0.0059
708,0.0018,0.0096,0.0106,0.0061
709,0.0019,0.0089,0.0105,0.0064
710,0.0020,0.0118,0.0140,0.0064
711,0.0021,0.0149,0.0175,0.0060
712,0.0037,0.0242,0.0222,0.0089
713,0.0021,0.0134,0.0150,0.0056
714,0.0024,0.0172,0.0178,0.0050
715,0.0021,0.0142,0.0153,0.0052
716,0.0022,0.0142,0.0154,0.0050
717,0.0022,0.0163,0.0174,0.0050
718,0.0024,0.0172,0.0178,0.0050
719,0.0025,0.0182,0.0186,0.0049
720,0.0055,0.0144,0.0137,0.0112
721,0.0054,0.0164,0.0164,0.0098
722,0.0050,0.0159,0.0193,0.0083
723,0.0021,0.0160,0.0143,0.0062
724,0.0043,0.0218,0.0204,0.0111
725,0.0019,0.0077,0.0098,0.0062
726,0.0019,0.0077,0.0098,0.0062
727,0.0019,0.0077,0.0098,0.0062
728,0.0018,0.0084,0.0102,0.0065
729,0.0018,0.0084,0.0102,0.0065
730,0.0019,0.0087,0.0109,0.0070
731,0.0020,0.0102,0.0127,0.0068
732,0.0021,0.0129,0.0165,0.0065
733,0.0022,0.0115,0.0144,0.0062
734,0.0021,0.0118,0.0142,0.0057
735,0.0051,0.0177,0.0170,0.0150
736,0.0022,0.0125,0.0143,0.0054
737,0.0023,0.0140,0.0162,0.0053
738,0.0025,0.0144,0.0167,0.0051
739,0.0025,0.0142,0.0172,0.0049
740,0.0019,0.0087,0.0109,0.0070
741,0.0053,0.0232,0.0251,0.0200
742,0.0052,0.0144,0.0148,0.0181
743,0.0047,0.0114,0.0134,0.0168
744,0.0044,0.0136,0.0127,0.0160
745,0.0042,0.0155,0.0131,0.0147
746,0.0060,0.0236,0.0211,0.0211
747,0.0040,0.0150,0.0132,0.0130
748,0.0038,0.0128,0.0125,0.0105
749,0.0034,0.0111,0.0118,0.0074
750,0.0030,0.0089,0.0110,0.0042
751,0.0024,0.0081,0.0105,0.0030
752,0.0020,0.0102,0.0127,0.0068
753,0.0017,0.0086,0.0104,0.0102
754,0.0021,0.0115,0.0129,0.0145
755,0.0028,0.0144,0.0144,0.0182
756,0.0034,0.0159,0.0147,0.0212
757,0.0067,0.0312,0.0250,0.0288
758,0.0040,0.0129,0.0114,0.0229
759,0.0046,0.0093,0.0109,0.0229
760,0.0051,0.0123,0.0156,0.0211
761,0.0056,0.0153,0.0170,0.0187
762,0.0059,0.0150,0.0135,0.0171
763,0.0067,0.0378,0.0401,0.0172
764,0.0021,0.0129,0.0165,0.0065
765,0.0019,0.0077,0.0098,0.0062
766,0.0019,0.0077,0.0098,0.0062
767,0.0019,0.0077,0.0098,0.0062
768,0.0072,0.0321,0.0230,0.0368
769,0.0019,0.0077,0.0098,0.0062
770,0.0019,0.0077,0.0098,0.0062
771,0.0019,0.0077,0.0098,0.0062
772,0.0019,0.0077,0.0098,0.0062
773,0.0019,0.0077,0.0098,0.0062
774,0.0019,0.0077,0.0098,0.0062
775,0.0019,0.0077,0.0098,0.0062
776,0.0022,0.0115,0.0144,0.0062
777,0.0019,0.0077,0.0098,0.0062
778,0.0019,0.0077,0.0098,0.0062
779,0.0079,0.0343,0.0351,0.0441
780,0.0019,0.0077,0.0098,0.0062
781,0.0019,0.0077,0.0098,0.0062
782,0.0019,0.0077,0.0098,0.0062
783,0.0019,0.0077,0.0098,0.0062
784,0.0019,0.0077,0.0098,0.0062
785,0.0019,0.0077,0.0098,0.0062
786,0.0019,0.0077,0.0098,0.0062
787,0.0019,0.0077,0.0098,0.0062
788,0.0021,0.0118,0.0142,0.0057
789,0.0019,0.0077,0.0098,0.0062
790,0.0024,0.0199,0.0194,0.0056
791,0.0019,0.0077,0.0098,0.0062
792,0.0019,0.0077,0.0098,0.0062
793,0.0019,0.0077,0.0098,0.0062
794,0.0019,0.0077,0.0098,0.0062
795,0.0019,0.0077,0.0098,0.0062
796,0.0019,0.0077,0.0098,0.0062
797,0.0019,0.0077,0.0098,0.0062
798,0.0019,0.0077,0.0098,0.0062
799,0.0019,0.0077,0.0098,0.0062
800,0.0022,0.0125,0.0143,0.0054
801,0.0021,0.0126,0.0138,0.0063
802,0.0019,0.0077,0.0098,0.0062
803,0.0019,0.0077,0.0098,0.0062
804,0.0019,0.0077,0.0098,0.0062
805,0.0019,0.0077,0.0098,0.0062
806,0.0019,0.0077,0.0098,0.0062
807,0.0035,0.0074,0.0163,0.0043
808,0.0031,0.0069,0.0158,0.0037
809,0.0028,0.0073,0.0174,0.0032
810,0.0027,0.0073,0.0155,0.0030
811,0.0021,0.0118,0.0142,0.0057
812,0.0021,0.0126,0.0138,0.0063
813,0.0023,0.0140,0.0162,0.0053
814,0.0024,0.0070,0.0112,0.0037
815,0.0026,0.0080,0.0097,0.0045
816,0.0026,0.0095,0.0095,0.0052
817,0.0026,0.0107,0.0112,0.0058
818,0.0023,0.0089,0.0104,0.0061
819,0.0018,0.0084,0.0102,0.0065
820,0.0019,0.0087,0.0109,0.0070
821,0.0020,0.0102,0.0127,0.0068
822,0.0021,0.0129,0.0165,0.0065
823,0.0021,0.0126,0.0138,0.0063
824,0.0022,0.0115,0.0144,0.0062
825,0.0025,0.0144,0.0167,0.0051
826,0.0021,0.0118,0.0142,0.0057
827,0.0022,0.0125,0.0143,0.0054
828,0.0023,0.0140,0.0162,0.0053
829,0.0025,0.0144,0.0167,0.0051
830,0.0025,0.0142,0.0172,0.0049
831,0.0053,0.0232,0.0251,0.0200
832,0.0052,0.0144,0.0148,0.0181
833,0.0047,0.0114,0.0134,0.0168
834,0.0021,0.0160,0.0143,0.0062
835,0.0021,0.0126,0.0138,0.0063
836,0.0020,0.0080,0.0101,0.0064
837,0.0020,0.0080,0.0101,0.0064
838,0.0020,0.0080,0.0101,0.0064
839,0.0019,0.0089,0.0109,0.0068
840,0.0019,0.0089,0.0109,0.0068
841,0.0020,0.0095,0.0118,0.0073
842,0.0021,0.0100,0.0126,0.0071
843,0.0021,0.0127,0.0162,0.0069
844,0.0022,0.0118,0.0150,0.0064
845,0.0021,0.0121,0.0141,0.0060
846,0.0021,0.0126,0.0138,0.0063
847,0.0022,0.0132,0.0152,0.0057
848,0.0024,0.0144,0.0165,0.0054
849,0.0025,0.0140,0.0168,0.0053
850,0.0026,0.0146,0.0179,0.0050
851,0.0020,0.0095,0.0118,0.0073
852,0.0055,0.0319,0.0323,0.0287
853,0.0051,0.0199,0.0187,0.0259
854,0.0047,0.0162,0.0143,0.0236
855,0.0044,0.0178,0.0145,0.0219
856,0.0041,0.0191,0.0151,0.0196
857,0.0021,0.0126,0.0138,0.0063
858,0.0040,0.0167,0.0143,0.0168
859,0.0038,0.0146,0.0134,0.0135
860,0.0034,0.0117,0.0124,0.0095
861,0.0030,0.0089,0.0112,0.0052
862,0.0024,0.0080,0.0104,0.0028
863,0.0021,0.0100,0.0126,0.0071
864,0.0018,0.0096,0.0118,0.0112
865,0.0022,0.0112,0.0129,0.0162
866,0.0028,0.0137,0.0141,0.0207
867,0.0035,0.0157,0.0145,0.0243
868,0.0021,0.0126,0.0138,0.0063
869,0.0040,0.0121,0.0111,0.0266
870,0.0046,0.0105,0.0131,0.0272
871,0.0051,0.0127,0.0165,0.0263
872,0.0055,0.0151,0.0179,0.0243
873,0.0058,0.0156,0.0143,0.0229
874,0.0068,0.0407,0.0413,0.0236
875,0.0021,0.0127,0.0162,0.0069
876,0.0020,0.0080,0.0101,0.0064
877,0.0020,0.0080,0.0101,0.0064
878,0.0020,0.0080,0.0101,0.0064
879,0.0021,0.0126,0.0138,0.0063
880,0.0020,0.0080,0.0101,0.0064
881,0.0020,0.0080,0.0101,0.0064
882,0.0020,0.0080,0.0101,0.0064
883,0.0020,0.0080,0.0101,0.0064
884,0.0020,0.0080,0.0101,0.0064
885,0.0020,0.0080,0.0101,0.0064
886,0.0020,0.0080,0.0101,0.0064
887,0.0022,0.0118,0.0150,0.0064
888,0.0020,0.0080,0.0101,0.0064
889,0.0020,0.0080,0.0101,0.0064
890,0.0021,0.0126,0.0138,0.0063
891,0.0020,0.0080,0.0101,0.0064
892,0.0020,0.0080,0.0101,0.0064
893,0.0020,0.0080,0.0101,0.0064
894,0.0020,0.0080,0.0101,0.0064
895,0.0020,0.0080,0.0101,0.0064
896,0.0020,0.0080,0.0101,0.0064
897,0.0020,0.0080,0.0101,0.0064
898,0.0020,0.0080,0.0101,0.0064
899,0.0021,0.0121,0.0141,0.0060
900,0.0020,0.0080,0.0101,0.0064
901,0.0021,0.0126,0.0138,0.0063
902,0.0020,0.0080,0.0101,0.0064
903,0.0020,0.0080,0.0101,0.0064
904,0.0020,0.0080,0.0101,0.0064
905,0.0020,0.0080,0.0101,0.0064
906,0.0020,0.0080,0.0101,0.0064
907,0.0020,0.0080,0.0101,0.0064
908,0.0020,0.0080,0.0101,0.0064
909,0.0020,0.0080,0.0101,0.0064
910,0.0020,0.0080,0.0101,0.0064
911,0.0022,0.0132,0.0152,0.0057
912,0.0025,0.0215,0.0199,0.0051
913,0.0020,0.0080,0.0101,0.0064
914,0.0020,0.0080,0.0101,0.0064
915,0.0020,0.0080,0.0101,0.0064
916,0.0020,0.0080,0.0101,0.0064
917,0.0020,0.0080,0.0101,0.0064
918,0.0035,0.0080,0.0178,0.0041
919,0.0031,0.0068,0.0191,0.0035
920,0.0027,0.0076,0.0198,0.0031
921,0.0026,0.0075,0.0186,0.0030
922,0.0021,0.0121,0.0141,0.0060
923,0.0021,0.0126,0.0138,0.0063
924,0.0024,0.0144,0.0165,0.0054
925,0.0025,0.0070,0.0126,0.0038
926,0.0026,0.0089,0.0097,0.0047
927,0.0027,0.0108,0.0098,0.0054
928,0.0027,0.0118,0.0116,0.0060
929,0.0024,0.0100,0.0109,0.0063
930,0.0019,0.0089,0.0109,0.0068
931,0.0020,0.0095,0.0118,0.0073
932,0.0021,0.0100,0.0126,0.0071
933,0.0021,0.0127,0.0162,0.0069
934,0.0021,0.0126,0.0138,0.0063
935,0.0022,0.0118,0.0150,0.0064
936,0.0025,0.0140,0.0168,0.0053
937,0.0021,0.0121,0.0141,0.0060
938,0.0022,0.0132,0.0152,0.0057
939,0.0024,0.0144,0.0165,0.0054
940,0.0025,0.0140,0.0168,0.0053
941,0.0026,0.0146,0.0179,0.0050
942,0.0055,0.0319,0.0323,0.0287
943,0.0051,0.0199,0.0187,0.0259
944,0.0047,0.0162,0.0143,0.0236
945,0.0022,0.0146,0.0137,0.0061
946,0.0021,0.0126,0.0138,0.0063
947,0.0024,0.0127,0.0145,0.0054
948,0.0024,0.0127,0.0145,0.0054
949,0.0024,0.0127,0.0145,0.0054
950,0.0023,0.0146,0.0142,0.0052
951,0.0023,0.0146,0.0142,0.0052
952,0.0024,0.0140,0.0139,0.0050
953,0.0025,0.0171,0.0171,0.0049
954,0.0026,0.0204,0.0196,0.0044
955,0.0027,0.0222,0.0205,0.0041
956,0.0026,0.0250,0.0228,0.0039
957,0.0021,0.0126,0.0138,0.0063
958,0.0027,0.0258,0.0233,0.0039
959,0.0028,0.0302,0.0267,0.0041
960,0.0029,0.0308,0.0263,0.0043
961,0.0030,0.0316,0.0271,0.0044
962,0.0024,0.0140,0.0139,0.0050
963,0.0073,0.0545,0.0348,0.0521
964,0.0070,0.0510,0.0401,0.0454
965,0.0064,0.0434,0.0403,0.0387
966,0.0056,0.0326,0.0339,0.0319
967,0.0049,0.0210,0.0255,0.0255
968,0.0021,0.0126,0.0138,0.0063
969,0.0046,0.0144,0.0196,0.0199
970,0.0042,0.0129,0.0168,0.0156
971,0.0038,0.0124,0.0162,0.0120
972,0.0034,0.0129,0.0164,0.0089
973,0.0028,0.0129,0.0155,0.0068
974,0.0025,0.0171,0.0171,0.0049
975,0.0022,0.0137,0.0141,0.0051
976,0.0026,0.0162,0.0160,0.0058
977,0.0032,0.0198,0.0196,0.0071
978,0.0038,0.0219,0.0215,0.0089
979,0.0021,0.0126,0.0138,0.0063
980,0.0045,0.0198,0.0195,0.0114
981,0.0053,0.0179,0.0166,0.0155
982,0.0062,0.0263,0.0215,0.0218
983,0.0070,0.0337,0.0251,0.0295
984,0.0075,0.0344,0.0235,0.0375
985,0.0081,0.0361,0.0368,0.0448
986,0.0026,0.0204,0.0196,0.0044
987,0.0024,0.0127,0.0145,0.0054
988,0.0024,0.0127,0.0145,0.0054
989,0.0024,0.0127,0.0145,0.0054
990,0.0021,0.0126,0.0138,0.0063
991,0.0024,0.0127,0.0145,0.0054
992,0.0024,0.0127,0.0145,0.0054
993,0.0024,0.0127,0.0145,0.0054
994,0.0024,0.0127,0.0145,0.0054
995,0.0024,0.0127,0.0145,0.0054
996,0.0024,0.0127,0.0145,0.0054
997,0.0024,0.0127,0.0145,0.0054
998,0.0027,0.0222,0.0205,0.0041
999,0.0024,0.0127,0.0145,0.0054
1000,0.0024,0.0127,0.0145,0.0054
1001,0.0021,0.0126,0.0138,0.0063
1002,0.0024,0.0127,0.0145,0.0054
1003,0.0024,0.0127,0.0145,0.0054
1004,0.0024,0.0127,0.0145,0.0054
1005,0.0024,0.0127,0.0145,0.0054
1006,0.0024,0.0127,0.0145,0.0054
1007,0.0024,0.0127,0.0145,0.0054
1008,0.0024,0.0127,0.0145,0.0054
1009,0.0024,0.0127,0.0145,0.0054
1010,0.0026,0.0250,0.0228,0.0039
1011,0.0024,0.0127,0.0145,0.0054
1012,0.0021,0.0126,0.0138,0.0063
1013,0.0024,0.0127,0.0145,0.0054
1014,0.0024,0.0127,0.0145,0.0054
1015,0.0024,0.0127,0.0145,0.0054
1016,0.0024,0.0127,0.0145,0.0054
1017,0.0024,0.0127,0.0145,0.0054
1018,0.0024,0.0127,0.0145,0.0054
1019,0.0024,0.0127,0.0145,0.0054
1020,0.0024,0.0127,0.0145,0.0054
1021,0.0024,0.0127,0.0145,0.0054
1022,0.0027,0.0258,0.0233,0.0039
1023,0.0021,0.0126,0.0138,0.0063
1024,0.0024,0.0127,0.0145,0.0054
1025,0.0024,0.0127,0.0145,0.0054
1026,0.0024,0.0127,0.0145,0.0054
1027,0.0024,0.0127,0.0145,0.0054
1028,0.0024,0.0127,0.0145,0.0054
1029,0.0037,0.0086,0.0137,0.0044
1030,0.0034,0.0087,0.0135,0.0037
1031,0.0030,0.0095,0.0145,0.0033
1032,0.0029,0.0096,0.0141,0.0030
1033,0.0026,0.0250,0.0228,0.0039
1034,0.0025,0.0238,0.0217,0.0048
1035,0.0028,0.0302,0.0267,0.0041
1036,0.0030,0.0118,0.0157,0.0037
1037,0.0031,0.0131,0.0171,0.0043
1038,0.0032,0.0162,0.0202,0.0049
1039,0.0032,0.0184,0.0226,0.0054
1040,0.0029,0.0160,0.0198,0.0056
1041,0.0023,0.0146,0.0142,0.0052
1042,0.0024,0.0140,0.0139,0.0050
1043,0.0025,0.0171,0.0171,0.0049
1044,0.0026,0.0204,0.0196,0.0044
1045,0.0021,0.0126,0.0138,0.0063
1046,0.0027,0.0222,0.0205,0.0041
1047,0.0029,0.0308,0.0263,0.0043
1048,0.0026,0.0250,0.0228,0.0039
1049,0.0027,0.0258,0.0233,0.0039
1050,0.0028,0.0302,0.0267,0.0041
1051,0.0029,0.0308,0.0263,0.0043
1052,0.0030,0.0316,0.0271,0.0044
1053,0.0073,0.0545,0.0348,0.0521
1054,0.0070,0.0510,0.0401,0.0454
1055,0.0064,0.0434,0.0403,0.0387
1056,0.0023,0.0165,0.0166,0.0060
1057,0.0021,0.0126,0.0138,0.0063
1058,0.0022,0.0113,0.0130,0.0051
1059,0.0022,0.0113,0.0130,0.0051
1060,0.0022,0.0113,0.0130,0.0051
1061,0.0021,0.0125,0.0129,0.0051
1062,0.0021,0.0125,0.0129,0.0051
1063,0.0022,0.0120,0.0126,0.0050
1064,0.0024,0.0153,0.0161,0.0049
1065,0.0024,0.0186,0.0184,0.0045
1066,0.0025,0.0192,0.0184,0.0041
1067,0.0024,0.0209,0.0201,0.0039
1068,0.0021,0.0126,0.0138,0.0063
1069,0.0025,0.0217,0.0204,0.0039
1070,0.0026,0.0253,0.0238,0.0040
1071,0.0027,0.0257,0.0235,0.0041
1072,0.0028,0.0256,0.0242,0.0042
1073,0.0022,0.0120,0.0126,0.0050
1074,0.0066,0.0387,0.0232,0.0367
1075,0.0066,0.0403,0.0324,0.0319
1076,0.0060,0.0347,0.0335,0.0269
1077,0.0054,0.0272,0.0295,0.0219
1078,0.0048,0.0166,0.0211,0.0170
1079,0.0021,0.0126,0.0138,0.0063
1080,0.0044,0.0120,0.0159,0.0130
1081,0.0041,0.0117,0.0153,0.0102
1082,0.0037,0.0114,0.0149,0.0078
1083,0.0033,0.0114,0.0146,0.0062
1084,0.0027,0.0114,0.0138,0.0053
1085,0.0024,0.0153,0.0161,0.0049
1086,0.0020,0.0123,0.0131,0.0056
1087,0.0024,0.0152,0.0155,0.0065
1088,0.0030,0.0187,0.0190,0.0074
1089,0.0037,0.0202,0.0202,0.0082
1090,0.0021,0.0126,0.0138,0.0063
1091,0.0044,0.0180,0.0179,0.0089
1092,0.0051,0.0155,0.0147,0.0105
1093,0.0060,0.0233,0.0199,0.0146
1094,0.0066,0.0287,0.0219,0.0207
1095,0.0070,0.0280,0.0206,0.0272
1096,0.0076,0.0325,0.0379,0.0327
1097,0.0024,0.0186,0.0184,0.0045
1098,0.0022,0.0113,0.0130,0.0051
1099,0.0022,0.0113,0.0130,0.0051
1100,0.0022,0.0113,0.0130,0.0051
1101,0.0021,0.0126,0.0138,0.0063
1102,0.0022,0.0113,0.0130,0.0051
1103,0.0022,0.0113,0.0130,0.0051
1104,0.0022,0.0113,0.0130,0.0051
1105,0.0022,0.0113,0.0130,0.0051
1106,0.0022,0.0113,0.0130,0.0051
1107,0.0022,0.0113,0.0130,0.0051
1108,0.0022,0.0113,0.0130,0.0051
1109,0.0025,0.0192,0.0184,0.0041
1110,0.0022,0.0113,0.0130,0.0051
1111,0.0022,0.0113,0.0130,0.0051
1112,0.0021,0.0126,0.0138,0.0063
1113,0.0022,0.0113,0.0130,0.0051
1114,0.0022,0.0113,0.0130,0.0051
1115,0.0022,0.0113,0.0130,0.0051
1116,0.0022,0.0113,0.0130,0.0051
1117,0.0022,0.0113,0.0130,0.0051
1118,0.0022,0.0113,0.0130,0.0051
1119,0.0022,0.0113,0.0130,0.0051
1120,0.0022,0.0113,0.0130,0.0051
1121,0.0024,0.0209,0.0201,0.0039
1122,0.0022,0.0113,0.0130,0.0051
1123,0.0021,0.0126,0.0138,0.0063
1124,0.0022,0.0113,0.0130,0.0051
1125,0.0022,0.0113,0.0130,0.0051
1126,0.0022,0.0113,0.0130,0.0051
1127,0.0022,0.0113,0.0130,0.0051
1128,0.0022,0.0113,0.0130,0.0051
1129,0.0022,0.0113,0.0130,0.0051
1130,0.0022,0.0113,0.0130,0.0051
1131,0.0022,0.0113,0.0130,0.0051
1132,0.0022,0.0113,0.0130,0.0051
1133,0.0025,0.0217,0.0204,0.0039
1134,0.0021,0.0126,0.0138,0.0063
1135,0.0022,0.0113,0.0130,0.0051
1136,0.0022,0.0113,0.0130,0.0051
1137,0.0022,0.0113,0.0130,0.0051
1138,0.0022,0.0113,0.0130,0.0051
1139,0.0022,0.0113,0.0130,0.0051
1140,0.0038,0.0080,0.0128,0.0046
1141,0.0034,0.0082,0.0129,0.0039
1142,0.0031,0.0086,0.0138,0.0034
1143,0.0029,0.0089,0.0131,0.0030
1144,0.0024,0.0209,0.0201,0.0039
1145,0.0021,0.0126,0.0138,0.0063
1146,0.0026,0.0253,0.0238,0.0040
1147,0.0029,0.0105,0.0130,0.0035
1148,0.0031,0.0117,0.0140,0.0041
1149,0.0032,0.0162,0.0186,0.0047
1150,0.0032,0.0172,0.0198,0.0052
1151,0.0027,0.0139,0.0166,0.0053
1152,0.0021,0.0125,0.0129,0.0051
1153,0.0022,0.0120,0.0126,0.0050
1154,0.0024,0.0153,0.0161,0.0049
1155,0.0024,0.0186,0.0184,0.0045
1156,0.0026,0.0252,0.0225,0.0048
1157,0.0025,0.0192,0.0184,0.0041
1158,0.0027,0.0257,0.0235,0.0041
1159,0.0024,0.0209,0.0201,0.0039
1160,0.0025,0.0217,0.0204,0.0039
1161,0.0026,0.0253,0.0238,0.0040
1162,0.0027,0.0257,0.0235,0.0041
1163,0.0028,0.0256,0.0242,0.0042
1164,0.0066,0.0387,0.0232,0.0367
1165,0.0066,0.0403,0.0324,0.0319
1166,0.0060,0.0347,0.0335,0.0269
1167,0.0024,0.0199,0.0194,0.0056
1168,0.0021,0.0126,0.0138,0.0063
1169,0.0022,0.0093,0.0111,0.0049
1170,0.0022,0.0093,0.0111,0.0049
1171,0.0022,0.0093,0.0111,0.0049
1172,0.0020,0.0102,0.0121,0.0050
1173,0.0020,0.0102,0.0121,0.0050
1174,0.0021,0.0099,0.0117,0.0053
1175,0.0022,0.0122,0.0139,0.0051
1176,0.0023,0.0152,0.0172,0.0048
1177,0.0023,0.0138,0.0153,0.0044
1178,0.0022,0.0153,0.0166,0.0041
1179,0.0021,0.0126,0.0138,0.0063
1180,0.0022,0.0158,0.0174,0.0040
1181,0.0023,0.0179,0.0195,0.0040
1182,0.0025,0.0183,0.0195,0.0040
1183,0.0027,0.0196,0.0215,0.0040
1184,0.0021,0.0099,0.0117,0.0053
1185,0.0059,0.0154,0.0136,0.0104
1186,0.0058,0.0182,0.0167,0.0092
1187,0.0054,0.0180,0.0200,0.0080
1188,0.0049,0.0125,0.0166,0.0070
1189,0.0045,0.0112,0.0145,0.0066
1190,0.0021,0.0126,0.0138,0.0063
1191,0.0043,0.0115,0.0128,0.0062
1192,0.0040,0.0111,0.0129,0.0054
1193,0.0036,0.0101,0.0128,0.0042
1194,0.0032,0.0094,0.0122,0.0031
1195,0.0026,0.0091,0.0113,0.0031
1196,0.0022,0.0122,0.0139,0.0051
1197,0.0019,0.0098,0.0119,0.0073
1198,0.0023,0.0125,0.0144,0.0099
1199,0.0029,0.0161,0.0175,0.0121
1200,0.0036,0.0182,0.0186,0.0136
1201,0.0021,0.0126,0.0138,0.0063
1202,0.0043,0.0140,0.0134,0.0139
1203,0.0050,0.0118,0.0117,0.0126
1204,0.0056,0.0176,0.0170,0.0102
1205,0.0061,0.0209,0.0179,0.0092
1206,0.0064,0.0188,0.0161,0.0106
1207,0.0071,0.0329,0.0409,0.0125
1208,0.0023,0.0152,0.0172,0.0048
1209,0.0022,0.0093,0.0111,0.0049
1210,0.0022,0.0093,0.0111,0.0049
1211,0.0022,0.0093,0.0111,0.0049
1212,0.0021,0.0126,0.0138,0.0063
1213,0.0022,0.0093,0.0111,0.0049
1214,0.0022,0.0093,0.0111,0.0049
1215,0.0022,0.0093,0.0111,0.0049
1216,0.0022,0.0093,0.0111,0.0049
1217,0.0022,0.0093,0.0111,0.0049
1218,0.0022,0.0093,0.0111,0.0049
1219,0.0022,0.0093,0.0111,0.0049
1220,0.0023,0.0138,0.0153,0.0044
1221,0.0022,0.0093,0.0111,0.0049
1222,0.0022,0.0093,0.0111,0.0049
1223,0.0035,0.0092,0.0148,0.0045
1224,0.0022,0.0093,0.0111,0.0049
1225,0.0022,0.0093,0.0111,0.0049
1226,0.0022,0.0093,0.0111,0.0049
1227,0.0022,0.0093,0.0111,0.0049
1228,0.0022,0.0093,0.0111,0.0049
1229,0.0022,0.0093,0.0111,0.0049
1230,0.0022,0.0093,0.0111,0.0049
1231,0.0022,0.0093,0.0111,0.0049
1232,0.0022,0.0153,0.0166,0.0041
1233,0.0022,0.0093,0.0111,0.0049
1234,0.0031,0.0090,0.0137,0.0038
1235,0.0022,0.0093,0.0111,0.0049
1236,0.0022,0.0093,0.0111,0.0049
1237,0.0022,0.0093,0.0111,0.0049
1238,0.0022,0.0093,0.0111,0.0049
1239,0.0022,0.0093,0.0111,0.0049
1240,0.0022,0.0093,0.0111,0.0049
1241,0.0022,0.0093,0.0111,0.0049
1242,0.0022,0.0093,0.0111,0.0049
1243,0.0022,0.0093,0.0111,0.0049
1244,0.0022,0.0158,0.0174,0.0040
1245,0.0028,0.0096,0.0138,0.0033
1246,0.0022,0.0093,0.0111,0.0049
1247,0.0022,0.0093,0.0111,0.0049
1248,0.0022,0.0093,0.0111,0.0049
1249,0.0022,0.0093,0.0111,0.0049
1250,0.0022,0.0093,0.0111,0.0049
1251,0.0038,0.0076,0.0156,0.0046
1252,0.0035,0.0073,0.0160,0.0039
1253,0.0031,0.0080,0.0164,0.0033
1254,0.0031,0.0083,0.0142,0.0030
1255,0.0022,0.0153,0.0166,0.0041
1256,0.0026,0.0100,0.0132,0.0032
1257,0.0023,0.0179,0.0195,0.0040
1258,0.0030,0.0091,0.0103,0.0034
1259,0.0031,0.0113,0.0103,0.0039
1260,0.0032,0.0135,0.0129,0.0045
1261,0.0032,0.0158,0.0155,0.0049
1262,0.0028,0.0127,0.0137,0.0051
1263,0.0020,0.0102,0.0121,0.0050
1264,0.0021,0.0099,0.0117,0.0053
1265,0.0022,0.0122,0.0139,0.0051
1266,0.0023,0.0152,0.0172,0.0048
1267,0.0025,0.0238,0.0217,0.0048
1268,0.0023,0.0138,0.0153,0.0044
1269,0.0025,0.0183,0.0195,0.0040
1270,0.0022,0.0153,0.0166,0.0041
1271,0.0022,0.0158,0.0174,0.0040
1272,0.0023,0.0179,0.0195,0.0040
1273,0.0025,0.0183,0.0195,0.0040
1274,0.0027,0.0196,0.0215,0.0040
1275,0.0059,0.0154,0.0136,0.0104
1276,0.0058,0.0182,0.0167,0.0092
1277,0.0054,0.0180,0.0200,0.0080
1278,0.0025,0.0215,0.0199,0.0051
1279,0.0027,0.0300,0.0262,0.0049
1280,0.0022,0.0089,0.0111,0.0052
1281,0.0022,0.0089,0.0111,0.0052
1282,0.0022,0.0089,0.0111,0.0052
1283,0.0020,0.0098,0.0123,0.0054
1284,0.0020,0.0098,0.0123,0.0054
1285,0.0022,0.0098,0.0119,0.0058
1286,0.0022,0.0111,0.0131,0.0056
1287,0.0023,0.0129,0.0158,0.0053
1288,0.0023,0.0123,0.0148,0.0049
1289,0.0022,0.0136,0.0158,0.0046
1290,0.0025,0.0099,0.0142,0.0039
1291,0.0023,0.0151,0.0168,0.0043
1292,0.0024,0.0172,0.0191,0.0042
1293,0.0026,0.0175,0.0194,0.0041
1294,0.0027,0.0189,0.0211,0.0040
1295,0.0022,0.0098,0.0119,0.0058
1296,0.0057,0.0220,0.0254,0.0214
1297,0.0055,0.0137,0.0148,0.0194
1298,0.0051,0.0110,0.0133,0.0180
1299,0.0047,0.0123,0.0126,0.0172
1300,0.0044,0.0141,0.0130,0.0159
1301,0.0025,0.0110,0.0154,0.0047
1302,0.0043,0.0140,0.0133,0.0141
1303,0.0040,0.0123,0.0128,0.0116
1304,0.0036,0.0110,0.0124,0.0085
1305,0.0032,0.0091,0.0116,0.0050
1306,0.0027,0.0090,0.0112,0.0026
1307,0.0022,0.0111,0.0131,0.0056
1308,0.0020,0.0096,0.0123,0.0092
1309,0.0023,0.0123,0.0153,0.0135
1310,0.0029,0.0146,0.0165,0.0173
1311,0.0036,0.0163,0.0169,0.0203
1312,0.0026,0.0128,0.0180,0.0054
1313,0.0042,0.0133,0.0131,0.0221
1314,0.0049,0.0113,0.0120,0.0221
1315,0.0054,0.0148,0.0161,0.0204
1316,0.0058,0.0172,0.0171,0.0180
1317,0.0061,0.0169,0.0162,0.0165
1318,0.0069,0.0385,0.0436,0.0167
1319,0.0023,0.0129,0.0158,0.0053
1320,0.0022,0.0089,0.0111,0.0052
1321,0.0022,0.0089,0.0111,0.0052
1322,0.0022,0.0089,0.0111,0.0052
1323,0.0027,0.0148,0.0204,0.0060
1324,0.0022,0.0089,0.0111,0.0052
1325,0.0022,0.0089,0.0111,0.0052
1326,0.0022,0.0089,0.0111,0.0052
1327,0.0022,0.0089,0.0111,0.0052
1328,0.0022,0.0089,0.0111,0.0052
1329,0.0022,0.0089,0.0111,0.0052
1330,0.0022,0.0089,0.0111,0.0052
1331,0.0023,0.0123,0.0148,0.0049
1332,0.0022,0.0089,0.0111,0.0052
1333,0.0022,0.0089,0.0111,0.0052
1334,0.0024,0.0136,0.0182,0.0063
1335,0.0022,0.0089,0.0111,0.0052
1336,0.0022,0.0089,0.0111,0.0052
1337,0.0022,0.0089,0.0111,0.0052
1338,0.0022,0.0089,0.0111,0.0052
1339,0.0022,0.0089,0.0111,0.0052
1340,0.0022,0.0089,0.0111,0.0052
1341,0.0022,0.0089,0.0111,0.0052
1342,0.0022,0.0089,0.0111,0.0052
1343,0.0022,0.0136,0.0158,0.0046
1344,0.0022,0.0089,0.0111,0.0052
1345,0.0021,0.0160,0.0143,0.0062
1346,0.0022,0.0089,0.0111,0.0052
1347,0.0022,0.0089,0.0111,0.0052
1348,0.0022,0.0089,0.0111,0.0052
1349,0.0022,0.0089,0.0111,0.0052
1350,0.0022,0.0089,0.0111,0.0052
1351,0.0022,0.0089,0.0111,0.0052
1352,0.0022,0.0089,0.0111,0.0052
1353,0.0022,0.0089,0.0111,0.0052
1354,0.0022,0.0089,0.0111,0.0052
1355,0.0023,0.0151,0.0168,0.0043
1356,0.0022,0.0146,0.0137,0.0061
1357,0.0022,0.0089,0.0111,0.0052
1358,0.0022,0.0089,0.0111,0.0052
1359,0.0022,0.0089,0.0111,0.0052
1360,0.0022,0.0089,0.0111,0.0052
1361,0.0022,0.0089,0.0111,0.0052
1362,0.0038,0.0075,0.0220,0.0043
1363,0.0036,0.0076,0.0210,0.0037
1364,0.0032,0.0084,0.0216,0.0032
1365,0.0031,0.0085,0.0183,0.0029
1366,0.0022,0.0136,0.0158,0.0046
1367,0.0023,0.0165,0.0166,0.0060
1368,0.0024,0.0172,0.0191,0.0042
1369,0.0030,0.0088,0.0121,0.0034
1370,0.0032,0.0104,0.0097,0.0040
1371,0.0032,0.0123,0.0099,0.0047
1372,0.0032,0.0137,0.0116,0.0051
1373,0.0028,0.0112,0.0111,0.0053
1374,0.0020,0.0098,0.0123,0.0054
1375,0.0022,0.0098,0.0119,0.0058
1376,0.0022,0.0111,0.0131,0.0056
1377,0.0023,0.0129,0.0158,0.0053
1378,0.0024,0.0199,0.0194,0.0056
1379,0.0023,0.0123,0.0148,0.0049
1380,0.0026,0.0175,0.0194,0.0041
1381,0.0022,0.0136,0.0158,0.0046
1382,0.0023,0.0151,0.0168,0.0043
1383,0.0024,0.0172,0.0191,0.0042
1384,0.0026,0.0175,0.0194,0.0041
1385,0.0027,0.0189,0.0211,0.0040
1386,0.0057,0.0220,0.0254,0.0214
1387,0.0055,0.0137,0.0148,0.0194
1388,0.0051,0.0110,0.0133,0.0180
1389,0.0025,0.0238,0.0217,0.0048
1390,0.0025,0.0215,0.0199,0.0051
1391,0.0023,0.0092,0.0115,0.0054
1392,0.0023,0.0092,0.0115,0.0054
1393,0.0023,0.0092,0.0115,0.0054
1394,0.0021,0.0105,0.0127,0.0057
1395,0.0021,0.0105,0.0127,0.0057
1396,0.0022,0.0103,0.0125,0.0060
1397,0.0022,0.0110,0.0132,0.0059
1398,0.0023,0.0129,0.0158,0.0056
1399,0.0024,0.0127,0.0155,0.0052
1400,0.0022,0.0144,0.0162,0.0048
1401,0.0029,0.0320,0.0270,0.0052
1402,0.0023,0.0161,0.0177,0.0046
1403,0.0025,0.0184,0.0200,0.0044
1404,0.0026,0.0182,0.0197,0.0042
1405,0.0028,0.0195,0.0216,0.0041
1406,0.0022,0.0103,0.0125,0.0060
1407,0.0058,0.0306,0.0326,0.0303
1408,0.0055,0.0188,0.0189,0.0274
1409,0.0050,0.0152,0.0144,0.0250
1410,0.0046,0.0166,0.0147,0.0232
1411,0.0044,0.0183,0.0156,0.0209
1412,0.0025,0.0238,0.0217,0.0048
1413,0.0042,0.0155,0.0144,0.0179
1414,0.0040,0.0137,0.0138,0.0146
1415,0.0036,0.0114,0.0130,0.0105
1416,0.0033,0.0094,0.0119,0.0061
1417,0.0027,0.0091,0.0115,0.0027
1418,0.0022,0.0110,0.0132,0.0059
1419,0.0020,0.0106,0.0138,0.0102
1420,0.0024,0.0124,0.0153,0.0152
1421,0.0030,0.0143,0.0163,0.0198
1422,0.0036,0.0164,0.0170,0.0234
1423,0.0026,0.0252,0.0225,0.0048
1424,0.0042,0.0132,0.0131,0.0258
1425,0.0049,0.0116,0.0129,0.0265
1426,0.0053,0.0141,0.0159,0.0256
1427,0.0058,0.0168,0.0177,0.0237
1428,0.0061,0.0174,0.0169,0.0223
1429,0.0069,0.0416,0.0451,0.0232
1430,0.0023,0.0129,0.0158,0.0056
1431,0.0023,0.0092,0.0115,0.0054
1432,0.0023,0.0092,0.0115,0.0054
1433,0.0023,0.0092,0.0115,0.0054
1434,0.0027,0.0300,0.0262,0.0049
1435,0.0023,0.0092,0.0115,0.0054
1436,0.0023,0.0092,0.0115,0.0054
1437,0.0023,0.0092,0.0115,0.0054
1438,0.0023,0.0092,0.0115,0.0054
1439,0.0023,0.0092,0.0115,0.0054
1440,0.0023,0.0092,0.0115,0.0054
1441,0.0023,0.0092,0.0115,0.0054
1442,0.0024,0.0127,0.0155,0.0052
1443,0.0023,0.0092,0.0115,0.0054
1444,0.0023,0.0092,0.0115,0.0054
1445,0.0029,0.0320,0.0270,0.0052
1446,0.0023,0.0092,0.0115,0.0054
1447,0.0023,0.0092,0.0115,0.0054
1448,0.0023,0.0092,0.0115,0.0054
1449,0.0023,0.0092,0.0115,0.0054
1450,0.0023,0.0092,0.0115,0.0054
1451,0.0023,0.0092,0.0115,0.0054
1452,0.0023,0.0092,0.0115,0.0054
1453,0.0023,0.0092,0.0115,0.0054
1454,0.0022,0.0144,0.0162,0.0048
1455,0.0023,0.0092,0.0115,0.0054
1456,0.0030,0.0339,0.0279,0.0054
1457,0.0023,0.0092,0.0115,0.0054
1458,0.0023,0.0092,0.0115,0.0054
1459,0.0023,0.0092,0.0115,0.0054
1460,0.0023,0.0092,0.0115,0.0054
1461,0.0023,0.0092,0.0115,0.0054
1462,0.0023,0.0092,0.0115,0.0054
1463,0.0023,0.0092,0.0115,0.0054
1464,0.0023,0.0092,0.0115,0.0054
1465,0.0023,0.0092,0.0115,0.0054
1466,0.0023,0.0161,0.0177,0.0046
1467,0.0069,0.0503,0.0326,0.0534
1468,0.0023,0.0092,0.0115,0.0054
1469,0.0023,0.0092,0.0115,0.0054
1470,0.0023,0.0092,0.0115,0.0054
1471,0.0023,0.0092,0.0115,0.0054
1472,0.0023,0.0092,0.0115,0.0054
1473,0.0039,0.0079,0.0247,0.0042
1474,0.0035,0.0077,0.0248,0.0036
1475,0.0032,0.0089,0.0249,0.0031
1476,0.0031,0.0083,0.0218,0.0029
1477,0.0022,0.0144,0.0162,0.0048
1478,0.0066,0.0464,0.0376,0.0466
1479,0.0025,0.0184,0.0200,0.0044
1480,0.0031,0.0083,0.0138,0.0035
1481,0.0033,0.0113,0.0099,0.0042
1482,0.0033,0.0140,0.0104,0.0048
1483,0.0033,0.0142,0.0116,0.0053
1484,0.0028,0.0113,0.0109,0.0055
1485,0.0021,0.0105,0.0127,0.0057
1486,0.0022,0.0103,0.0125,0.0060
1487,0.0022,0.0110,0.0132,0.0059
1488,0.0023,0.0129,0.0158,0.0056
1489,0.0060,0.0392,0.0381,0.0398
1490,0.0024,0.0127,0.0155,0.0052
1491,0.0026,0.0182,0.0197,0.0042
1492,0.0022,0.0144,0.0162,0.0048
1493,0.0023,0.0161,0.0177,0.0046
1494,0.0025,0.0184,0.0200,0.0044
1495,0.0026,0.0182,0.0197,0.0042
1496,0.0028,0.0195,0.0216,0.0041
1497,0.0058,0.0306,0.0326,0.0303
1498,0.0055,0.0188,0.0189,0.0274
1499,0.0050,0.0152,0.0144,0.0250
1500,0.0072,0.0234,0.0271,0.0080
1501,0.0072,0.0234,0.0271,0.0080
1502,0.0070,0.0420,0.0381,0.0066
1503,0.0184,0.0255,0.0316,0.0536
1504,0.0026,0.0051,0.0067,0.0061
1505,0.0027,0.0134,0.0142,0.0066
1506,0.0026,0.0051,0.0067,0.0061
1507,0.0027,0.0075,0.0092,0.0054
1508,0.0027,0.0167,0.0222,0.0058
1509,0.0026,0.0051,0.0067,0.0061
1510,0.0026,0.0051,0.0067,0.0061
1511,0.0027,0.0134,0.0142,0.0066
1512,0.0026,0.0051,0.0067,0.0061
1513,0.0027,0.0167,0.0222,0.0058
1514,0.0177,0.0362,0.0442,0.0528
1515,0.0027,0.0134,0.0142,0.0066
1516,0.0026,0.0051,0.0067,0.0061
1517,0.0026,0.0051,0.0067,0.0061
1518,0.0027,0.0134,0.0142,0.0066
1519,0.0027,0.0231,0.0269,0.0046
1520,0.0026,0.0051,0.0067,0.0061
1521,0.0027,0.0134,0.0142,0.0066
1522,0.0026,0.0051,0.0067,0.0061
1523,0.0026,0.0051,0.0067,0.0061
1524,0.0027,0.0167,0.0222,0.0058
1525,0.0182,0.0389,0.0473,0.0510
1526,0.0040,0.0055,0.0215,0.0048
1527,0.0038,0.0050,0.0219,0.0043
1528,0.0036,0.0114,0.0191,0.0041
1529,0.0034,0.0060,0.0193,0.0039
1530,0.0026,0.0215,0.0255,0.0049
1531,0.0034,0.0153,0.0167,0.0054
1532,0.0031,0.0051,0.0117,0.0044
1533,0.0031,0.0076,0.0068,0.0050
1534,0.0030,0.0189,0.0164,0.0060
1535,0.0033,0.0154,0.0199,0.0057
1536,0.0187,0.0330,0.0403,0.0484
1537,0.0028,0.0082,0.0071,0.0062
1538,0.0027,0.0139,0.0151,0.0069
1539,0.0025,0.0063,0.0075,0.0068
1540,0.0025,0.0073,0.0093,0.0066
1541,0.0026,0.0182,0.0232,0.0059
1542,0.0026,0.0088,0.0117,0.0059
1543,0.0030,0.0088,0.0115,0.0046
1544,0.0031,0.0149,0.0168,0.0060
1545,0.0029,0.0087,0.0104,0.0051
1546,0.0027,0.0241,0.0279,0.0043
1547,0.0189,0.0207,0.0264,0.0455
1548,0.0035,0.0165,0.0182,0.0053
1549,0.0031,0.0096,0.0128,0.0044
1550,0.0049,0.0286,0.0302,0.0278
1551,0.0047,0.0212,0.0215,0.0251
1552,0.0040,0.0234,0.0212,0.0249
1553,0.0100,0.0210,0.0376,0.0234
1554,0.0076,0.0172,0.0225,0.0233
1555,0.0102,0.0161,0.0198,0.0246
1556,0.0098,0.0174,0.0272,0.0266
1557,0.0088,0.0320,0.0458,0.0290
1558,0.0071,0.0210,0.0243,0.0077
1559,0.0025,0.0166,0.0156,0.0058
1560,0.0025,0.0166,0.0156,0.0058
1561,0.0021,0.0126,0.0137,0.0063
1562,0.0023,0.0216,0.0195,0.0058
1563,0.0027,0.0325,0.0336,0.0054
1564,0.0022,0.0148,0.0138,0.0061
1565,0.0026,0.0195,0.0188,0.0055
1566,0.0027,0.0207,0.0199,0.0051
1567,0.0026,0.0215,0.0199,0.0051
1568,0.0030,0.0360,0.0383,0.0038
1569,0.0071,0.0210,0.0243,0.0077
1570,0.0027,0.0274,0.0262,0.0042
1571,0.0027,0.0299,0.0262,0.0049
1572,0.0030,0.0315,0.0286,0.0045
1573,0.0031,0.0327,0.0290,0.0047
1574,0.0028,0.0311,0.0329,0.0053
1575,0.0075,0.0498,0.0317,0.0526
1576,0.0071,0.0459,0.0358,0.0459
1577,0.0060,0.0391,0.0380,0.0398
1578,0.0057,0.0284,0.0288,0.0324
1579,0.0054,0.0275,0.0287,0.0264
1580,0.0071,0.0210,0.0243,0.0077
1581,0.0043,0.0126,0.0174,0.0207
1582,0.0041,0.0159,0.0130,0.0159
1583,0.0038,0.0150,0.0127,0.0122
1584,0.0031,0.0123,0.0152,0.0097
1585,0.0034,0.0261,0.0276,0.0064
1586,0.0026,0.0195,0.0188,0.0055
1587,0.0020,0.0147,0.0138,0.0058
1588,0.0026,0.0258,0.0241,0.0074
1589,0.0031,0.0308,0.0295,0.0091
1590,0.0040,0.0442,0.0455,0.0133
1591,0.0072,0.0196,0.0209,0.0077
1592,0.0044,0.0303,0.0290,0.0134
1593,0.0053,0.0243,0.0232,0.0167
1594,0.0059,0.0238,0.0213,0.0211
1595,0.0070,0.0289,0.0237,0.0289
1596,0.0077,0.0400,0.0422,0.0369
1597,0.0079,0.0343,0.0349,0.0441
1598,0.0027,0.0207,0.0199,0.0051
1599,0.0025,0.0166,0.0156,0.0058
1600,0.0021,0.0126,0.0137,0.0063
1601,0.0030,0.0273,0.0291,0.0055
1602,0.0070,0.0206,0.0234,0.0074
1603,0.0025,0.0166,0.0156,0.0058
1604,0.0021,0.0126,0.0137,0.0063
1605,0.0025,0.0166,0.0156,0.0058
1606,0.0025,0.0166,0.0156,0.0058
1607,0.0030,0.0273,0.0291,0.0055
1608,0.0025,0.0166,0.0156,0.0058
1609,0.0025,0.0166,0.0156,0.0058
1610,0.0026,0.0215,0.0199,0.0051
1611,0.0025,0.0166,0.0156,0.0058
1612,0.0030,0.0273,0.0291,0.0055
1613,0.0070,0.0470,0.0419,0.0068
1614,0.0070,0.0219,0.0232,0.0077
1615,0.0021,0.0126,0.0137,0.0063
1616,0.0025,0.0166,0.0156,0.0058
1617,0.0025,0.0166,0.0156,0.0058
1618,0.0021,0.0126,0.0137,0.0063
1619,0.0030,0.0273,0.0291,0.0055
1620,0.0025,0.0166,0.0156,0.0058
1621,0.0021,0.0126,0.0137,0.0063
1622,0.0025,0.0166,0.0156,0.0058
1623,0.0027,0.0256,0.0243,0.0043
1624,0.0030,0.0273,0.0291,0.0055
1625,0.0069,0.0281,0.0298,0.0076
1626,0.0025,0.0166,0.0156,0.0058
1627,0.0025,0.0166,0.0156,0.0058
1628,0.0021,0.0126,0.0137,0.0063
1629,0.0025,0.0166,0.0156,0.0058
1630,0.0030,0.0273,0.0291,0.0055
1631,0.0021,0.0126,0.0137,0.0063
1632,0.0025,0.0166,0.0156,0.0058
1633,0.0025,0.0166,0.0156,0.0058
1634,0.0021,0.0126,0.0137,0.0063
1635,0.0030,0.0378,0.0402,0.0037
1636,0.0068,0.0337,0.0339,0.0073
1637,0.0025,0.0166,0.0156,0.0058
1638,0.0021,0.0126,0.0137,0.0063
1639,0.0025,0.0166,0.0156,0.0058
1640,0.0025,0.0166,0.0156,0.0058
1641,0.0030,0.0273,0.0291,0.0055
1642,0.0040,0.0107,0.0172,0.0047
1643,0.0036,0.0118,0.0173,0.0040
1644,0.0028,0.0096,0.0139,0.0033
1645,0.0030,0.0140,0.0172,0.0031
1646,0.0030,0.0360,0.0383,0.0038
1647,0.0068,0.0343,0.0336,0.0069
1648,0.0027,0.0299,0.0262,0.0049
1649,0.0030,0.0129,0.0153,0.0037
1650,0.0030,0.0131,0.0152,0.0044
1651,0.0026,0.0127,0.0180,0.0054
1652,0.0038,0.0231,0.0274,0.0053
1653,0.0030,0.0144,0.0159,0.0059
1654,0.0021,0.0160,0.0142,0.0062
1655,0.0024,0.0199,0.0184,0.0057
1656,0.0026,0.0195,0.0188,0.0055
1657,0.0031,0.0309,0.0333,0.0046
1658,0.0069,0.0322,0.0326,0.0062
1659,0.0027,0.0223,0.0211,0.0046
1660,0.0030,0.0315,0.0286,0.0045
1661,0.0025,0.0239,0.0218,0.0048
1662,0.0027,0.0274,0.0262,0.0042
1663,0.0031,0.0396,0.0411,0.0039
1664,0.0029,0.0321,0.0271,0.0051
1665,0.0031,0.0327,0.0290,0.0047
1666,0.0075,0.0498,0.0317,0.0526
1667,0.0066,0.0464,0.0376,0.0466
1668,0.0070,0.0437,0.0413,0.0396
1669,0.0069,0.0360,0.0330,0.0065
1670,0.0115,0.0301,0.0338,0.0434
1671,0.0119,0.0385,0.0435,0.0427
1672,0.0122,0.0404,0.0460,0.0412
1673,0.0117,0.0344,0.0393,0.0391
1674,0.0094,0.0236,0.0275,0.0369
1675,0.0023,0.0151,0.0148,0.0056
1676,0.0023,0.0151,0.0148,0.0056
1677,0.0019,0.0109,0.0124,0.0060
1678,0.0022,0.0192,0.0178,0.0056
1679,0.0026,0.0304,0.0322,0.0053
1680,0.0069,0.0410,0.0371,0.0066
1681,0.0020,0.0117,0.0118,0.0061
1682,0.0024,0.0171,0.0170,0.0056
1683,0.0025,0.0189,0.0185,0.0051
1684,0.0024,0.0185,0.0179,0.0052
1685,0.0027,0.0344,0.0371,0.0038
1686,0.0024,0.0242,0.0237,0.0042
1687,0.0025,0.0250,0.0231,0.0049
1688,0.0027,0.0268,0.0258,0.0044
1689,0.0028,0.0275,0.0264,0.0045
1690,0.0027,0.0289,0.0311,0.0053
1691,0.0069,0.0440,0.0392,0.0068
1692,0.0068,0.0351,0.0210,0.0373
1693,0.0066,0.0359,0.0287,0.0325
1694,0.0056,0.0313,0.0319,0.0281
1695,0.0054,0.0240,0.0249,0.0226
1696,0.0052,0.0263,0.0269,0.0186
1697,0.0042,0.0117,0.0147,0.0138
1698,0.0041,0.0148,0.0119,0.0107
1699,0.0037,0.0138,0.0115,0.0081
1700,0.0030,0.0110,0.0138,0.0069
1701,0.0033,0.0251,0.0271,0.0049
1702,0.0069,0.0449,0.0389,0.0069
1703,0.0024,0.0171,0.0170,0.0056
1704,0.0018,0.0132,0.0127,0.0064
1705,0.0024,0.0249,0.0238,0.0082
1706,0.0030,0.0300,0.0290,0.0096
1707,0.0038,0.0431,0.0445,0.0131
1708,0.0043,0.0290,0.0273,0.0118
1709,0.0050,0.0231,0.0213,0.0129
1710,0.0057,0.0205,0.0191,0.0141
1711,0.0065,0.0244,0.0205,0.0204
1712,0.0071,0.0378,0.0416,0.0271
1713,0.0069,0.0215,0.0245,0.0074
1714,0.0074,0.0313,0.0361,0.0321
1715,0.0025,0.0189,0.0185,0.0051
1716,0.0023,0.0151,0.0148,0.0056
1717,0.0019,0.0109,0.0124,0.0060
1718,0.0029,0.0264,0.0289,0.0053
1719,0.0023,0.0151,0.0148,0.0056
1720,0.0019,0.0109,0.0124,0.0060
1721,0.0023,0.0151,0.0148,0.0056
1722,0.0023,0.0151,0.0148,0.0056
1723,0.0029,0.0264,0.0289,0.0053
1724,0.0070,0.0503,0.0438,0.0070
1725,0.0106,0.0421,0.0280,0.0446
1726,0.0023,0.0151,0.0148,0.0056
1727,0.0023,0.0151,0.0148,0.0056
1728,0.0024,0.0185,0.0179,0.0052
1729,0.0023,0.0151,0.0148,0.0056
1730,0.0029,0.0264,0.0289,0.0053
1731,0.0019,0.0109,0.0124,0.0060
1732,0.0023,0.0151,0.0148,0.0056
1733,0.0023,0.0151,0.0148,0.0056
1734,0.0019,0.0109,0.0124,0.0060
1735,0.0029,0.0264,0.0289,0.0053
1736,0.0098,0.0428,0.0358,0.0390
1737,0.0023,0.0151,0.0148,0.0056
1738,0.0019,0.0109,0.0124,0.0060
1739,0.0023,0.0151,0.0148,0.0056
1740,0.0024,0.0224,0.0219,0.0043
1741,0.0029,0.0264,0.0289,0.0053
1742,0.0023,0.0151,0.0148,0.0056
1743,0.0023,0.0151,0.0148,0.0056
1744,0.0019,0.0109,0.0124,0.0060
1745,0.0023,0.0151,0.0148,0.0056
1746,0.0029,0.0264,0.0289,0.0053
1747,0.0094,0.0374,0.0369,0.0333
1748,0.0019,0.0109,0.0124,0.0060
1749,0.0023,0.0151,0.0148,0.0056
1750,0.0023,0.0151,0.0148,0.0056
1751,0.0019,0.0109,0.0124,0.0060
1752,0.0027,0.0361,0.0388,0.0037
1753,0.0023,0.0151,0.0148,0.0056
1754,0.0019,0.0109,0.0124,0.0060
1755,0.0023,0.0151,0.0148,0.0056
1756,0.0023,0.0151,0.0148,0.0056
1757,0.0029,0.0264,0.0289,0.0053
1758,0.0090,0.0294,0.0323,0.0275
1759,0.0040,0.0102,0.0167,0.0049
1760,0.0036,0.0107,0.0167,0.0042
1761,0.0028,0.0084,0.0123,0.0034
1762,0.0030,0.0129,0.0171,0.0032
1763,0.0027,0.0344,0.0371,0.0038
1764,0.0025,0.0250,0.0231,0.0049
1765,0.0030,0.0120,0.0144,0.0035
1766,0.0030,0.0117,0.0136,0.0041
1767,0.0026,0.0122,0.0164,0.0051
1768,0.0037,0.0221,0.0263,0.0051
1769,0.0087,0.0213,0.0253,0.0216
1770,0.0028,0.0126,0.0135,0.0057
1771,0.0019,0.0131,0.0124,0.0061
1772,0.0023,0.0168,0.0159,0.0057
1773,0.0024,0.0171,0.0170,0.0056
1774,0.0028,0.0298,0.0326,0.0047
1775,0.0025,0.0199,0.0192,0.0046
1776,0.0027,0.0268,0.0258,0.0044
1777,0.0023,0.0197,0.0188,0.0049
1778,0.0024,0.0242,0.0237,0.0042
1779,0.0028,0.0371,0.0397,0.0038
1780,0.0085,0.0152,0.0199,0.0174
1781,0.0027,0.0265,0.0237,0.0051
1782,0.0028,0.0275,0.0264,0.0045
1783,0.0068,0.0351,0.0210,0.0373
1784,0.0062,0.0367,0.0308,0.0332
1785,0.0066,0.0372,0.0362,0.0283
1786,0.0109,0.0262,0.0291,0.0311
1787,0.0112,0.0340,0.0364,0.0304
1788,0.0118,0.0362,0.0392,0.0290
1789,0.0113,0.0291,0.0321,0.0269
1790,0.0090,0.0208,0.0242,0.0250
1791,0.0081,0.0148,0.0197,0.0140
1792,0.0022,0.0126,0.0135,0.0055
1793,0.0022,0.0126,0.0135,0.0055
1794,0.0018,0.0083,0.0101,0.0058
1795,0.0020,0.0157,0.0160,0.0057
1796,0.0024,0.0280,0.0314,0.0053
1797,0.0019,0.0090,0.0105,0.0064
1798,0.0022,0.0139,0.0148,0.0059
1799,0.0024,0.0147,0.0160,0.0055
1800,0.0022,0.0132,0.0148,0.0056
1801,0.0022,0.0323,0.0356,0.0041
1802,0.0077,0.0163,0.0208,0.0112
1803,0.0021,0.0200,0.0208,0.0044
1804,0.0022,0.0163,0.0174,0.0050
1805,0.0023,0.0203,0.0217,0.0043
1806,0.0024,0.0210,0.0225,0.0043
1807,0.0025,0.0263,0.0296,0.0056
1808,0.0057,0.0135,0.0123,0.0107
1809,0.0055,0.0153,0.0127,0.0097
1810,0.0050,0.0160,0.0194,0.0083
1811,0.0048,0.0139,0.0132,0.0080
1812,0.0048,0.0260,0.0249,0.0105
1813,0.0073,0.0188,0.0231,0.0094
1814,0.0040,0.0130,0.0125,0.0056
1815,0.0039,0.0156,0.0114,0.0059
1816,0.0036,0.0131,0.0107,0.0044
1817,0.0030,0.0090,0.0118,0.0031
1818,0.0032,0.0241,0.0270,0.0027
1819,0.0022,0.0139,0.0148,0.0059
1820,0.0017,0.0095,0.0106,0.0082
1821,0.0023,0.0217,0.0223,0.0113
1822,0.0028,0.0264,0.0265,0.0139
1823,0.0036,0.0410,0.0425,0.0176
1824,0.0070,0.0195,0.0245,0.0075
1825,0.0041,0.0251,0.0226,0.0167
1826,0.0048,0.0186,0.0159,0.0158
1827,0.0053,0.0151,0.0167,0.0108
1828,0.0059,0.0171,0.0149,0.0117
1829,0.0062,0.0365,0.0402,0.0151
1830,0.0068,0.0323,0.0380,0.0124
1831,0.0024,0.0147,0.0160,0.0055
1832,0.0022,0.0126,0.0135,0.0055
1833,0.0018,0.0083,0.0101,0.0058
1834,0.0028,0.0249,0.0286,0.0052
1835,0.0070,0.0522,0.0445,0.0072
1836,0.0069,0.0281,0.0298,0.0076
1837,0.0022,0.0126,0.0135,0.0055
1838,0.0018,0.0083,0.0101,0.0058
1839,0.0022,0.0126,0.0135,0.0055
1840,0.0022,0.0126,0.0135,0.0055
1841,0.0028,0.0249,0.0286,0.0052
1842,0.0022,0.0126,0.0135,0.0055
1843,0.0022,0.0126,0.0135,0.0055
1844,0.0022,0.0132,0.0148,0.0056
1845,0.0022,0.0126,0.0135,0.0055
1846,0.0028,0.0249,0.0286,0.0052
1847,0.0073,0.0202,0.0224,0.0078
1848,0.0018,0.0083,0.0101,0.0058
1849,0.0022,0.0126,0.0135,0.0055
1850,0.0022,0.0126,0.0135,0.0055
1851,0.0018,0.0083,0.0101,0.0058
1852,0.0028,0.0249,0.0286,0.0052
1853,0.0022,0.0126,0.0135,0.0055
1854,0.0018,0.0083,0.0101,0.0058
1855,0.0022,0.0126,0.0135,0.0055
1856,0.0021,0.0186,0.0192,0.0047
1857,0.0028,0.0249,0.0286,0.0052
1858,0.0076,0.0204,0.0214,0.0084
1859,0.0022,0.0126,0.0135,0.0055
1860,0.0022,0.0126,0.0135,0.0055
1861,0.0018,0.0083,0.0101,0.0058
1862,0.0022,0.0126,0.0135,0.0055
1863,0.0028,0.0249,0.0286,0.0052
1864,0.0018,0.0083,0.0101,0.0058
1865,0.0022,0.0126,0.0135,0.0055
1866,0.0022,0.0126,0.0135,0.0055
1867,0.0018,0.0083,0.0101,0.0058
1868,0.0022,0.0345,0.0376,0.0039
1869,0.0081,0.0215,0.0215,0.0091
1870,0.0022,0.0126,0.0135,0.0055
1871,0.0018,0.0083,0.0101,0.0058
1872,0.0022,0.0126,0.0135,0.0055
1873,0.0022,0.0126,0.0135,0.0055
1874,0.0028,0.0249,0.0286,0.0052
1875,0.0040,0.0089,0.0175,0.0048
1876,0.0036,0.0094,0.0185,0.0041
1877,0.0028,0.0071,0.0133,0.0034
1878,0.0031,0.0111,0.0181,0.0031
1879,0.0022,0.0323,0.0356,0.0041
1880,0.0085,0.0276,0.0291,0.0121
1881,0.0022,0.0163,0.0174,0.0050
1882,0.0029,0.0107,0.0148,0.0034
1883,0.0030,0.0095,0.0122,0.0040
1884,0.0026,0.0101,0.0119,0.0050
1885,0.0036,0.0207,0.0252,0.0050
1886,0.0028,0.0098,0.0109,0.0055
1887,0.0018,0.0097,0.0106,0.0061
1888,0.0022,0.0136,0.0138,0.0060
1889,0.0022,0.0139,0.0148,0.0059
1890,0.0027,0.0268,0.0303,0.0050
1891,0.0088,0.0256,0.0267,0.0117
1892,0.0022,0.0153,0.0159,0.0051
1893,0.0023,0.0203,0.0217,0.0043
1894,0.0021,0.0138,0.0150,0.0052
1895,0.0021,0.0200,0.0208,0.0044
1896,0.0022,0.0352,0.0384,0.0038
1897,0.0024,0.0171,0.0178,0.0050
1898,0.0024,0.0210,0.0225,0.0043
1899,0.0057,0.0135,0.0123,0.0107
1900,0.0054,0.0165,0.0164,0.0098
1901,0.0057,0.0272,0.0274,0.0125
1902,0.0093,0.0295,0.0315,0.0148
1903,0.0109,0.0211,0.0281,0.0102
1904,0.0095,0.0264,0.0256,0.0102
1905,0.0106,0.0266,0.0261,0.0097
1906,0.0104,0.0207,0.0214,0.0096
1907,0.0083,0.0213,0.0270,0.0107
1908,0.0022,0.0118,0.0136,0.0057
1909,0.0022,0.0118,0.0136,0.0057
1910,0.0019,0.0077,0.0098,0.0062
1911,0.0021,0.0139,0.0152,0.0061
1912,0.0025,0.0264,0.0306,0.0057
1913,0.0099,0.0408,0.0417,0.0204
1914,0.0019,0.0085,0.0107,0.0070
1915,0.0022,0.0126,0.0139,0.0063
1916,0.0023,0.0127,0.0147,0.0060
1917,0.0022,0.0114,0.0144,0.0062
1918,0.0021,0.0318,0.0349,0.0046
1919,0.0020,0.0196,0.0202,0.0048
1920,0.0023,0.0142,0.0165,0.0053
1921,0.0022,0.0190,0.0208,0.0045
1922,0.0023,0.0181,0.0203,0.0043
1923,0.0026,0.0243,0.0283,0.0061
1924,0.0104,0.0472,0.0446,0.0277
1925,0.0052,0.0227,0.0245,0.0204
1926,0.0050,0.0137,0.0114,0.0187
1927,0.0047,0.0115,0.0135,0.0168
1928,0.0044,0.0167,0.0107,0.0171
1929,0.0044,0.0293,0.0261,0.0179
1930,0.0040,0.0151,0.0133,0.0130
1931,0.0039,0.0174,0.0129,0.0116
1932,0.0036,0.0148,0.0125,0.0082
1933,0.0030,0.0089,0.0110,0.0042
1934,0.0032,0.0232,0.0269,0.0021
1935,0.0112,0.0405,0.0382,0.0344
1936,0.0022,0.0126,0.0139,0.0063
1937,0.0017,0.0085,0.0103,0.0102
1938,0.0023,0.0199,0.0216,0.0148
1939,0.0028,0.0238,0.0241,0.0189
1940,0.0035,0.0381,0.0398,0.0235
1941,0.0040,0.0224,0.0199,0.0243
1942,0.0047,0.0168,0.0138,0.0246
1943,0.0051,0.0122,0.0155,0.0212
1944,0.0056,0.0140,0.0128,0.0206
1945,0.0057,0.0374,0.0396,0.0219
1946,0.0071,0.0246,0.0268,0.0075
1947,0.0103,0.0372,0.0326,0.0419
1948,0.0067,0.0376,0.0399,0.0172
1949,0.0023,0.0127,0.0147,0.0060
1950,0.0022,0.0118,0.0136,0.0057
1951,0.0019,0.0077,0.0098,0.0062
1952,0.0028,0.0244,0.0289,0.0054
1953,0.0022,0.0118,0.0136,0.0057
1954,0.0019,0.0077,0.0098,0.0062
1955,0.0022,0.0118,0.0136,0.0057
1956,0.0022,0.0118,0.0136,0.0057
1957,0.0028,0.0244,0.0289,0.0054
1958,0.0068,0.0337,0.0339,0.0073
1959,0.0022,0.0118,0.0136,0.0057
1960,0.0022,0.0118,0.0136,0.0057
1961,0.0022,0.0114,0.0144,0.0062
1962,0.0022,0.0118,0.0136,0.0057
1963,0.0028,0.0244,0.0289,0.0054
1964,0.0019,0.0077,0.0098,0.0062
1965,0.0022,0.0118,0.0136,0.0057
1966,0.0022,0.0118,0.0136,0.0057
1967,0.0019,0.0077,0.0098,0.0062
1968,0.0028,0.0244,0.0289,0.0054
1969,0.0071,0.0210,0.0243,0.0077
1970,0.0022,0.0118,0.0136,0.0057
1971,0.0019,0.0077,0.0098,0.0062
1972,0.0022,0.0118,0.0136,0.0057
1973,0.0020,0.0173,0.0181,0.0052
1974,0.0028,0.0244,0.0289,0.0054
1975,0.0022,0.0118,0.0136,0.0057
1976,0.0022,0.0118,0.0136,0.0057
1977,0.0019,0.0077,0.0098,0.0062
1978,0.0022,0.0118,0.0136,0.0057
1979,0.0028,0.0244,0.0289,0.0054
1980,0.0071,0.0210,0.0243,0.0077
1981,0.0019,0.0077,0.0098,0.0062
1982,0.0022,0.0118,0.0136,0.0057
1983,0.0022,0.0118,0.0136,0.0057
1984,0.0019,0.0077,0.0098,0.0062
1985,0.0020,0.0346,0.0372,0.0043
1986,0.0022,0.0118,0.0136,0.0057
1987,0.0019,0.0077,0.0098,0.0062
1988,0.0022,0.0118,0.0136,0.0057
1989,0.0022,0.0118,0.0136,0.0057
1990,0.0028,0.0244,0.0289,0.0054
1991,0.0070,0.0205,0.0252,0.0074
1992,0.0039,0.0087,0.0223,0.0045
1993,0.0036,0.0090,0.0222,0.0039
1994,0.0028,0.0072,0.0174,0.0032
1995,0.0031,0.0111,0.0215,0.0030
1996,0.0021,0.0318,0.0349,0.0046
1997,0.0023,0.0142,0.0165,0.0053
1998,0.0029,0.0103,0.0169,0.0035
1999,0.0030,0.0092,0.0132,0.0041
2000,0.0026,0.0095,0.0096,0.0052
2001,0.0036,0.0202,0.0252,0.0051
2002,0.0071,0.0210,0.0243,0.0077
2003,0.0028,0.0087,0.0101,0.0057
2004,0.0018,0.0085,0.0103,0.0065
2005,0.0022,0.0115,0.0125,0.0065
2006,0.0022,0.0126,0.0139,0.0063
2007,0.0026,0.0260,0.0297,0.0056
2008,0.0022,0.0136,0.0148,0.0056
2009,0.0022,0.0190,0.0208,0.0045
2010,0.0021,0.0119,0.0143,0.0057
2011,0.0020,0.0196,0.0202,0.0048
2012,0.0021,0.0345,0.0374,0.0041
2013,0.0071,0.0210,0.0243,0.0077
2014,0.0025,0.0144,0.0167,0.0051
2015,0.0023,0.0181,0.0203,0.0043
2016,0.0052,0.0227,0.0245,0.0204
2017,0.0052,0.0143,0.0148,0.0181
2018,0.0050,0.0259,0.0248,0.0203
2019,0.0135,0.0243,0.0384,0.0178
2020,0.0079,0.0211,0.0237,0.0176
2021,0.0095,0.0213,0.0216,0.0192
2022,0.0096,0.0183,0.0226,0.0212
2023,0.0076,0.0274,0.0368,0.0237
2024,0.0071,0.0210,0.0243,0.0077
2025,0.0023,0.0118,0.0142,0.0059
2026,0.0023,0.0118,0.0142,0.0059
2027,0.0020,0.0080,0.0101,0.0064
2028,0.0022,0.0131,0.0146,0.0063
2029,0.0026,0.0254,0.0298,0.0060
2030,0.0020,0.0095,0.0117,0.0073
2031,0.0022,0.0128,0.0142,0.0066
2032,0.0023,0.0125,0.0145,0.0063
2033,0.0022,0.0122,0.0154,0.0065
2034,0.0020,0.0333,0.0359,0.0048
2035,0.0071,0.0210,0.0243,0.0077
2036,0.0020,0.0199,0.0203,0.0051
2037,0.0024,0.0146,0.0167,0.0054
2038,0.0022,0.0190,0.0206,0.0046
2039,0.0023,0.0185,0.0206,0.0044
2040,0.0026,0.0245,0.0285,0.0064
2041,0.0052,0.0314,0.0316,0.0292
2042,0.0049,0.0193,0.0162,0.0265
2043,0.0047,0.0162,0.0143,0.0237
2044,0.0043,0.0207,0.0137,0.0228
2045,0.0043,0.0327,0.0286,0.0225
2046,0.0070,0.0205,0.0252,0.0074
2047,0.0041,0.0168,0.0143,0.0168
2048,0.0039,0.0188,0.0145,0.0145
2049,0.0036,0.0151,0.0133,0.0103
2050,0.0030,0.0090,0.0113,0.0052
2051,0.0032,0.0236,0.0277,0.0022
2052,0.0022,0.0128,0.0142,0.0066
2053,0.0018,0.0096,0.0117,0.0112
2054,0.0023,0.0193,0.0215,0.0164
2055,0.0028,0.0228,0.0237,0.0212
2056,0.0035,0.0375,0.0392,0.0263
2057,0.0109,0.0571,0.0390,0.0599
2058,0.0071,0.0210,0.0243,0.0077
2059,0.0041,0.0211,0.0185,0.0279
2060,0.0047,0.0163,0.0134,0.0288
2061,0.0051,0.0126,0.0163,0.0263
2062,0.0055,0.0139,0.0129,0.0260
2063,0.0056,0.0382,0.0393,0.0273
2064,0.0068,0.0409,0.0415,0.0236
2065,0.0023,0.0125,0.0145,0.0063
2066,0.0023,0.0118,0.0142,0.0059
2067,0.0020,0.0080,0.0101,0.0064
2068,0.0028,0.0243,0.0293,0.0056
2069,0.0071,0.0210,0.0243,0.0077
2070,0.0023,0.0118,0.0142,0.0059
2071,0.0020,0.0080,0.0101,0.0064
2072,0.0023,0.0118,0.0142,0.0059
2073,0.0023,0.0118,0.0142,0.0059
2074,0.0028,0.0243,0.0293,0.0056
2075,0.0023,0.0118,0.0142,0.0059
2076,0.0023,0.0118,0.0142,0.0059
2077,0.0022,0.0122,0.0154,0.0065
2078,0.0023,0.0118,0.0142,0.0059
2079,0.0028,0.0243,0.0293,0.0056
2080,0.0068,0.0343,0.0336,0.0069
2081,0.0020,0.0080,0.0101,0.0064
2082,0.0023,0.0118,0.0142,0.0059
2083,0.0023,0.0118,0.0142,0.0059
2084,0.0020,0.0080,0.0101,0.0064
2085,0.0028,0.0243,0.0293,0.0056
2086,0.0023,0.0118,0.0142,0.0059
2087,0.0020,0.0080,0.0101,0.0064
2088,0.0023,0.0118,0.0142,0.0059
2089,0.0020,0.0184,0.0188,0.0054
2090,0.0028,0.0243,0.0293,0.0056
2091,0.0071,0.0210,0.0243,0.0077
2092,0.0023,0.0118,0.0142,0.0059
2093,0.0023,0.0118,0.0142,0.0059
2094,0.0020,0.0080,0.0101,0.0064
2095,0.0023,0.0118,0.0142,0.0059
2096,0.0028,0.0243,0.0293,0.0056
2097,0.0020,0.0080,0.0101,0.0064
2098,0.0023,0.0118,0.0142,0.0059
2099,0.0023,0.0118,0.0142,0.0059
2100,0.0020,0.0080,0.0101,0.0064
2101,0.0020,0.0353,0.0377,0.0045
2102,0.0070,0.0205,0.0252,0.0074
2103,0.0023,0.0118,0.0142,0.0059
2104,0.0020,0.0080,0.0101,0.0064
2105,0.0023,0.0118,0.0142,0.0059
2106,0.0023,0.0118,0.0142,0.0059
2107,0.0028,0.0243,0.0293,0.0056
2108,0.0039,0.0087,0.0235,0.0043
2109,0.0036,0.0092,0.0250,0.0037
2110,0.0027,0.0074,0.0198,0.0031
2111,0.0030,0.0117,0.0247,0.0029
2112,0.0020,0.0333,0.0359,0.0048
2113,0.0071,0.0210,0.0243,0.0077
2114,0.0024,0.0146,0.0167,0.0054
2115,0.0029,0.0104,0.0187,0.0035
2116,0.0031,0.0092,0.0132,0.0043
2117,0.0027,0.0108,0.0099,0.0054
2118,0.0037,0.0201,0.0252,0.0053
2119,0.0028,0.0088,0.0102,0.0059
2120,0.0019,0.0090,0.0109,0.0068
2121,0.0022,0.0118,0.0129,0.0068
2122,0.0022,0.0128,0.0142,0.0066
2123,0.0025,0.0260,0.0297,0.0059
2124,0.0071,0.0210,0.0243,0.0077
2125,0.0022,0.0135,0.0151,0.0059
2126,0.0022,0.0190,0.0206,0.0046
2127,0.0021,0.0123,0.0143,0.0060
2128,0.0020,0.0199,0.0203,0.0051
2129,0.0021,0.0358,0.0383,0.0042
2130,0.0025,0.0139,0.0168,0.0053
2131,0.0023,0.0185,0.0206,0.0044
2132,0.0052,0.0314,0.0316,0.0292
2133,0.0051,0.0198,0.0186,0.0259
2134,0.0047,0.0291,0.0262,0.0267
2135,0.0071,0.0210,0.0243,0.0077
2136,0.0148,0.0274,0.0441,0.0251
2137,0.0078,0.0207,0.0269,0.0246
2138,0.0090,0.0203,0.0229,0.0262
2139,0.0093,0.0191,0.0261,0.0283
2140,0.0073,0.0309,0.0426,0.0309
2141,0.0022,0.0163,0.0152,0.0067
2142,0.0022,0.0163,0.0152,0.0067
2143,0.0019,0.0135,0.0158,0.0071
2144,0.0021,0.0210,0.0179,0.0067
2145,0.0024,0.0317,0.0318,0.0064
2146,0.0071,0.0210,0.0243,0.0077
2147,0.0021,0.0152,0.0147,0.0071
2148,0.0024,0.0190,0.0179,0.0066
2149,0.0025,0.0206,0.0194,0.0061
2150,0.0023,0.0217,0.0202,0.0061
2151,0.0027,0.0354,0.0374,0.0046
2152,0.0025,0.0268,0.0254,0.0050
2153,0.0026,0.0298,0.0258,0.0058
2154,0.0029,0.0318,0.0280,0.0054
2155,0.0031,0.0334,0.0285,0.0056
2156,0.0025,0.0302,0.0312,0.0064
2157,0.0070,0.0205,0.0252,0.0074
2158,0.0072,0.0502,0.0334,0.0544
2159,0.0069,0.0463,0.0378,0.0476
2160,0.0058,0.0396,0.0401,0.0414
2161,0.0055,0.0282,0.0302,0.0338
2162,0.0052,0.0263,0.0283,0.0273
2163,0.0042,0.0122,0.0188,0.0218
2164,0.0040,0.0148,0.0125,0.0168
2165,0.0036,0.0144,0.0126,0.0130
2166,0.0030,0.0136,0.0178,0.0106
2167,0.0030,0.0258,0.0267,0.0072
2168,0.0100,0.0536,0.0439,0.0525
2169,0.0071,0.0210,0.0243,0.0077
2170,0.0024,0.0190,0.0179,0.0066
2171,0.0018,0.0153,0.0150,0.0065
2172,0.0024,0.0256,0.0227,0.0079
2173,0.0029,0.0308,0.0279,0.0094
2174,0.0038,0.0447,0.0445,0.0135
2175,0.0042,0.0309,0.0285,0.0134
2176,0.0050,0.0248,0.0232,0.0166
2177,0.0057,0.0244,0.0239,0.0209
2178,0.0067,0.0286,0.0244,0.0287
2179,0.0075,0.0387,0.0403,0.0368
2180,0.0071,0.0210,0.0243,0.0077
2181,0.0077,0.0325,0.0319,0.0442
2182,0.0025,0.0206,0.0194,0.0061
2183,0.0022,0.0163,0.0152,0.0067
2184,0.0019,0.0135,0.0158,0.0071
2185,0.0027,0.0273,0.0282,0.0064
2186,0.0022,0.0163,0.0152,0.0067
2187,0.0019,0.0135,0.0158,0.0071
2188,0.0022,0.0163,0.0152,0.0067
2189,0.0022,0.0163,0.0152,0.0067
2190,0.0027,0.0273,0.0282,0.0064
2191,0.0071,0.0210,0.0243,0.0077
2192,0.0022,0.0163,0.0152,0.0067
2193,0.0022,0.0163,0.0152,0.0067
2194,0.0023,0.0217,0.0202,0.0061
2195,0.0022,0.0163,0.0152,0.0067
2196,0.0027,0.0273,0.0282,0.0064
2197,0.0019,0.0135,0.0158,0.0071
2198,0.0022,0.0163,0.0152,0.0067
2199,0.0022,0.0163,0.0152,0.0067
2200,0.0019,0.0135,0.0158,0.0071
2201,0.0027,0.0273,0.0282,0.0064
2202,0.0069,0.0349,0.0330,0.0066
2203,0.0022,0.0163,0.0152,0.0067
2204,0.0019,0.0135,0.0158,0.0071
2205,0.0022,0.0163,0.0152,0.0067
2206,0.0025,0.0251,0.0236,0.0051
2207,0.0027,0.0273,0.0282,0.0064
2208,0.0022,0.0163,0.0152,0.0067
2209,0.0022,0.0163,0.0152,0.0067
2210,0.0019,0.0135,0.0158,0.0071
2211,0.0022,0.0163,0.0152,0.0067
2212,0.0027,0.0273,0.0282,0.0064
2213,0.0070,0.0205,0.0252,0.0074
2214,0.0019,0.0135,0.0158,0.0071
2215,0.0022,0.0163,0.0152,0.0067
2216,0.0022,0.0163,0.0152,0.0067
2217,0.0019,0.0135,0.0158,0.0071
2218,0.0028,0.0370,0.0392,0.0045
2219,0.0022,0.0163,0.0152,0.0067
2220,0.0019,0.0135,0.0158,0.0071
2221,0.0022,0.0163,0.0152,0.0067
2222,0.0022,0.0163,0.0152,0.0067
2223,0.0027,0.0273,0.0282,0.0064
2224,0.0071,0.0210,0.0243,0.0077
2225,0.0039,0.0135,0.0216,0.0049
2226,0.0035,0.0132,0.0199,0.0041
2227,0.0028,0.0114,0.0180,0.0035
2228,0.0029,0.0146,0.0176,0.0034
2229,0.0027,0.0354,0.0374,0.0046
2230,0.0026,0.0298,0.0258,0.0058
2231,0.0027,0.0137,0.0164,0.0041
2232,0.0026,0.0146,0.0167,0.0048
2233,0.0022,0.0140,0.0210,0.0059
2234,0.0033,0.0236,0.0276,0.0060
2235,0.0071,0.0210,0.0243,0.0077
2236,0.0026,0.0155,0.0175,0.0067
2237,0.0020,0.0160,0.0145,0.0071
2238,0.0022,0.0191,0.0169,0.0067
2239,0.0024,0.0190,0.0179,0.0066
2240,0.0028,0.0303,0.0322,0.0056
2241,0.0025,0.0221,0.0205,0.0056
2242,0.0029,0.0318,0.0280,0.0054
2243,0.0023,0.0238,0.0216,0.0057
2244,0.0025,0.0268,0.0254,0.0050
2245,0.0030,0.0383,0.0397,0.0046
2246,0.0071,0.0210,0.0243,0.0077
2247,0.0028,0.0331,0.0278,0.0061
2248,0.0031,0.0334,0.0285,0.0056
2249,0.0072,0.0502,0.0334,0.0544
2250,0.0064,0.0474,0.0401,0.0485
2251,0.0068,0.0432,0.0420,0.0408
2252,0.0167,0.0229,0.0278,0.0455
2253,0.0114,0.0361,0.0437,0.0449
2254,0.0112,0.0440,0.0532,0.0430
2255,0.0109,0.0407,0.0495,0.0407
2256,0.0095,0.0283,0.0347,0.0380
2257,0.0071,0.0210,0.0243,0.0077
2258,0.0021,0.0145,0.0139,0.0065
2259,0.0021,0.0145,0.0139,0.0065
2260,0.0017,0.0118,0.0144,0.0068
2261,0.0019,0.0181,0.0155,0.0066
2262,0.0023,0.0292,0.0298,0.0063
2263,0.0019,0.0123,0.0132,0.0072
2264,0.0022,0.0165,0.0162,0.0067
2265,0.0023,0.0188,0.0181,0.0062
2266,0.0022,0.0190,0.0184,0.0062
2267,0.0025,0.0333,0.0357,0.0047
2268,0.0070,0.0205,0.0252,0.0074
2269,0.0023,0.0234,0.0224,0.0051
2270,0.0024,0.0252,0.0229,0.0058
2271,0.0026,0.0263,0.0243,0.0054
2272,0.0028,0.0278,0.0251,0.0055
2273,0.0024,0.0273,0.0289,0.0064
2274,0.0065,0.0356,0.0226,0.0391
2275,0.0063,0.0365,0.0306,0.0341
2276,0.0054,0.0324,0.0346,0.0298
2277,0.0052,0.0239,0.0266,0.0239
2278,0.0050,0.0251,0.0266,0.0193
2279,0.0096,0.0459,0.0437,0.0450
2280,0.0071,0.0210,0.0243,0.0077
2281,0.0041,0.0112,0.0163,0.0150
2282,0.0039,0.0133,0.0110,0.0114
2283,0.0035,0.0128,0.0112,0.0088
2284,0.0029,0.0119,0.0163,0.0079
2285,0.0029,0.0245,0.0258,0.0057
2286,0.0022,0.0165,0.0162,0.0067
2287,0.0017,0.0133,0.0133,0.0071
2288,0.0022,0.0242,0.0216,0.0087
2289,0.0028,0.0291,0.0264,0.0101
2290,0.0036,0.0429,0.0429,0.0135
2291,0.0071,0.0210,0.0243,0.0077
2292,0.0041,0.0290,0.0262,0.0119
2293,0.0048,0.0233,0.0209,0.0129
2294,0.0054,0.0212,0.0220,0.0140
2295,0.0063,0.0245,0.0213,0.0204
2296,0.0069,0.0361,0.0390,0.0271
2297,0.0072,0.0290,0.0320,0.0323
2298,0.0023,0.0188,0.0181,0.0062
2299,0.0021,0.0145,0.0139,0.0065
2300,0.0017,0.0118,0.0144,0.0068
2301,0.0025,0.0260,0.0277,0.0062
2302,0.0071,0.0210,0.0243,0.0077
2303,0.0021,0.0145,0.0139,0.0065
2304,0.0017,0.0118,0.0144,0.0068
2305,0.0021,0.0145,0.0139,0.0065
2306,0.0021,0.0145,0.0139,0.0065
2307,0.0025,0.0260,0.0277,0.0062
2308,0.0021,0.0145,0.0139,0.0065
2309,0.0021,0.0145,0.0139,0.0065
2310,0.0022,0.0190,0.0184,0.0062
2311,0.0021,0.0145,0.0139,0.0065
2312,0.0025,0.0260,0.0277,0.0062
2313,0.0071,0.0210,0.0243,0.0077
2314,0.0017,0.0118,0.0144,0.0068
2315,0.0021,0.0145,0.0139,0.0065
2316,0.0021,0.0145,0.0139,0.0065
2317,0.0017,0.0118,0.0144,0.0068
2318,0.0025,0.0260,0.0277,0.0062
2319,0.0021,0.0145,0.0139,0.0065
2320,0.0017,0.0118,0.0144,0.0068
2321,0.0021,0.0145,0.0139,0.0065
2322,0.0022,0.0216,0.0207,0.0052
2323,0.0025,0.0260,0.0277,0.0062
2324,0.0070,0.0332,0.0328,0.0061
2325,0.0021,0.0145,0.0139,0.0065
2326,0.0021,0.0145,0.0139,0.0065
2327,0.0017,0.0118,0.0144,0.0068
2328,0.0021,0.0145,0.0139,0.0065
2329,0.0025,0.0260,0.0277,0.0062
2330,0.0017,0.0118,0.0144,0.0068
2331,0.0021,0.0145,0.0139,0.0065
2332,0.0021,0.0145,0.0139,0.0065
2333,0.0017,0.0118,0.0144,0.0068
2334,0.0025,0.0349,0.0374,0.0045
2335,0.0071,0.0210,0.0243,0.0077
2336,0.0021,0.0145,0.0139,0.0065
2337,0.0017,0.0118,0.0144,0.0068
2338,0.0021,0.0145,0.0139,0.0065
2339,0.0021,0.0145,0.0139,0.0065
2340,0.0025,0.0260,0.0277,0.0062
2341,0.0039,0.0132,0.0196,0.0050
2342,0.0035,0.0121,0.0178,0.0043
2343,0.0028,0.0101,0.0153,0.0036
2344,0.0028,0.0131,0.0163,0.0034
2345,0.0025,0.0333,0.0357,0.0047
2346,0.0071,0.0210,0.0243,0.0077
2347,0.0024,0.0252,0.0229,0.0058
2348,0.0026,0.0130,0.0150,0.0039
2349,0.0026,0.0128,0.0148,0.0046
2350,0.0022,0.0130,0.0194,0.0056
2351,0.0032,0.0224,0.0263,0.0057
2352,0.0024,0.0136,0.0152,0.0064
2353,0.0018,0.0128,0.0126,0.0070
2354,0.0021,0.0155,0.0139,0.0067
2355,0.0022,0.0165,0.0162,0.0067
2356,0.0026,0.0289,0.0312,0.0058
2357,0.0071,0.0210,0.0243,0.0077
2358,0.0023,0.0191,0.0179,0.0056
2359,0.0026,0.0263,0.0243,0.0054
2360,0.0021,0.0194,0.0181,0.0058
2361,0.0023,0.0234,0.0224,0.0051
2362,0.0026,0.0358,0.0379,0.0046
2363,0.0026,0.0275,0.0243,0.0061
2364,0.0028,0.0278,0.0251,0.0055
2365,0.0065,0.0356,0.0226,0.0391
2366,0.0059,0.0380,0.0335,0.0351
2367,0.0063,0.0370,0.0372,0.0295
2368,0.0071,0.0210,0.0243,0.0077
2369,0.0182,0.0211,0.0255,0.0331
2370,0.0110,0.0306,0.0355,0.0327
2371,0.0105,0.0392,0.0457,0.0309
2372,0.0103,0.0351,0.0416,0.0285
2373,0.0090,0.0235,0.0279,0.0261
2374,0.0019,0.0107,0.0110,0.0064
2375,0.0019,0.0107,0.0110,0.0064
2376,0.0016,0.0085,0.0119,0.0068
2377,0.0018,0.0129,0.0121,0.0067
2378,0.0021,0.0258,0.0281,0.0063
2379,0.0070,0.0205,0.0252,0.0074
2380,0.0017,0.0095,0.0121,0.0075
2381,0.0020,0.0124,0.0134,0.0071
2382,0.0021,0.0138,0.0153,0.0066
2383,0.0020,0.0141,0.0159,0.0067
2384,0.0020,0.0303,0.0331,0.0051
2385,0.0019,0.0179,0.0181,0.0054
2386,0.0022,0.0154,0.0163,0.0060
2387,0.0022,0.0179,0.0184,0.0053
2388,0.0024,0.0189,0.0192,0.0053
2389,0.0022,0.0238,0.0266,0.0067
2390,0.0092,0.0352,0.0376,0.0375
2391,0.0086,0.0143,0.0195,0.0067
2392,0.0053,0.0136,0.0109,0.0114
2393,0.0052,0.0162,0.0148,0.0101
2394,0.0047,0.0177,0.0226,0.0093
2395,0.0045,0.0133,0.0149,0.0076
2396,0.0045,0.0243,0.0238,0.0094
2397,0.0039,0.0111,0.0130,0.0052
2398,0.0038,0.0131,0.0089,0.0049
2399,0.0034,0.0109,0.0089,0.0036
2400,0.0028,0.0094,0.0142,0.0036
2401,0.0028,0.0224,0.0248,0.0034
2402,0.0085,0.0140,0.0185,0.0064
2403,0.0020,0.0124,0.0134,0.0071
2404,0.0016,0.0079,0.0098,0.0090
2405,0.0021,0.0194,0.0184,0.0120
2406,0.0027,0.0247,0.0229,0.0145
2407,0.0034,0.0398,0.0398,0.0180
2408,0.0039,0.0237,0.0198,0.0170
2409,0.0045,0.0172,0.0140,0.0161
2410,0.0050,0.0162,0.0203,0.0109
2411,0.0056,0.0167,0.0151,0.0117
2412,0.0060,0.0337,0.0361,0.0150
2413,0.0085,0.0133,0.0173,0.0061
2414,0.0066,0.0286,0.0319,0.0127
2415,0.0021,0.0138,0.0153,0.0066
2416,0.0019,0.0107,0.0110,0.0064
2417,0.0016,0.0085,0.0119,0.0068
2418,0.0024,0.0234,0.0262,0.0061
2419,0.0019,0.0107,0.0110,0.0064
2420,0.0016,0.0085,0.0119,0.0068
2421,0.0019,0.0107,0.0110,0.0064
2422,0.0019,0.0107,0.0110,0.0064
2423,0.0024,0.0234,0.0262,0.0061
2424,0.0082,0.0139,0.0177,0.0061
2425,0.0019,0.0107,0.0110,0.0064
2426,0.0019,0.0107,0.0110,0.0064
2427,0.0020,0.0141,0.0159,0.0067
2428,0.0019,0.0107,0.0110,0.0064
2429,0.0024,0.0234,0.0262,0.0061
2430,0.0016,0.0085,0.0119,0.0068
2431,0.0019,0.0107,0.0110,0.0064
2432,0.0019,0.0107,0.0110,0.0064
2433,0.0016,0.0085,0.0119,0.0068
2434,0.0024,0.0234,0.0262,0.0061
2435,0.0069,0.0322,0.0326,0.0062
2436,0.0019,0.0107,0.0110,0.0064
2437,0.0016,0.0085,0.0119,0.0068
2438,0.0019,0.0107,0.0110,0.0064
2439,0.0019,0.0165,0.0166,0.0057
2440,0.0024,0.0234,0.0262,0.0061
2441,0.0019,0.0107,0.0110,0.0064
2442,0.0019,0.0107,0.0110,0.0064
2443,0.0016,0.0085,0.0119,0.0068
2444,0.0019,0.0107,0.0110,0.0064
2445,0.0024,0.0234,0.0262,0.0061
2446,0.0069,0.0410,0.0371,0.0066
2447,0.0016,0.0085,0.0119,0.0068
2448,0.0019,0.0107,0.0110,0.0064
2449,0.0019,0.0107,0.0110,0.0064
2450,0.0016,0.0085,0.0119,0.0068
2451,0.0020,0.0322,0.0350,0.0048
2452,0.0019,0.0107,0.0110,0.0064
2453,0.0016,0.0085,0.0119,0.0068
2454,0.0019,0.0107,0.0110,0.0064
2455,0.0019,0.0107,0.0110,0.0064
2456,0.0024,0.0234,0.0262,0.0061
2457,0.0076,0.0168,0.0214,0.0065
2458,0.0038,0.0124,0.0154,0.0048
2459,0.0034,0.0104,0.0151,0.0042
2460,0.0027,0.0088,0.0121,0.0035
2461,0.0029,0.0104,0.0145,0.0033
2462,0.0020,0.0303,0.0331,0.0051
2463,0.0022,0.0154,0.0163,0.0060
2464,0.0025,0.0106,0.0131,0.0038
2465,0.0025,0.0098,0.0117,0.0045
2466,0.0021,0.0117,0.0158,0.0056
2467,0.0031,0.0204,0.0246,0.0056
2468,0.0073,0.0186,0.0239,0.0069
2469,0.0024,0.0102,0.0121,0.0064
2470,0.0017,0.0085,0.0103,0.0071
2471,0.0019,0.0110,0.0108,0.0070
2472,0.0020,0.0124,0.0134,0.0071
2473,0.0024,0.0250,0.0283,0.0062
2474,0.0020,0.0134,0.0137,0.0061
2475,0.0022,0.0179,0.0184,0.0053
2476,0.0020,0.0132,0.0141,0.0063
2477,0.0019,0.0179,0.0181,0.0054
2478,0.0021,0.0326,0.0354,0.0047
2479,0.0071,0.0230,0.0288,0.0074
2480,0.0024,0.0182,0.0186,0.0060
2481,0.0024,0.0189,0.0192,0.0053
2482,0.0053,0.0136,0.0109,0.0114
2483,0.0051,0.0182,0.0191,0.0111
2484,0.0054,0.0269,0.0282,0.0119
2485,0.0224,0.0231,0.0313,0.0106
2486,0.0126,0.0231,0.0242,0.0109
2487,0.0086,0.0279,0.0299,0.0104
2488,0.0091,0.0249,0.0266,0.0097
2489,0.0080,0.0188,0.0214,0.0102
2490,0.0069,0.0224,0.0295,0.0075
2491,0.0019,0.0091,0.0100,0.0068
2492,0.0019,0.0091,0.0100,0.0068
2493,0.0017,0.0080,0.0112,0.0072
2494,0.0018,0.0101,0.0103,0.0071
2495,0.0021,0.0233,0.0266,0.0068
2496,0.0018,0.0110,0.0142,0.0082
2497,0.0019,0.0105,0.0121,0.0076
2498,0.0021,0.0110,0.0135,0.0072
2499,0.0020,0.0124,0.0157,0.0073
2500,0.0019,0.0289,0.0316,0.0057
2501,0.0088,0.0256,0.0303,0.0299
2502,0.0070,0.0238,0.0289,0.0079
2503,0.0019,0.0160,0.0162,0.0059
2504,0.0023,0.0122,0.0151,0.0064
2505,0.0022,0.0141,0.0160,0.0055
2506,0.0023,0.0137,0.0171,0.0054
2507,0.0023,0.0213,0.0248,0.0073
2508,0.0048,0.0202,0.0206,0.0181
2509,0.0047,0.0120,0.0096,0.0166
2510,0.0045,0.0111,0.0152,0.0150
2511,0.0041,0.0141,0.0089,0.0150
2512,0.0041,0.0266,0.0236,0.0159
2513,0.0072,0.0196,0.0209,0.0077
2514,0.0039,0.0122,0.0123,0.0114
2515,0.0037,0.0136,0.0087,0.0100
2516,0.0034,0.0112,0.0083,0.0068
2517,0.0029,0.0085,0.0125,0.0035
2518,0.0028,0.0210,0.0240,0.0025
2519,0.0019,0.0105,0.0121,0.0076
2520,0.0017,0.0065,0.0091,0.0111
2521,0.0021,0.0163,0.0162,0.0155
2522,0.0027,0.0202,0.0187,0.0195
2523,0.0034,0.0355,0.0358,0.0239
2524,0.0070,0.0219,0.0232,0.0077
2525,0.0039,0.0196,0.0156,0.0246
2526,0.0044,0.0138,0.0110,0.0248
2527,0.0049,0.0142,0.0202,0.0212
2528,0.0053,0.0124,0.0122,0.0206
2529,0.0055,0.0338,0.0346,0.0218
2530,0.0066,0.0327,0.0326,0.0170
2531,0.0021,0.0110,0.0135,0.0072
2532,0.0019,0.0091,0.0100,0.0068
2533,0.0017,0.0080,0.0112,0.0072
2534,0.0023,0.0219,0.0254,0.0064
2535,0.0069,0.0281,0.0298,0.0076
2536,0.0019,0.0091,0.0100,0.0068
2537,0.0017,0.0080,0.0112,0.0072
2538,0.0019,0.0091,0.0100,0.0068
2539,0.0019,0.0091,0.0100,0.0068
2540,0.0023,0.0219,0.0254,0.0064
2541,0.0019,0.0091,0.0100,0.0068
2542,0.0019,0.0091,0.0100,0.0068
2543,0.0020,0.0124,0.0157,0.0073
2544,0.0019,0.0091,0.0100,0.0068
2545,0.0023,0.0219,0.0254,0.0064
2546,0.0069,0.0296,0.0317,0.0069
2547,0.0017,0.0080,0.0112,0.0072
2548,0.0019,0.0091,0.0100,0.0068
2549,0.0019,0.0091,0.0100,0.0068
2550,0.0017,0.0080,0.0112,0.0072
2551,0.0023,0.0219,0.0254,0.0064
2552,0.0019,0.0091,0.0100,0.0068
2553,0.0017,0.0080,0.0112,0.0072
2554,0.0019,0.0091,0.0100,0.0068
2555,0.0019,0.0140,0.0146,0.0062
2556,0.0023,0.0219,0.0254,0.0064
2557,0.0068,0.0343,0.0336,0.0069
2558,0.0019,0.0091,0.0100,0.0068
2559,0.0019,0.0091,0.0100,0.0068
2560,0.0017,0.0080,0.0112,0.0072
2561,0.0019,0.0091,0.0100,0.0068
2562,0.0023,0.0219,0.0254,0.0064
2563,0.0017,0.0080,0.0112,0.0072
2564,0.0019,0.0091,0.0100,0.0068
2565,0.0019,0.0091,0.0100,0.0068
2566,0.0017,0.0080,0.0112,0.0072
2567,0.0019,0.0314,0.0337,0.0053
2568,0.0069,0.0440,0.0392,0.0068
2569,0.0019,0.0091,0.0100,0.0068
2570,0.0017,0.0080,0.0112,0.0072
2571,0.0019,0.0091,0.0100,0.0068
2572,0.0019,0.0091,0.0100,0.0068
2573,0.0023,0.0219,0.0254,0.0064
2574,0.0036,0.0118,0.0153,0.0044
2575,0.0033,0.0101,0.0150,0.0039
2576,0.0027,0.0083,0.0120,0.0033
2577,0.0028,0.0093,0.0150,0.0032
2578,0.0019,0.0289,0.0316,0.0057
2579,0.0069,0.0349,0.0330,0.0066
2580,0.0023,0.0122,0.0151,0.0064
2581,0.0025,0.0092,0.0127,0.0039
2582,0.0025,0.0091,0.0113,0.0048
2583,0.0022,0.0114,0.0132,0.0059
2584,0.0030,0.0196,0.0238,0.0059
2585,0.0023,0.0084,0.0096,0.0066
2586,0.0018,0.0075,0.0103,0.0076
2587,0.0019,0.0087,0.0098,0.0077
2588,0.0019,0.0105,0.0121,0.0076
2589,0.0023,0.0235,0.0271,0.0067
2590,0.0069,0.0360,0.0330,0.0065
2591,0.0020,0.0108,0.0120,0.0067
2592,0.0022,0.0141,0.0160,0.0055
2593,0.0020,0.0101,0.0130,0.0069
2594,0.0019,0.0160,0.0162,0.0059
2595,0.0020,0.0307,0.0333,0.0051
2596,0.0024,0.0147,0.0176,0.0063
2597,0.0023,0.0137,0.0171,0.0054
2598,0.0048,0.0202,0.0206,0.0181
2599,0.0049,0.0135,0.0144,0.0164
2600,0.0047,0.0245,0.0240,0.0182
2601,0.0069,0.0374,0.0361,0.0062
2602,0.0263,0.0302,0.0437,0.0165
2603,0.0159,0.0206,0.0243,0.0155
2604,0.0083,0.0213,0.0224,0.0167
2605,0.0078,0.0197,0.0210,0.0194
2606,0.0071,0.0212,0.0261,0.0222
2607,0.0020,0.0090,0.0100,0.0070
2608,0.0020,0.0090,0.0100,0.0070
2609,0.0018,0.0081,0.0108,0.0074
2610,0.0019,0.0093,0.0101,0.0075
2611,0.0022,0.0218,0.0254,0.0072
2612,0.0072,0.0234,0.0271,0.0080
2613,0.0086,0.0185,0.0244,0.0242
2614,0.0069,0.0440,0.0392,0.0068
2615,0.0019,0.0117,0.0149,0.0085
2616,0.0020,0.0100,0.0118,0.0079
2617,0.0020,0.0110,0.0141,0.0077
2618,0.0021,0.0139,0.0177,0.0077
2619,0.0019,0.0298,0.0321,0.0059
2620,0.0020,0.0159,0.0161,0.0061
2621,0.0023,0.0122,0.0151,0.0065
2622,0.0021,0.0129,0.0154,0.0057
2623,0.0023,0.0132,0.0169,0.0055
2624,0.0023,0.0213,0.0249,0.0076
2625,0.0069,0.0449,0.0389,0.0069
2626,0.0048,0.0286,0.0275,0.0269
2627,0.0045,0.0167,0.0127,0.0242
2628,0.0044,0.0136,0.0136,0.0216
2629,0.0040,0.0177,0.0101,0.0207
2630,0.0040,0.0295,0.0251,0.0204
2631,0.0040,0.0136,0.0128,0.0151
2632,0.0036,0.0143,0.0093,0.0127
2633,0.0034,0.0113,0.0086,0.0088
2634,0.0029,0.0089,0.0129,0.0043
2635,0.0027,0.0210,0.0242,0.0023
2636,0.0106,0.0421,0.0280,0.0446
2637,0.0020,0.0100,0.0118,0.0079
2638,0.0017,0.0068,0.0089,0.0121
2639,0.0021,0.0153,0.0154,0.0172
2640,0.0027,0.0187,0.0176,0.0218
2641,0.0034,0.0339,0.0340,0.0268
2642,0.0039,0.0178,0.0139,0.0282
2643,0.0044,0.0137,0.0113,0.0290
2644,0.0048,0.0142,0.0208,0.0263
2645,0.0052,0.0122,0.0137,0.0258
2646,0.0054,0.0336,0.0334,0.0270
2647,0.0098,0.0428,0.0358,0.0390
2648,0.0066,0.0359,0.0342,0.0234
2649,0.0020,0.0110,0.0141,0.0077
2650,0.0020,0.0090,0.0100,0.0070
2651,0.0018,0.0081,0.0108,0.0074
2652,0.0023,0.0216,0.0255,0.0066
2653,0.0020,0.0090,0.0100,0.0070
2654,0.0018,0.0081,0.0108,0.0074
2655,0.0020,0.0090,0.0100,0.0070
2656,0.0020,0.0090,0.0100,0.0070
2657,0.0023,0.0216,0.0255,0.0066
2658,0.0095,0.0384,0.0373,0.0328
2659,0.0020,0.0090,0.0100,0.0070
2660,0.0020,0.0090,0.0100,0.0070
2661,0.0021,0.0139,0.0177,0.0077
2662,0.0020,0.0090,0.0100,0.0070
2663,0.0023,0.0216,0.0255,0.0066
2664,0.0018,0.0081,0.0108,0.0074
2665,0.0020,0.0090,0.0100,0.0070
2666,0.0020,0.0090,0.0100,0.0070
2667,0.0018,0.0081,0.0108,0.0074
2668,0.0023,0.0216,0.0255,0.0066
2669,0.0183,0.0210,0.0257,0.0417
2670,0.0020,0.0090,0.0100,0.0070
2671,0.0018,0.0081,0.0108,0.0074
2672,0.0020,0.0090,0.0100,0.0070
2673,0.0019,0.0149,0.0149,0.0065
2674,0.0023,0.0216,0.0255,0.0066
2675,0.0020,0.0090,0.0100,0.0070
2676,0.0020,0.0090,0.0100,0.0070
2677,0.0018,0.0081,0.0108,0.0074
2678,0.0020,0.0090,0.0100,0.0070
2679,0.0023,0.0216,0.0255,0.0066
2680,0.0173,0.0311,0.0361,0.0408
2681,0.0018,0.0081,0.0108,0.0074
2682,0.0020,0.0090,0.0100,0.0070
2683,0.0020,0.0090,0.0100,0.0070
2684,0.0018,0.0081,0.0108,0.0074
2685,0.0019,0.0317,0.0338,0.0055
2686,0.0020,0.0090,0.0100,0.0070
2687,0.0018,0.0081,0.0108,0.0074
2688,0.0020,0.0090,0.0100,0.0070
2689,0.0020,0.0090,0.0100,0.0070
2690,0.0023,0.0216,0.0255,0.0066
2691,0.0180,0.0345,0.0400,0.0392
2692,0.0036,0.0119,0.0154,0.0042
2693,0.0032,0.0098,0.0164,0.0037
2694,0.0027,0.0081,0.0128,0.0033
2695,0.0027,0.0095,0.0171,0.0032
2696,0.0019,0.0298,0.0321,0.0059
2697,0.0023,0.0122,0.0151,0.0065
2698,0.0025,0.0091,0.0134,0.0041
2699,0.0025,0.0091,0.0106,0.0050
2700,0.0023,0.0132,0.0138,0.0061
2701,0.0030,0.0195,0.0236,0.0061
2702,0.0185,0.0279,0.0330,0.0365
2703,0.0024,0.0088,0.0096,0.0069
2704,0.0018,0.0100,0.0130,0.0080
2705,0.0020,0.0090,0.0101,0.0080
2706,0.0020,0.0100,0.0118,0.0079
2707,0.0022,0.0230,0.0268,0.0072
2708,0.0020,0.0110,0.0129,0.0071
2709,0.0021,0.0129,0.0154,0.0057
2710,0.0021,0.0097,0.0123,0.0071
2711,0.0020,0.0159,0.0161,0.0061
2712,0.0020,0.0316,0.0338,0.0052
2713,0.0187,0.0167,0.0207,0.0337
2714,0.0024,0.0139,0.0181,0.0065
2715,0.0023,0.0132,0.0169,0.0055
2716,0.0048,0.0286,0.0275,0.0269
2717,0.0049,0.0174,0.0162,0.0238
2718,0.0043,0.0267,0.0241,0.0243
2719,0.0280,0.0348,0.0506,0.0240
2720,0.0175,0.0221,0.0286,0.0227
2721,0.0094,0.0205,0.0235,0.0237
2722,0.0072,0.0190,0.0221,0.0263
2723,0.0068,0.0240,0.0308,0.0294
2724,0.0082,0.0177,0.0230,0.0193
2725,0.0070,0.0164,0.0184,0.0076
2726,0.0070,0.0164,0.0184,0.0076
2727,0.0070,0.0164,0.0184,0.0076
2728,0.0070,0.0147,0.0158,0.0077
2729,0.0069,0.0152,0.0190,0.0074
2730,0.0069,0.0182,0.0196,0.0079
2731,0.0068,0.0240,0.0260,0.0079
2732,0.0067,0.0288,0.0306,0.0075
2733,0.0067,0.0281,0.0291,0.0072
2734,0.0067,0.0233,0.0258,0.0063
2735,0.0078,0.0192,0.0245,0.0153
2736,0.0068,0.0266,0.0259,0.0066
2737,0.0068,0.0292,0.0279,0.0066
2738,0.0068,0.0316,0.0294,0.0065
2739,0.0068,0.0334,0.0302,0.0065
2740,0.0068,0.0168,0.0207,0.0076
2741,0.0104,0.0173,0.0141,0.0170
2742,0.0095,0.0199,0.0181,0.0148
2743,0.0092,0.0202,0.0219,0.0126
2744,0.0088,0.0144,0.0183,0.0103
2745,0.0085,0.0158,0.0180,0.0088
2746,0.0074,0.0212,0.0263,0.0119
2747,0.0084,0.0106,0.0123,0.0072
2748,0.0080,0.0105,0.0131,0.0063
2749,0.0076,0.0118,0.0153,0.0058
2750,0.0071,0.0141,0.0177,0.0058
2751,0.0068,0.0146,0.0195,0.0057
2752,0.0068,0.0240,0.0260,0.0079
2753,0.0072,0.0147,0.0162,0.0091
2754,0.0075,0.0140,0.0152,0.0108
2755,0.0080,0.0145,0.0150,0.0122
2756,0.0083,0.0216,0.0235,0.0147
2757,0.0071,0.0222,0.0273,0.0089
2758,0.0087,0.0180,0.0204,0.0129
2759,0.0091,0.0239,0.0273,0.0119
2760,0.0096,0.0341,0.0371,0.0113
2761,0.0101,0.0383,0.0383,0.0136
2762,0.0107,0.0279,0.0287,0.0171
2763,0.0098,0.0235,0.0228,0.0215
2764,0.0067,0.0288,0.0306,0.0075
2765,0.0070,0.0164,0.0184,0.0076
2766,0.0070,0.0164,0.0184,0.0076
2767,0.0069,0.0155,0.0202,0.0073
2768,0.0071,0.0304,0.0318,0.0077
2769,0.0070,0.0164,0.0184,0.0076
2770,0.0070,0.0164,0.0184,0.0076
2771,0.0070,0.0164,0.0184,0.0076
2772,0.0070,0.0164,0.0184,0.0076
2773,0.0069,0.0155,0.0202,0.0073
2774,0.0070,0.0164,0.0184,0.0076
2775,0.0070,0.0164,0.0184,0.0076
2776,0.0067,0.0281,0.0291,0.0072
2777,0.0070,0.0164,0.0184,0.0076
2778,0.0069,0.0155,0.0202,0.0073
2779,0.0074,0.0230,0.0256,0.0074
2780,0.0070,0.0164,0.0184,0.0076
2781,0.0070,0.0164,0.0184,0.0076
2782,0.0070,0.0164,0.0184,0.0076
2783,0.0070,0.0164,0.0184,0.0076
2784,0.0069,0.0155,0.0202,0.0073
2785,0.0070,0.0164,0.0184,0.0076
2786,0.0070,0.0164,0.0184,0.0076
2787,0.0070,0.0164,0.0184,0.0076
2788,0.0068,0.0269,0.0267,0.0068
2789,0.0069,0.0155,0.0202,0.0073
2790,0.0077,0.0236,0.0249,0.0081
2791,0.0070,0.0164,0.0184,0.0076
2792,0.0070,0.0164,0.0184,0.0076
2793,0.0070,0.0164,0.0184,0.0076
2794,0.0070,0.0164,0.0184,0.0076
2795,0.0069,0.0155,0.0202,0.0073
2796,0.0070,0.0164,0.0184,0.0076
2797,0.0070,0.0164,0.0184,0.0076
2798,0.0070,0.0164,0.0184,0.0076
2799,0.0070,0.0164,0.0184,0.0076
2800,0.0068,0.0233,0.0257,0.0061
2801,0.0082,0.0248,0.0252,0.0095
2802,0.0070,0.0164,0.0184,0.0076
2803,0.0070,0.0164,0.0184,0.0076
2804,0.0070,0.0164,0.0184,0.0076
2805,0.0070,0.0164,0.0184,0.0076
2806,0.0069,0.0155,0.0202,0.0073
2807,0.0085,0.0121,0.0120,0.0066
2808,0.0084,0.0109,0.0113,0.0063
2809,0.0084,0.0104,0.0114,0.0061
2810,0.0082,0.0109,0.0111,0.0060
2811,0.0067,0.0233,0.0258,0.0063
2812,0.0086,0.0312,0.0324,0.0135
2813,0.0068,0.0292,0.0279,0.0066
2814,0.0075,0.0131,0.0138,0.0064
2815,0.0072,0.0155,0.0166,0.0069
2816,0.0070,0.0193,0.0217,0.0073
2817,0.0068,0.0189,0.0241,0.0074
2818,0.0069,0.0206,0.0237,0.0078
2819,0.0070,0.0147,0.0158,0.0077
2820,0.0069,0.0182,0.0196,0.0079
2821,0.0068,0.0240,0.0260,0.0079
2822,0.0068,0.0237,0.0277,0.0071
2823,0.0073,0.0227,0.0235,0.0079
2824,0.0089,0.0292,0.0305,0.0152
2825,0.0067,0.0281,0.0291,0.0072
2826,0.0068,0.0316,0.0294,0.0065
2827,0.0068,0.0269,0.0267,0.0068
2828,0.0068,0.0266,0.0259,0.0066
2829,0.0068,0.0248,0.0268,0.0061
2830,0.0068,0.0316,0.0294,0.0065
2831,0.0068,0.0334,0.0302,0.0065
2832,0.0104,0.0173,0.0141,0.0170
2833,0.0095,0.0199,0.0181,0.0148
2834,0.0092,0.0231,0.0238,0.0128
2835,0.0094,0.0333,0.0352,0.0203
2836,0.0193,0.0157,0.0233,0.0207
2837,0.0166,0.0222,0.0224,0.0205
2838,0.0174,0.0234,0.0240,0.0192
2839,0.0181,0.0172,0.0184,0.0172
2840,0.0185,0.0158,0.0205,0.0156
2841,0.0070,0.0133,0.0143,0.0079
2842,0.0070,0.0133,0.0143,0.0079
2843,0.0070,0.0133,0.0143,0.0079
2844,0.0070,0.0126,0.0136,0.0081
2845,0.0068,0.0120,0.0169,0.0077
2846,0.0101,0.0444,0.0444,0.0276
2847,0.0068,0.0168,0.0181,0.0085
2848,0.0068,0.0201,0.0222,0.0083
2849,0.0067,0.0248,0.0275,0.0080
2850,0.0066,0.0238,0.0258,0.0076
2851,0.0067,0.0166,0.0212,0.0067
2852,0.0068,0.0193,0.0198,0.0069
2853,0.0068,0.0218,0.0221,0.0067
2854,0.0068,0.0252,0.0249,0.0066
2855,0.0068,0.0256,0.0255,0.0064
2856,0.0067,0.0138,0.0185,0.0081
2857,0.0107,0.0524,0.0487,0.0364
2858,0.0106,0.0184,0.0212,0.0171
2859,0.0095,0.0112,0.0116,0.0154
2860,0.0091,0.0102,0.0118,0.0142
2861,0.0089,0.0100,0.0093,0.0136
2862,0.0084,0.0163,0.0146,0.0133
2863,0.0084,0.0097,0.0086,0.0111
2864,0.0080,0.0084,0.0096,0.0092
2865,0.0076,0.0085,0.0103,0.0071
2866,0.0071,0.0104,0.0123,0.0055
2867,0.0068,0.0113,0.0164,0.0050
2868,0.0116,0.0479,0.0437,0.0445
2869,0.0068,0.0201,0.0222,0.0083
2870,0.0072,0.0118,0.0127,0.0109
2871,0.0075,0.0107,0.0117,0.0142
2872,0.0079,0.0104,0.0118,0.0170
2873,0.0083,0.0162,0.0195,0.0202
2874,0.0086,0.0148,0.0183,0.0200
2875,0.0090,0.0218,0.0265,0.0192
2876,0.0095,0.0296,0.0337,0.0173
2877,0.0099,0.0329,0.0351,0.0153
2878,0.0105,0.0194,0.0228,0.0157
2879,0.0107,0.0453,0.0377,0.0536
2880,0.0097,0.0176,0.0171,0.0168
2881,0.0067,0.0248,0.0275,0.0080
2882,0.0070,0.0133,0.0143,0.0079
2883,0.0070,0.0133,0.0143,0.0079
2884,0.0068,0.0118,0.0170,0.0076
2885,0.0070,0.0133,0.0143,0.0079
2886,0.0070,0.0133,0.0143,0.0079
2887,0.0070,0.0133,0.0143,0.0079
2888,0.0070,0.0133,0.0143,0.0079
2889,0.0068,0.0118,0.0170,0.0076
2890,0.0070,0.0361,0.0360,0.0073
2891,0.0070,0.0133,0.0143,0.0079
2892,0.0070,0.0133,0.0143,0.0079
2893,0.0066,0.0238,0.0258,0.0076
2894,0.0070,0.0133,0.0143,0.0079
2895,0.0068,0.0118,0.0170,0.0076
2896,0.0070,0.0133,0.0143,0.0079
2897,0.0070,0.0133,0.0143,0.0079
2898,0.0070,0.0133,0.0143,0.0079
2899,0.0070,0.0133,0.0143,0.0079
2900,0.0068,0.0118,0.0170,0.0076
2901,0.0072,0.0234,0.0271,0.0080
2902,0.0070,0.0133,0.0143,0.0079
2903,0.0070,0.0133,0.0143,0.0079
2904,0.0070,0.0133,0.0143,0.0079
2905,0.0068,0.0211,0.0224,0.0071
2906,0.0068,0.0118,0.0170,0.0076
2907,0.0070,0.0133,0.0143,0.0079
2908,0.0070,0.0133,0.0143,0.0079
2909,0.0070,0.0133,0.0143,0.0079
2910,0.0070,0.0133,0.0143,0.0079
2911,0.0068,0.0118,0.0170,0.0076
2912,0.0072,0.0234,0.0271,0.0080
2913,0.0070,0.0133,0.0143,0.0079
2914,0.0070,0.0133,0.0143,0.0079
2915,0.0070,0.0133,0.0143,0.0079
2916,0.0070,0.0133,0.0143,0.0079
2917,0.0068,0.0154,0.0201,0.0064
2918,0.0070,0.0133,0.0143,0.0079
2919,0.0070,0.0133,0.0143,0.0079
2920,0.0070,0.0133,0.0143,0.0079
2921,0.0070,0.0133,0.0143,0.0079
2922,0.0068,0.0118,0.0170,0.0076
2923,0.0071,0.0230,0.0278,0.0077
2924,0.0085,0.0100,0.0108,0.0065
2925,0.0084,0.0092,0.0096,0.0062
2926,0.0084,0.0080,0.0102,0.0060
2927,0.0081,0.0081,0.0082,0.0060
2928,0.0067,0.0166,0.0212,0.0067
2929,0.0068,0.0218,0.0221,0.0067
2930,0.0075,0.0104,0.0081,0.0065
2931,0.0072,0.0136,0.0120,0.0071
2932,0.0069,0.0168,0.0159,0.0076
2933,0.0067,0.0153,0.0191,0.0076
2934,0.0071,0.0239,0.0260,0.0075
2935,0.0072,0.0234,0.0271,0.0080
2936,0.0068,0.0173,0.0183,0.0081
2937,0.0070,0.0126,0.0136,0.0081
2938,0.0068,0.0168,0.0181,0.0085
2939,0.0068,0.0201,0.0222,0.0083
2940,0.0067,0.0187,0.0243,0.0075
2941,0.0066,0.0238,0.0258,0.0076
2942,0.0068,0.0252,0.0249,0.0066
2943,0.0068,0.0211,0.0224,0.0071
2944,0.0068,0.0193,0.0198,0.0069
2945,0.0068,0.0172,0.0216,0.0062
2946,0.0072,0.0234,0.0271,0.0080
2947,0.0068,0.0252,0.0249,0.0066
2948,0.0068,0.0256,0.0255,0.0064
2949,0.0106,0.0184,0.0212,0.0171
2950,0.0095,0.0112,0.0116,0.0154
2951,0.0090,0.0162,0.0162,0.0152
2952,0.0215,0.0206,0.0343,0.0180
2953,0.0164,0.0158,0.0181,0.0179
2954,0.0169,0.0166,0.0161,0.0185
2955,0.0178,0.0138,0.0172,0.0191
2956,0.0183,0.0234,0.0312,0.0204
2957,0.0072,0.0234,0.0271,0.0080
2958,0.0070,0.0124,0.0127,0.0081
2959,0.0070,0.0124,0.0127,0.0081
2960,0.0070,0.0124,0.0127,0.0081
2961,0.0070,0.0133,0.0143,0.0084
2962,0.0068,0.0116,0.0167,0.0080
2963,0.0068,0.0166,0.0181,0.0088
2964,0.0068,0.0185,0.0209,0.0086
2965,0.0067,0.0230,0.0257,0.0083
2966,0.0066,0.0234,0.0257,0.0079
2967,0.0067,0.0136,0.0192,0.0069
2968,0.0072,0.0234,0.0271,0.0080
2969,0.0069,0.0182,0.0192,0.0071
2970,0.0069,0.0194,0.0203,0.0069
2971,0.0068,0.0223,0.0235,0.0067
2972,0.0068,0.0246,0.0253,0.0065
2973,0.0067,0.0132,0.0182,0.0083
2974,0.0107,0.0268,0.0284,0.0248
2975,0.0096,0.0151,0.0143,0.0222
2976,0.0092,0.0124,0.0103,0.0203
2977,0.0089,0.0132,0.0093,0.0188
2978,0.0084,0.0191,0.0156,0.0177
2979,0.0071,0.0230,0.0278,0.0077
2980,0.0084,0.0110,0.0085,0.0145
2981,0.0080,0.0087,0.0080,0.0118
2982,0.0076,0.0075,0.0087,0.0086
2983,0.0071,0.0097,0.0113,0.0059
2984,0.0068,0.0099,0.0151,0.0049
2985,0.0068,0.0185,0.0209,0.0086
2986,0.0072,0.0102,0.0105,0.0118
2987,0.0075,0.0096,0.0104,0.0158
2988,0.0079,0.0097,0.0111,0.0193
2989,0.0083,0.0151,0.0187,0.0230
2990,0.0072,0.0234,0.0271,0.0080
2991,0.0086,0.0148,0.0191,0.0235
2992,0.0090,0.0221,0.0276,0.0233
2993,0.0094,0.0287,0.0334,0.0218
2994,0.0098,0.0315,0.0347,0.0197
2995,0.0104,0.0163,0.0212,0.0197
2996,0.0098,0.0178,0.0166,0.0203
2997,0.0067,0.0230,0.0257,0.0083
2998,0.0070,0.0124,0.0127,0.0081
2999,0.0070,0.0124,0.0127,0.0081
3000,0.0068,0.0108,0.0161,0.0078
3001,0.0072,0.0234,0.0271,0.0080
3002,0.0070,0.0124,0.0127,0.0081
3003,0.0070,0.0124,0.0127,0.0081
3004,0.0070,0.0124,0.0127,0.0081
3005,0.0070,0.0124,0.0127,0.0081
3006,0.0068,0.0108,0.0161,0.0078
3007,0.0070,0.0124,0.0127,0.0081
3008,0.0070,0.0124,0.0127,0.0081
3009,0.0066,0.0234,0.0257,0.0079
3010,0.0070,0.0124,0.0127,0.0081
3011,0.0068,0.0108,0.0161,0.0078
3012,0.0069,0.0384,0.0371,0.0070
3013,0.0070,0.0124,0.0127,0.0081
3014,0.0070,0.0124,0.0127,0.0081
3015,0.0070,0.0124,0.0127,0.0081
3016,0.0070,0.0124,0.0127,0.0081
3017,0.0068,0.0108,0.0161,0.0078
3018,0.0070,0.0124,0.0127,0.0081
3019,0.0070,0.0124,0.0127,0.0081
3020,0.0070,0.0124,0.0127,0.0081
3021,0.0068,0.0179,0.0195,0.0074
3022,0.0068,0.0108,0.0161,0.0078
3023,0.0072,0.0234,0.0271,0.0080
3024,0.0070,0.0124,0.0127,0.0081
3025,0.0070,0.0124,0.0127,0.0081
3026,0.0070,0.0124,0.0127,0.0081
3027,0.0070,0.0124,0.0127,0.0081
3028,0.0068,0.0108,0.0161,0.0078
3029,0.0070,0.0124,0.0127,0.0081
3030,0.0070,0.0124,0.0127,0.0081
3031,0.0070,0.0124,0.0127,0.0081
3032,0.0070,0.0124,0.0127,0.0081
3033,0.0068,0.0138,0.0195,0.0066
3034,0.0071,0.0230,0.0278,0.0077
3035,0.0070,0.0124,0.0127,0.0081
3036,0.0070,0.0124,0.0127,0.0081
3037,0.0070,0.0124,0.0127,0.0081
3038,0.0070,0.0124,0.0127,0.0081
3039,0.0068,0.0108,0.0161,0.0078
3040,0.0085,0.0094,0.0116,0.0064
3041,0.0084,0.0083,0.0116,0.0062
3042,0.0084,0.0074,0.0118,0.0060
3043,0.0081,0.0072,0.0099,0.0061
3044,0.0067,0.0136,0.0192,0.0069
3045,0.0071,0.0243,0.0250,0.0078
3046,0.0072,0.0234,0.0271,0.0080
3047,0.0069,0.0194,0.0203,0.0069
3048,0.0075,0.0096,0.0069,0.0067
3049,0.0072,0.0135,0.0106,0.0072
3050,0.0069,0.0174,0.0154,0.0078
3051,0.0067,0.0152,0.0185,0.0078
3052,0.0068,0.0173,0.0176,0.0083
3053,0.0070,0.0133,0.0143,0.0084
3054,0.0068,0.0166,0.0181,0.0088
3055,0.0068,0.0185,0.0209,0.0086
3056,0.0067,0.0170,0.0228,0.0078
3057,0.0072,0.0234,0.0271,0.0080
3058,0.0066,0.0234,0.0257,0.0079
3059,0.0068,0.0223,0.0235,0.0067
3060,0.0068,0.0179,0.0195,0.0074
3061,0.0069,0.0182,0.0192,0.0071
3062,0.0068,0.0145,0.0201,0.0063
3063,0.0068,0.0223,0.0235,0.0067
3064,0.0068,0.0246,0.0253,0.0065
3065,0.0107,0.0268,0.0284,0.0248
3066,0.0096,0.0151,0.0143,0.0222
3067,0.0090,0.0180,0.0157,0.0212
3068,0.0072,0.0234,0.0271,0.0080
3069,0.0226,0.0246,0.0404,0.0225
3070,0.0169,0.0156,0.0216,0.0222
3071,0.0167,0.0149,0.0167,0.0232
3072,0.0176,0.0148,0.0208,0.0246
3073,0.0182,0.0275,0.0375,0.0265
3074,0.0029,0.0146,0.0153,0.0061
3075,0.0029,0.0146,0.0153,0.0061
3076,0.0030,0.0184,0.0211,0.0065
3077,0.0030,0.0168,0.0146,0.0060
3078,0.0030,0.0254,0.0269,0.0056
3079,0.0072,0.0234,0.0271,0.0080
3080,0.0032,0.0189,0.0189,0.0063
3081,0.0031,0.0192,0.0185,0.0057
3082,0.0032,0.0226,0.0213,0.0053
3083,0.0033,0.0305,0.0289,0.0054
3084,0.0035,0.0315,0.0324,0.0042
3085,0.0034,0.0281,0.0245,0.0046
3086,0.0036,0.0370,0.0319,0.0053
3087,0.0036,0.0338,0.0283,0.0049
3088,0.0037,0.0347,0.0286,0.0050
3089,0.0031,0.0247,0.0265,0.0055
3090,0.0071,0.0230,0.0278,0.0077
3091,0.0066,0.0532,0.0333,0.0543
3092,0.0061,0.0492,0.0379,0.0474
3093,0.0053,0.0443,0.0425,0.0414
3094,0.0051,0.0311,0.0315,0.0335
3095,0.0049,0.0254,0.0279,0.0270
3096,0.0043,0.0174,0.0237,0.0217
3097,0.0040,0.0125,0.0138,0.0165
3098,0.0036,0.0124,0.0139,0.0127
3099,0.0033,0.0184,0.0229,0.0103
3100,0.0032,0.0210,0.0240,0.0068
3101,0.0072,0.0234,0.0271,0.0080
3102,0.0031,0.0192,0.0185,0.0057
3103,0.0033,0.0175,0.0187,0.0058
3104,0.0036,0.0193,0.0176,0.0072
3105,0.0042,0.0229,0.0208,0.0088
3106,0.0048,0.0350,0.0359,0.0128
3107,0.0053,0.0238,0.0221,0.0136
3108,0.0059,0.0223,0.0210,0.0178
3109,0.0064,0.0353,0.0332,0.0240
3110,0.0074,0.0360,0.0296,0.0319
3111,0.0081,0.0384,0.0364,0.0399
3112,0.0072,0.0234,0.0271,0.0080
3113,0.0081,0.0366,0.0295,0.0488
3114,0.0032,0.0226,0.0213,0.0053
3115,0.0029,0.0146,0.0153,0.0061
3116,0.0030,0.0184,0.0211,0.0065
3117,0.0032,0.0219,0.0248,0.0058
3118,0.0029,0.0146,0.0153,0.0061
3119,0.0030,0.0184,0.0211,0.0065
3120,0.0029,0.0146,0.0153,0.0061
3121,0.0029,0.0146,0.0153,0.0061
3122,0.0032,0.0219,0.0248,0.0058
3123,0.0072,0.0234,0.0271,0.0080
3124,0.0029,0.0146,0.0153,0.0061
3125,0.0029,0.0146,0.0153,0.0061
3126,0.0033,0.0305,0.0289,0.0054
3127,0.0029,0.0146,0.0153,0.0061
3128,0.0032,0.0219,0.0248,0.0058
3129,0.0030,0.0184,0.0211,0.0065
3130,0.0029,0.0146,0.0153,0.0061
3131,0.0029,0.0146,0.0153,0.0061
3132,0.0030,0.0184,0.0211,0.0065
3133,0.0032,0.0219,0.0248,0.0058
3134,0.0070,0.0404,0.0377,0.0067
3135,0.0029,0.0146,0.0153,0.0061
3136,0.0030,0.0184,0.0211,0.0065
3137,0.0029,0.0146,0.0153,0.0061
3138,0.0033,0.0265,0.0236,0.0046
3139,0.0032,0.0219,0.0248,0.0058
3140,0.0029,0.0146,0.0153,0.0061
3141,0.0029,0.0146,0.0153,0.0061
3142,0.0030,0.0184,0.0211,0.0065
3143,0.0029,0.0146,0.0153,0.0061
3144,0.0032,0.0219,0.0248,0.0058
3145,0.0071,0.0230,0.0278,0.0077
3146,0.0030,0.0184,0.0211,0.0065
3147,0.0029,0.0146,0.0153,0.0061
3148,0.0029,0.0146,0.0153,0.0061
3149,0.0030,0.0184,0.0211,0.0065
3150,0.0035,0.0332,0.0339,0.0042
3151,0.0029,0.0146,0.0153,0.0061
3152,0.0030,0.0184,0.0211,0.0065
3153,0.0029,0.0146,0.0153,0.0061
3154,0.0029,0.0146,0.0153,0.0061
3155,0.0032,0.0219,0.0248,0.0058
3156,0.0071,0.0304,0.0318,0.0077
3157,0.0072,0.0234,0.0271,0.0080
3158,0.0041,0.0090,0.0160,0.0051
3159,0.0039,0.0091,0.0154,0.0045
3160,0.0036,0.0137,0.0168,0.0042
3161,0.0035,0.0104,0.0146,0.0040
3162,0.0035,0.0315,0.0324,0.0042
3163,0.0036,0.0370,0.0319,0.0053
3164,0.0033,0.0115,0.0158,0.0045
3165,0.0033,0.0128,0.0172,0.0051
3166,0.0031,0.0216,0.0268,0.0060
3167,0.0036,0.0210,0.0270,0.0058
3168,0.0072,0.0234,0.0271,0.0080
3169,0.0031,0.0165,0.0201,0.0063
3170,0.0031,0.0179,0.0178,0.0064
3171,0.0030,0.0162,0.0145,0.0059
3172,0.0031,0.0192,0.0185,0.0057
3173,0.0034,0.0275,0.0293,0.0049
3174,0.0033,0.0245,0.0223,0.0049
3175,0.0036,0.0338,0.0283,0.0049
3176,0.0034,0.0317,0.0289,0.0051
3177,0.0034,0.0281,0.0245,0.0046
3178,0.0036,0.0355,0.0353,0.0043
3179,0.0072,0.0234,0.0271,0.0080
3180,0.0037,0.0392,0.0329,0.0055
3181,0.0037,0.0347,0.0286,0.0050
3182,0.0066,0.0532,0.0333,0.0543
3183,0.0057,0.0519,0.0424,0.0485
3184,0.0062,0.0449,0.0416,0.0406
3185,0.0107,0.0305,0.0340,0.0467
3186,0.0118,0.0369,0.0418,0.0458
3187,0.0124,0.0373,0.0422,0.0442
3188,0.0116,0.0293,0.0334,0.0419
3189,0.0102,0.0189,0.0227,0.0393
3190,0.0072,0.0234,0.0271,0.0080
3191,0.0028,0.0124,0.0129,0.0059
3192,0.0028,0.0124,0.0129,0.0059
3193,0.0028,0.0169,0.0192,0.0063
3194,0.0028,0.0138,0.0122,0.0058
3195,0.0028,0.0232,0.0253,0.0055
3196,0.0030,0.0171,0.0179,0.0062
3197,0.0029,0.0166,0.0165,0.0057
3198,0.0030,0.0201,0.0194,0.0053
3199,0.0031,0.0278,0.0270,0.0054
3200,0.0032,0.0277,0.0298,0.0042
3201,0.0071,0.0230,0.0278,0.0077
3202,0.0032,0.0229,0.0204,0.0046
3203,0.0034,0.0315,0.0281,0.0052
3204,0.0033,0.0275,0.0241,0.0047
3205,0.0034,0.0276,0.0241,0.0048
3206,0.0029,0.0221,0.0247,0.0055
3207,0.0059,0.0376,0.0214,0.0389
3208,0.0056,0.0386,0.0300,0.0339
3209,0.0049,0.0360,0.0361,0.0296
3210,0.0049,0.0255,0.0266,0.0235
3211,0.0046,0.0229,0.0248,0.0189
3212,0.0072,0.0234,0.0271,0.0080
3213,0.0042,0.0151,0.0205,0.0148
3214,0.0038,0.0107,0.0114,0.0111
3215,0.0035,0.0106,0.0117,0.0086
3216,0.0032,0.0170,0.0208,0.0077
3217,0.0030,0.0195,0.0227,0.0053
3218,0.0029,0.0166,0.0165,0.0057
3219,0.0032,0.0155,0.0166,0.0063
3220,0.0035,0.0175,0.0159,0.0076
3221,0.0041,0.0209,0.0191,0.0088
3222,0.0047,0.0330,0.0343,0.0121
3223,0.0072,0.0234,0.0271,0.0080
3224,0.0051,0.0212,0.0193,0.0110
3225,0.0057,0.0193,0.0179,0.0130
3226,0.0062,0.0321,0.0313,0.0167
3227,0.0069,0.0305,0.0255,0.0232
3228,0.0075,0.0332,0.0337,0.0299
3229,0.0076,0.0301,0.0277,0.0371
3230,0.0030,0.0201,0.0194,0.0053
3231,0.0028,0.0124,0.0129,0.0059
3232,0.0028,0.0169,0.0192,0.0063
3233,0.0030,0.0204,0.0238,0.0056
3234,0.0072,0.0234,0.0271,0.0080
3235,0.0028,0.0124,0.0129,0.0059
3236,0.0028,0.0169,0.0192,0.0063
3237,0.0028,0.0124,0.0129,0.0059
3238,0.0028,0.0124,0.0129,0.0059
3239,0.0030,0.0204,0.0238,0.0056
3240,0.0028,0.0124,0.0129,0.0059
3241,0.0028,0.0124,0.0129,0.0059
3242,0.0031,0.0278,0.0270,0.0054
3243,0.0028,0.0124,0.0129,0.0059
3244,0.0030,0.0204,0.0238,0.0056
3245,0.0072,0.0234,0.0271,0.0080
3246,0.0028,0.0169,0.0192,0.0063
3247,0.0028,0.0124,0.0129,0.0059
3248,0.0028,0.0124,0.0129,0.0059
3249,0.0028,0.0169,0.0192,0.0063
3250,0.0030,0.0204,0.0238,0.0056
3251,0.0028,0.0124,0.0129,0.0059
3252,0.0028,0.0169,0.0192,0.0063
3253,0.0028,0.0124,0.0129,0.0059
3254,0.0031,0.0218,0.0200,0.0046
3255,0.0030,0.0204,0.0238,0.0056
3256,0.0071,0.0395,0.0381,0.0062
3257,0.0028,0.0124,0.0129,0.0059
3258,0.0028,0.0124,0.0129,0.0059
3259,0.0028,0.0169,0.0192,0.0063
3260,0.0028,0.0124,0.0129,0.0059
3261,0.0030,0.0204,0.0238,0.0056
3262,0.0028,0.0169,0.0192,0.0063
3263,0.0028,0.0124,0.0129,0.0059
3264,0.0028,0.0124,0.0129,0.0059
3265,0.0028,0.0169,0.0192,0.0063
3266,0.0032,0.0294,0.0312,0.0041
3267,0.0070,0.0361,0.0360,0.0073
3268,0.0072,0.0234,0.0271,0.0080
3269,0.0028,0.0124,0.0129,0.0059
3270,0.0028,0.0169,0.0192,0.0063
3271,0.0028,0.0124,0.0129,0.0059
3272,0.0028,0.0124,0.0129,0.0059
3273,0.0030,0.0204,0.0238,0.0056
3274,0.0040,0.0077,0.0140,0.0052
3275,0.0038,0.0079,0.0136,0.0047
3276,0.0036,0.0128,0.0141,0.0043
3277,0.0035,0.0088,0.0128,0.0040
3278,0.0032,0.0277,0.0298,0.0042
3279,0.0072,0.0234,0.0271,0.0080
3280,0.0034,0.0315,0.0281,0.0052
3281,0.0032,0.0102,0.0130,0.0044
3282,0.0031,0.0110,0.0139,0.0049
3283,0.0030,0.0213,0.0251,0.0058
3284,0.0035,0.0193,0.0245,0.0055
3285,0.0029,0.0138,0.0161,0.0060
3286,0.0029,0.0159,0.0165,0.0063
3287,0.0028,0.0129,0.0119,0.0058
3288,0.0029,0.0166,0.0165,0.0057
3289,0.0031,0.0255,0.0279,0.0049
3290,0.0072,0.0234,0.0271,0.0080
3291,0.0030,0.0209,0.0195,0.0049
3292,0.0033,0.0275,0.0241,0.0047
3293,0.0032,0.0272,0.0257,0.0051
3294,0.0032,0.0229,0.0204,0.0046
3295,0.0033,0.0314,0.0327,0.0042
3296,0.0035,0.0333,0.0290,0.0053
3297,0.0034,0.0276,0.0241,0.0048
3298,0.0059,0.0376,0.0214,0.0389
3299,0.0053,0.0417,0.0351,0.0350
3300,0.0058,0.0375,0.0357,0.0291
3301,0.0072,0.0234,0.0271,0.0080
3302,0.0099,0.0262,0.0283,0.0345
3303,0.0113,0.0325,0.0346,0.0337
3304,0.0121,0.0328,0.0351,0.0321
3305,0.0113,0.0242,0.0265,0.0298
3306,0.0099,0.0168,0.0209,0.0274
3307,0.0026,0.0080,0.0086,0.0057
3308,0.0026,0.0080,0.0086,0.0057
3309,0.0027,0.0144,0.0160,0.0061
3310,0.0025,0.0092,0.0089,0.0058
3311,0.0025,0.0201,0.0239,0.0055
3312,0.0071,0.0230,0.0278,0.0077
3313,0.0028,0.0150,0.0163,0.0064
3314,0.0026,0.0117,0.0125,0.0059
3315,0.0027,0.0149,0.0164,0.0055
3316,0.0029,0.0224,0.0235,0.0057
3317,0.0028,0.0230,0.0265,0.0043
3318,0.0029,0.0137,0.0140,0.0046
3319,0.0033,0.0208,0.0204,0.0051
3320,0.0030,0.0162,0.0162,0.0045
3321,0.0032,0.0172,0.0171,0.0044
3322,0.0026,0.0192,0.0231,0.0056
3323,0.0086,0.0155,0.0236,0.0067
3324,0.0050,0.0125,0.0090,0.0113
3325,0.0047,0.0154,0.0118,0.0098
3326,0.0044,0.0207,0.0237,0.0096
3327,0.0042,0.0114,0.0127,0.0073
3328,0.0042,0.0203,0.0205,0.0091
3329,0.0040,0.0138,0.0165,0.0057
3330,0.0036,0.0099,0.0073,0.0052
3331,0.0033,0.0076,0.0073,0.0041
3332,0.0030,0.0147,0.0180,0.0040
3333,0.0028,0.0173,0.0211,0.0033
3334,0.0085,0.0155,0.0227,0.0063
3335,0.0026,0.0117,0.0125,0.0059
3336,0.0030,0.0125,0.0136,0.0079
3337,0.0033,0.0126,0.0126,0.0105
3338,0.0039,0.0166,0.0160,0.0126
3339,0.0044,0.0301,0.0318,0.0157
3340,0.0049,0.0151,0.0127,0.0144
3341,0.0054,0.0127,0.0118,0.0134
3342,0.0058,0.0271,0.0291,0.0097
3343,0.0063,0.0213,0.0191,0.0111
3344,0.0066,0.0259,0.0292,0.0146
3345,0.0085,0.0153,0.0217,0.0061
3346,0.0071,0.0228,0.0255,0.0172
3347,0.0027,0.0149,0.0164,0.0055
3348,0.0026,0.0080,0.0086,0.0057
3349,0.0027,0.0144,0.0160,0.0061
3350,0.0027,0.0180,0.0222,0.0054
3351,0.0026,0.0080,0.0086,0.0057
3352,0.0027,0.0144,0.0160,0.0061
3353,0.0026,0.0080,0.0086,0.0057
3354,0.0026,0.0080,0.0086,0.0057
3355,0.0027,0.0180,0.0222,0.0054
3356,0.0083,0.0157,0.0217,0.0061
3357,0.0026,0.0080,0.0086,0.0057
3358,0.0026,0.0080,0.0086,0.0057
3359,0.0029,0.0224,0.0235,0.0057
3360,0.0026,0.0080,0.0086,0.0057
3361,0.0027,0.0180,0.0222,0.0054
3362,0.0027,0.0144,0.0160,0.0061
3363,0.0026,0.0080,0.0086,0.0057
3364,0.0026,0.0080,0.0086,0.0057
3365,0.0027,0.0144,0.0160,0.0061
3366,0.0027,0.0180,0.0222,0.0054
3367,0.0070,0.0376,0.0371,0.0063
3368,0.0026,0.0080,0.0086,0.0057
3369,0.0027,0.0144,0.0160,0.0061
3370,0.0026,0.0080,0.0086,0.0057
3371,0.0028,0.0136,0.0136,0.0048
3372,0.0027,0.0180,0.0222,0.0054
3373,0.0026,0.0080,0.0086,0.0057
3374,0.0026,0.0080,0.0086,0.0057
3375,0.0027,0.0144,0.0160,0.0061
3376,0.0026,0.0080,0.0086,0.0057
3377,0.0027,0.0180,0.0222,0.0054
3378,0.0069,0.0384,0.0371,0.0070
3379,0.0070,0.0470,0.0419,0.0068
3380,0.0027,0.0144,0.0160,0.0061
3381,0.0026,0.0080,0.0086,0.0057
3382,0.0026,0.0080,0.0086,0.0057
3383,0.0027,0.0144,0.0160,0.0061
3384,0.0028,0.0245,0.0281,0.0041
3385,0.0026,0.0080,0.0086,0.0057
3386,0.0027,0.0144,0.0160,0.0061
3387,0.0026,0.0080,0.0086,0.0057
3388,0.0026,0.0080,0.0086,0.0057
3389,0.0027,0.0180,0.0222,0.0054
3390,0.0077,0.0183,0.0250,0.0066
3391,0.0040,0.0062,0.0141,0.0052
3392,0.0038,0.0057,0.0144,0.0047
3393,0.0036,0.0118,0.0129,0.0042
3394,0.0035,0.0064,0.0124,0.0040
3395,0.0028,0.0230,0.0265,0.0043
3396,0.0033,0.0208,0.0204,0.0051
3397,0.0031,0.0073,0.0090,0.0043
3398,0.0031,0.0085,0.0084,0.0047
3399,0.0029,0.0192,0.0199,0.0056
3400,0.0033,0.0172,0.0217,0.0054
3401,0.0074,0.0207,0.0280,0.0071
3402,0.0028,0.0111,0.0121,0.0059
3403,0.0027,0.0133,0.0143,0.0062
3404,0.0025,0.0088,0.0089,0.0060
3405,0.0026,0.0117,0.0125,0.0059
3406,0.0029,0.0211,0.0251,0.0051
3407,0.0027,0.0136,0.0142,0.0051
3408,0.0030,0.0162,0.0162,0.0045
3409,0.0030,0.0203,0.0207,0.0053
3410,0.0029,0.0137,0.0140,0.0046
3411,0.0028,0.0253,0.0290,0.0041
3412,0.0071,0.0242,0.0315,0.0076
3413,0.0034,0.0225,0.0215,0.0051
3414,0.0032,0.0172,0.0171,0.0044
3415,0.0050,0.0125,0.0090,0.0113
3416,0.0047,0.0214,0.0208,0.0115
3417,0.0048,0.0242,0.0244,0.0114
3418,0.0083,0.0183,0.0235,0.0134
3419,0.0100,0.0248,0.0231,0.0132
3420,0.0113,0.0229,0.0218,0.0121
3421,0.0106,0.0159,0.0176,0.0110
3422,0.0094,0.0196,0.0274,0.0108
3423,0.0070,0.0247,0.0331,0.0077
3424,0.0025,0.0056,0.0067,0.0059
3425,0.0025,0.0056,0.0067,0.0059
3426,0.0027,0.0134,0.0145,0.0064
3427,0.0025,0.0068,0.0078,0.0061
3428,0.0025,0.0187,0.0235,0.0058
3429,0.0027,0.0154,0.0168,0.0070
3430,0.0025,0.0082,0.0097,0.0063
3431,0.0026,0.0103,0.0131,0.0060
3432,0.0029,0.0198,0.0218,0.0061
3433,0.0026,0.0208,0.0250,0.0047
3434,0.0071,0.0264,0.0328,0.0081
3435,0.0029,0.0091,0.0104,0.0049
3436,0.0034,0.0159,0.0170,0.0053
3437,0.0030,0.0109,0.0130,0.0046
3438,0.0031,0.0105,0.0133,0.0044
3439,0.0025,0.0173,0.0219,0.0061
3440,0.0048,0.0194,0.0225,0.0190
3441,0.0044,0.0100,0.0086,0.0173
3442,0.0043,0.0145,0.0176,0.0162
3443,0.0040,0.0117,0.0065,0.0157
3444,0.0038,0.0230,0.0208,0.0163
3445,0.0073,0.0227,0.0235,0.0079
3446,0.0040,0.0148,0.0159,0.0123
3447,0.0036,0.0106,0.0070,0.0107
3448,0.0032,0.0083,0.0065,0.0077
3449,0.0030,0.0134,0.0157,0.0047
3450,0.0028,0.0164,0.0208,0.0028
3451,0.0025,0.0082,0.0097,0.0063
3452,0.0030,0.0117,0.0127,0.0099
3453,0.0033,0.0104,0.0116,0.0139
3454,0.0039,0.0133,0.0133,0.0175
3455,0.0043,0.0270,0.0294,0.0215
3456,0.0071,0.0243,0.0250,0.0078
3457,0.0048,0.0115,0.0095,0.0219
3458,0.0053,0.0097,0.0100,0.0218
3459,0.0056,0.0238,0.0273,0.0185
3460,0.0060,0.0147,0.0150,0.0175
3461,0.0062,0.0234,0.0273,0.0184
3462,0.0070,0.0249,0.0265,0.0167
3463,0.0026,0.0103,0.0131,0.0060
3464,0.0025,0.0056,0.0067,0.0059
3465,0.0027,0.0134,0.0145,0.0064
3466,0.0027,0.0170,0.0221,0.0056
3467,0.0071,0.0304,0.0318,0.0077
3468,0.0025,0.0056,0.0067,0.0059
3469,0.0027,0.0134,0.0145,0.0064
3470,0.0025,0.0056,0.0067,0.0059
3471,0.0025,0.0056,0.0067,0.0059
3472,0.0027,0.0170,0.0221,0.0056
3473,0.0025,0.0056,0.0067,0.0059
3474,0.0025,0.0056,0.0067,0.0059
3475,0.0029,0.0198,0.0218,0.0061
3476,0.0025,0.0056,0.0067,0.0059
3477,0.0027,0.0170,0.0221,0.0056
3478,0.0071,0.0325,0.0341,0.0069
3479,0.0027,0.0134,0.0145,0.0064
3480,0.0025,0.0056,0.0067,0.0059
3481,0.0025,0.0056,0.0067,0.0059
3482,0.0027,0.0134,0.0145,0.0064
3483,0.0027,0.0170,0.0221,0.0056
3484,0.0025,0.0056,0.0067,0.0059
3485,0.0027,0.0134,0.0145,0.0064
3486,0.0025,0.0056,0.0067,0.0059
3487,0.0027,0.0080,0.0099,0.0052
3488,0.0027,0.0170,0.0221,0.0056
3489,0.0070,0.0376,0.0371,0.0063
3490,0.0069,0.0384,0.0371,0.0070
3491,0.0025,0.0056,0.0067,0.0059
3492,0.0025,0.0056,0.0067,0.0059
3493,0.0027,0.0134,0.0145,0.0064
3494,0.0025,0.0056,0.0067,0.0059
3495,0.0027,0.0170,0.0221,0.0056
3496,0.0027,0.0134,0.0145,0.0064
3497,0.0025,0.0056,0.0067,0.0059
3498,0.0025,0.0056,0.0067,0.0059
3499,0.0027,0.0134,0.0145,0.0064
3500,0.0027,0.0231,0.0269,0.0044
3501,0.0070,0.0503,0.0438,0.0070
3502,0.0025,0.0056,0.0067,0.0059
3503,0.0027,0.0134,0.0145,0.0064
3504,0.0025,0.0056,0.0067,0.0059
3505,0.0025,0.0056,0.0067,0.0059
3506,0.0027,0.0170,0.0221,0.0056
3507,0.0040,0.0051,0.0193,0.0049
3508,0.0038,0.0050,0.0186,0.0044
3509,0.0036,0.0114,0.0165,0.0041
3510,0.0034,0.0060,0.0162,0.0039
3511,0.0026,0.0208,0.0250,0.0047
3512,0.0070,0.0404,0.0377,0.0067
3513,0.0034,0.0159,0.0170,0.0053
3514,0.0031,0.0057,0.0100,0.0043
3515,0.0031,0.0070,0.0071,0.0049
3516,0.0029,0.0178,0.0162,0.0059
3517,0.0032,0.0156,0.0201,0.0056
3518,0.0028,0.0080,0.0074,0.0060
3519,0.0027,0.0128,0.0139,0.0066
3520,0.0025,0.0065,0.0076,0.0065
3521,0.0025,0.0082,0.0097,0.0063
3522,0.0027,0.0187,0.0235,0.0055
3523,0.0070,0.0420,0.0381,0.0066
3524,0.0026,0.0090,0.0113,0.0056
3525,0.0030,0.0109,0.0130,0.0046
3526,0.0030,0.0165,0.0184,0.0057
3527,0.0029,0.0091,0.0104,0.0049
3528,0.0027,0.0234,0.0274,0.0042
3529,0.0034,0.0183,0.0191,0.0052
3530,0.0031,0.0105,0.0133,0.0044
3531,0.0048,0.0194,0.0225,0.0190
3532,0.0046,0.0174,0.0187,0.0176
3533,0.0043,0.0206,0.0201,0.0185
3534,0.0071,0.0435,0.0408,0.0063
3535,0.0090,0.0183,0.0317,0.0167
3536,0.0085,0.0185,0.0197,0.0169
3537,0.0105,0.0172,0.0181,0.0181
3538,0.0101,0.0151,0.0223,0.0196
3539,0.0090,0.0281,0.0395,0.0219
3540,0.0026,0.0051,0.0067,0.0061
3541,0.0026,0.0051,0.0067,0.0061
3542,0.0027,0.0134,0.0142,0.0066
3543,0.0025,0.0066,0.0079,0.0064
3544,0.0026,0.0179,0.0228,0.0060
3545,0.0070,0.0503,0.0438,0.0070
3546,0.0027,0.0153,0.0167,0.0073
3547,0.0025,0.0073,0.0093,0.0066
3548,0.0026,0.0099,0.0128,0.0063
3549,0.0029,0.0204,0.0227,0.0065
3550,0.0026,0.0215,0.0255,0.0049
3551,0.0029,0.0087,0.0104,0.0051
3552,0.0034,0.0153,0.0167,0.0054
3553,0.0030,0.0088,0.0115,0.0046
3554,0.0031,0.0096,0.0128,0.0044
3555,0.0025,0.0173,0.0220,0.0064
3556,0.0070,0.0522,0.0445,0.0072
3557,0.0049,0.0286,0.0302,0.0278
3558,0.0043,0.0160,0.0142,0.0251
3559,0.0044,0.0176,0.0180,0.0228
3560,0.0040,0.0162,0.0100,0.0215
3561,0.0038,0.0263,0.0230,0.0210
3562,0.0041,0.0165,0.0166,0.0161
3563,0.0036,0.0123,0.0086,0.0136
3564,0.0033,0.0089,0.0074,0.0098
3565,0.0031,0.0136,0.0158,0.0055
3566,0.0027,0.0165,0.0213,0.0029
3567,0.0109,0.0571,0.0390,0.0599
3568,0.0025,0.0073,0.0093,0.0066
3569,0.0030,0.0116,0.0126,0.0108
3570,0.0033,0.0098,0.0115,0.0155
3571,0.0039,0.0124,0.0129,0.0198
3572,0.0043,0.0265,0.0288,0.0243
3573,0.0048,0.0107,0.0089,0.0255
3574,0.0053,0.0095,0.0107,0.0260
3575,0.0056,0.0238,0.0279,0.0235
3576,0.0059,0.0144,0.0163,0.0226
3577,0.0061,0.0231,0.0264,0.0233
3578,0.0100,0.0536,0.0439,0.0525
3579,0.0070,0.0275,0.0280,0.0219
3580,0.0026,0.0099,0.0128,0.0063
3581,0.0026,0.0051,0.0067,0.0061
3582,0.0027,0.0134,0.0142,0.0066
3583,0.0027,0.0167,0.0222,0.0058
3584,0.0026,0.0051,0.0067,0.0061
3585,0.0027,0.0134,0.0142,0.0066
3586,0.0026,0.0051,0.0067,0.0061
3587,0.0026,0.0051,0.0067,0.0061
3588,0.0027,0.0167,0.0222,0.0058
3589,0.0098,0.0467,0.0441,0.0445
3590,0.0026,0.0051,0.0067,0.0061
3591,0.0026,0.0051,0.0067,0.0061
3592,0.0029,0.0204,0.0227,0.0065
3593,0.0026,0.0051,0.0067,0.0061
3594,0.0027,0.0167,0.0222,0.0058
3595,0.0027,0.0134,0.0142,0.0066
3596,0.0026,0.0051,0.0067,0.0061
3597,0.0026,0.0051,0.0067,0.0061
3598,0.0027,0.0134,0.0142,0.0066
3599,0.0027,0.0167,0.0222,0.0058
Total Error Summary
Vdc  RMSE=  0.0046
Idc  RMSE=  0.0189
Id   RMSE=  0.0198
Iq   RMSE=  0.0125
