Read Model from: ./ucf7d/
Export Model to: ./ucf7d/ucf7d_fhf.json
idx_in [0, 1, 2, 3, 4, 5, 6]
idx_out [7, 8, 9, 10]
make_mimo_block iir
H1s[0][0]  Real Poles: [-143.12979735  -22.46426784] Freqs [Hz]: []
H1s[0][1]  Real Poles: [-149.9552381   -11.06487691] Freqs [Hz]: []
H1s[0][2]  Real Poles: [-127.67861686  -60.26442074] Freqs [Hz]: []
H1s[0][3]  Real Poles: [-131.06520137  -56.51693309] Freqs [Hz]: []
H1s[1][0]  Real Poles: [-110.24231573  -82.1207654 ] Freqs [Hz]: []
H1s[1][1]  Real Poles: [-137.7681738   -45.03626169] Freqs [Hz]: []
H1s[1][2]  Real Poles: [-94.31496486 -94.31496486] Freqs [Hz]: [2.767843337729194]
H1s[1][3]  Real Poles: [-97.41121475 -97.41121475] Freqs [Hz]: [6.079914712289706]
H1s[2][0]  Real Poles: [-118.53920782  -72.57052621] Freqs [Hz]: []
H1s[2][1]  Real Poles: [-144.37753687  -21.97103371] Freqs [Hz]: []
H1s[2][2]  Real Poles: [-95.14672942 -95.14672942] Freqs [Hz]: [4.424170970502073]
H1s[2][3]  Real Poles: [-144.90486423  -25.06324907] Freqs [Hz]: []
H1s[3][0]  Real Poles: [-104.47862037 -104.47862037] Freqs [Hz]: [6.152880865580956]
H1s[3][1]  Real Poles: [-148.93220876   -1.74967434] Freqs [Hz]: []
H1s[3][2]  Real Poles: [-141.99127123  -24.14835229] Freqs [Hz]: []
H1s[3][3]  Real Poles: [-141.37397894  -27.96951345] Freqs [Hz]: []
model_folder = ./ucf7d/
model_root = ucf7d
data_path = d:/data/ucf3/ucf7.hdf5
idx_in [0, 1, 2, 3, 4, 5, 6]
idx_out [7, 8, 9, 10]
read 3600 dataframes
dt=0.010000 data_len=401 n_io=11 n_case=3600
['G', 'Ud', 'Uq', 'Vd', 'Vq', 'GVrms', 'Ctrl'] ['Vdc', 'Idc', 'Id', 'Iq'] (3600, 401, 11)
make_mimo_block iir
prepending initial conditions (3600, 50, 11) (3600, 401, 11) float32 float32
results in (3600, 451, 11)
Idx,Vdc,Idc,Id,Iq
#,RMSE,RMSE,RMSE,RMSE
Total,0.0077,0.0219,0.0216,0.0112
0,0.0048,0.0154,0.0143,0.0034
1,0.0048,0.0154,0.0143,0.0034
2,0.0061,0.0217,0.0194,0.0030
3,0.0041,0.0143,0.0135,0.0035
4,0.0048,0.0160,0.0150,0.0035
5,0.0048,0.0160,0.0150,0.0035
6,0.0048,0.0160,0.0150,0.0035
7,0.0050,0.0170,0.0159,0.0031
8,0.0050,0.0170,0.0159,0.0031
9,0.0055,0.0169,0.0152,0.0034
10,0.0062,0.0191,0.0171,0.0037
11,0.0074,0.0197,0.0182,0.0036
12,0.0068,0.0213,0.0205,0.0028
13,0.0063,0.0207,0.0186,0.0025
14,0.0041,0.0143,0.0135,0.0035
15,0.0063,0.0216,0.0191,0.0031
16,0.0068,0.0245,0.0209,0.0041
17,0.0073,0.0251,0.0209,0.0050
18,0.0081,0.0270,0.0229,0.0060
19,0.0055,0.0169,0.0152,0.0034
20,0.0057,0.0726,0.0612,0.0431
21,0.0054,0.0688,0.0628,0.0359
22,0.0060,0.0634,0.0622,0.0303
23,0.0065,0.0559,0.0570,0.0255
24,0.0063,0.0458,0.0490,0.0213
25,0.0041,0.0143,0.0135,0.0035
26,0.0057,0.0374,0.0411,0.0173
27,0.0054,0.0325,0.0356,0.0134
28,0.0072,0.0324,0.0346,0.0097
29,0.0073,0.0298,0.0314,0.0066
30,0.0051,0.0174,0.0174,0.0032
31,0.0062,0.0191,0.0171,0.0037
32,0.0055,0.0203,0.0204,0.0032
33,0.0059,0.0225,0.0225,0.0028
34,0.0056,0.0206,0.0198,0.0039
35,0.0073,0.0213,0.0206,0.0062
36,0.0051,0.0146,0.0137,0.0029
37,0.0072,0.0227,0.0223,0.0079
38,0.0066,0.0257,0.0264,0.0089
39,0.0071,0.0327,0.0338,0.0105
40,0.0096,0.0373,0.0375,0.0136
41,0.0147,0.0358,0.0340,0.0153
42,0.0255,0.0317,0.0318,0.0158
43,0.0074,0.0197,0.0182,0.0036
44,0.0048,0.0160,0.0150,0.0035
45,0.0048,0.0160,0.0150,0.0035
46,0.0048,0.0160,0.0150,0.0035
47,0.0051,0.0146,0.0137,0.0029
48,0.0048,0.0160,0.0150,0.0035
49,0.0048,0.0160,0.0150,0.0035
50,0.0048,0.0160,0.0150,0.0035
51,0.0048,0.0160,0.0150,0.0035
52,0.0048,0.0160,0.0150,0.0035
53,0.0048,0.0160,0.0150,0.0035
54,0.0048,0.0160,0.0150,0.0035
55,0.0068,0.0213,0.0205,0.0028
56,0.0048,0.0160,0.0150,0.0035
57,0.0048,0.0160,0.0150,0.0035
58,0.0056,0.0138,0.0125,0.0029
59,0.0048,0.0160,0.0150,0.0035
60,0.0048,0.0160,0.0150,0.0035
61,0.0048,0.0160,0.0150,0.0035
62,0.0048,0.0160,0.0150,0.0035
63,0.0048,0.0160,0.0150,0.0035
64,0.0048,0.0160,0.0150,0.0035
65,0.0048,0.0160,0.0150,0.0035
66,0.0048,0.0160,0.0150,0.0035
67,0.0063,0.0207,0.0186,0.0025
68,0.0048,0.0160,0.0150,0.0035
69,0.0054,0.0160,0.0144,0.0032
70,0.0048,0.0160,0.0150,0.0035
71,0.0048,0.0160,0.0150,0.0035
72,0.0048,0.0160,0.0150,0.0035
73,0.0048,0.0160,0.0150,0.0035
74,0.0048,0.0160,0.0150,0.0035
75,0.0048,0.0160,0.0150,0.0035
76,0.0048,0.0160,0.0150,0.0035
77,0.0048,0.0160,0.0150,0.0035
78,0.0048,0.0160,0.0150,0.0035
79,0.0063,0.0216,0.0191,0.0031
80,0.0061,0.0177,0.0172,0.0033
81,0.0048,0.0160,0.0150,0.0035
82,0.0048,0.0160,0.0150,0.0035
83,0.0048,0.0160,0.0150,0.0035
84,0.0048,0.0160,0.0150,0.0035
85,0.0048,0.0160,0.0150,0.0035
86,0.0062,0.0127,0.0207,0.0062
87,0.0054,0.0132,0.0211,0.0053
88,0.0050,0.0139,0.0212,0.0049
89,0.0050,0.0151,0.0211,0.0048
90,0.0063,0.0207,0.0186,0.0025
91,0.0060,0.0179,0.0174,0.0028
92,0.0068,0.0245,0.0209,0.0041
93,0.0056,0.0163,0.0195,0.0050
94,0.0063,0.0163,0.0179,0.0052
95,0.0070,0.0165,0.0171,0.0053
96,0.0071,0.0175,0.0177,0.0050
97,0.0062,0.0169,0.0168,0.0044
98,0.0050,0.0170,0.0159,0.0031
99,0.0055,0.0169,0.0152,0.0034
100,0.0062,0.0191,0.0171,0.0037
101,0.0074,0.0197,0.0182,0.0036
102,0.0059,0.0188,0.0181,0.0024
103,0.0068,0.0213,0.0205,0.0028
104,0.0073,0.0251,0.0209,0.0050
105,0.0063,0.0207,0.0186,0.0025
106,0.0063,0.0216,0.0191,0.0031
107,0.0068,0.0245,0.0209,0.0041
108,0.0073,0.0251,0.0209,0.0050
109,0.0081,0.0270,0.0229,0.0060
110,0.0057,0.0726,0.0612,0.0431
111,0.0054,0.0688,0.0628,0.0359
112,0.0060,0.0634,0.0622,0.0303
113,0.0067,0.0249,0.0217,0.0040
114,0.0060,0.0193,0.0181,0.0028
115,0.0041,0.0149,0.0142,0.0035
116,0.0041,0.0149,0.0142,0.0035
117,0.0041,0.0149,0.0142,0.0035
118,0.0046,0.0153,0.0148,0.0030
119,0.0046,0.0153,0.0148,0.0030
120,0.0049,0.0142,0.0131,0.0030
121,0.0051,0.0154,0.0140,0.0033
122,0.0064,0.0171,0.0162,0.0033
123,0.0062,0.0187,0.0181,0.0028
124,0.0062,0.0186,0.0176,0.0025
125,0.0065,0.0228,0.0210,0.0034
126,0.0062,0.0192,0.0175,0.0029
127,0.0066,0.0220,0.0198,0.0036
128,0.0069,0.0231,0.0201,0.0042
129,0.0073,0.0256,0.0229,0.0049
130,0.0049,0.0142,0.0131,0.0030
131,0.0050,0.0489,0.0405,0.0278
132,0.0044,0.0484,0.0442,0.0228
133,0.0051,0.0448,0.0443,0.0192
134,0.0059,0.0400,0.0407,0.0165
135,0.0060,0.0322,0.0340,0.0140
136,0.0068,0.0236,0.0212,0.0041
137,0.0055,0.0261,0.0279,0.0116
138,0.0052,0.0248,0.0264,0.0092
139,0.0074,0.0281,0.0292,0.0067
140,0.0075,0.0260,0.0264,0.0052
141,0.0048,0.0157,0.0155,0.0034
142,0.0051,0.0154,0.0140,0.0033
143,0.0052,0.0189,0.0194,0.0030
144,0.0059,0.0203,0.0205,0.0027
145,0.0059,0.0183,0.0176,0.0036
146,0.0076,0.0192,0.0185,0.0056
147,0.0073,0.0261,0.0241,0.0048
148,0.0073,0.0202,0.0196,0.0077
149,0.0058,0.0220,0.0223,0.0083
150,0.0049,0.0281,0.0295,0.0092
151,0.0054,0.0321,0.0328,0.0115
152,0.0084,0.0298,0.0293,0.0122
153,0.0184,0.0295,0.0311,0.0133
154,0.0064,0.0171,0.0162,0.0033
155,0.0041,0.0149,0.0142,0.0035
156,0.0041,0.0149,0.0142,0.0035
157,0.0041,0.0149,0.0142,0.0035
158,0.0056,0.0138,0.0125,0.0029
159,0.0041,0.0149,0.0142,0.0035
160,0.0041,0.0149,0.0142,0.0035
161,0.0041,0.0149,0.0142,0.0035
162,0.0041,0.0149,0.0142,0.0035
163,0.0041,0.0149,0.0142,0.0035
164,0.0041,0.0149,0.0142,0.0035
165,0.0041,0.0149,0.0142,0.0035
166,0.0062,0.0187,0.0181,0.0028
167,0.0041,0.0149,0.0142,0.0035
168,0.0041,0.0149,0.0142,0.0035
169,0.0048,0.0474,0.0397,0.0269
170,0.0041,0.0149,0.0142,0.0035
171,0.0041,0.0149,0.0142,0.0035
172,0.0041,0.0149,0.0142,0.0035
173,0.0041,0.0149,0.0142,0.0035
174,0.0041,0.0149,0.0142,0.0035
175,0.0041,0.0149,0.0142,0.0035
176,0.0041,0.0149,0.0142,0.0035
177,0.0041,0.0149,0.0142,0.0035
178,0.0062,0.0186,0.0176,0.0025
179,0.0041,0.0149,0.0142,0.0035
180,0.0045,0.0472,0.0435,0.0223
181,0.0041,0.0149,0.0142,0.0035
182,0.0041,0.0149,0.0142,0.0035
183,0.0041,0.0149,0.0142,0.0035
184,0.0041,0.0149,0.0142,0.0035
185,0.0041,0.0149,0.0142,0.0035
186,0.0041,0.0149,0.0142,0.0035
187,0.0041,0.0149,0.0142,0.0035
188,0.0041,0.0149,0.0142,0.0035
189,0.0041,0.0149,0.0142,0.0035
190,0.0062,0.0192,0.0175,0.0029
191,0.0054,0.0439,0.0437,0.0191
192,0.0041,0.0149,0.0142,0.0035
193,0.0041,0.0149,0.0142,0.0035
194,0.0041,0.0149,0.0142,0.0035
195,0.0041,0.0149,0.0142,0.0035
196,0.0041,0.0149,0.0142,0.0035
197,0.0050,0.0122,0.0178,0.0066
198,0.0045,0.0124,0.0185,0.0056
199,0.0044,0.0127,0.0178,0.0052
200,0.0045,0.0138,0.0176,0.0050
201,0.0062,0.0186,0.0176,0.0025
202,0.0062,0.0391,0.0401,0.0166
203,0.0066,0.0220,0.0198,0.0036
204,0.0047,0.0148,0.0169,0.0052
205,0.0053,0.0147,0.0156,0.0054
206,0.0059,0.0151,0.0154,0.0054
207,0.0062,0.0153,0.0148,0.0052
208,0.0055,0.0147,0.0143,0.0045
209,0.0046,0.0153,0.0148,0.0030
210,0.0049,0.0142,0.0131,0.0030
211,0.0051,0.0154,0.0140,0.0033
212,0.0064,0.0171,0.0162,0.0033
213,0.0062,0.0315,0.0335,0.0144
214,0.0062,0.0187,0.0181,0.0028
215,0.0069,0.0231,0.0201,0.0042
216,0.0062,0.0186,0.0176,0.0025
217,0.0062,0.0192,0.0175,0.0029
218,0.0066,0.0220,0.0198,0.0036
219,0.0069,0.0231,0.0201,0.0042
220,0.0073,0.0256,0.0229,0.0049
221,0.0050,0.0489,0.0405,0.0278
222,0.0044,0.0484,0.0442,0.0228
223,0.0051,0.0448,0.0443,0.0192
224,0.0072,0.0258,0.0218,0.0049
225,0.0055,0.0254,0.0271,0.0118
226,0.0036,0.0126,0.0125,0.0033
227,0.0036,0.0126,0.0125,0.0033
228,0.0036,0.0126,0.0125,0.0033
229,0.0051,0.0134,0.0140,0.0026
230,0.0051,0.0134,0.0140,0.0026
231,0.0058,0.0125,0.0128,0.0026
232,0.0046,0.0124,0.0127,0.0026
233,0.0048,0.0130,0.0130,0.0026
234,0.0052,0.0156,0.0164,0.0026
235,0.0058,0.0153,0.0158,0.0025
236,0.0054,0.0240,0.0254,0.0093
237,0.0062,0.0166,0.0168,0.0027
238,0.0065,0.0212,0.0210,0.0029
239,0.0065,0.0231,0.0219,0.0031
240,0.0065,0.0277,0.0263,0.0034
241,0.0058,0.0125,0.0128,0.0026
242,0.0043,0.0201,0.0194,0.0119
243,0.0029,0.0185,0.0175,0.0130
244,0.0038,0.0182,0.0177,0.0137
245,0.0050,0.0186,0.0180,0.0140
246,0.0056,0.0197,0.0192,0.0133
247,0.0077,0.0263,0.0274,0.0066
248,0.0053,0.0209,0.0208,0.0117
249,0.0048,0.0167,0.0169,0.0089
250,0.0077,0.0187,0.0180,0.0058
251,0.0081,0.0201,0.0197,0.0055
252,0.0049,0.0126,0.0127,0.0044
253,0.0046,0.0124,0.0127,0.0026
254,0.0050,0.0170,0.0179,0.0026
255,0.0058,0.0177,0.0183,0.0026
256,0.0063,0.0151,0.0152,0.0033
257,0.0089,0.0157,0.0157,0.0050
258,0.0077,0.0240,0.0243,0.0050
259,0.0097,0.0160,0.0157,0.0067
260,0.0094,0.0162,0.0166,0.0072
261,0.0092,0.0197,0.0219,0.0069
262,0.0087,0.0226,0.0247,0.0076
263,0.0063,0.0212,0.0220,0.0074
264,0.0067,0.0314,0.0324,0.0136
265,0.0048,0.0130,0.0130,0.0026
266,0.0036,0.0126,0.0125,0.0033
267,0.0036,0.0126,0.0125,0.0033
268,0.0036,0.0126,0.0125,0.0033
269,0.0048,0.0150,0.0149,0.0037
270,0.0036,0.0126,0.0125,0.0033
271,0.0036,0.0126,0.0125,0.0033
272,0.0036,0.0126,0.0125,0.0033
273,0.0036,0.0126,0.0125,0.0033
274,0.0036,0.0126,0.0125,0.0033
275,0.0036,0.0126,0.0125,0.0033
276,0.0036,0.0126,0.0125,0.0033
277,0.0052,0.0156,0.0164,0.0026
278,0.0036,0.0126,0.0125,0.0033
279,0.0036,0.0126,0.0125,0.0033
280,0.0054,0.0160,0.0144,0.0032
281,0.0036,0.0126,0.0125,0.0033
282,0.0036,0.0126,0.0125,0.0033
283,0.0036,0.0126,0.0125,0.0033
284,0.0036,0.0126,0.0125,0.0033
285,0.0036,0.0126,0.0125,0.0033
286,0.0036,0.0126,0.0125,0.0033
287,0.0036,0.0126,0.0125,0.0033
288,0.0036,0.0126,0.0125,0.0033
289,0.0058,0.0153,0.0158,0.0025
290,0.0036,0.0126,0.0125,0.0033
291,0.0056,0.0177,0.0179,0.0029
292,0.0036,0.0126,0.0125,0.0033
293,0.0036,0.0126,0.0125,0.0033
294,0.0036,0.0126,0.0125,0.0033
295,0.0036,0.0126,0.0125,0.0033
296,0.0036,0.0126,0.0125,0.0033
297,0.0036,0.0126,0.0125,0.0033
298,0.0036,0.0126,0.0125,0.0033
299,0.0036,0.0126,0.0125,0.0033
300,0.0036,0.0126,0.0125,0.0033
301,0.0062,0.0166,0.0168,0.0027
302,0.0060,0.0189,0.0187,0.0027
303,0.0036,0.0126,0.0125,0.0033
304,0.0036,0.0126,0.0125,0.0033
305,0.0036,0.0126,0.0125,0.0033
306,0.0036,0.0126,0.0125,0.0033
307,0.0036,0.0126,0.0125,0.0033
308,0.0044,0.0121,0.0145,0.0071
309,0.0051,0.0114,0.0140,0.0060
310,0.0055,0.0114,0.0139,0.0054
311,0.0063,0.0123,0.0143,0.0051
312,0.0058,0.0153,0.0158,0.0025
313,0.0059,0.0175,0.0165,0.0037
314,0.0065,0.0212,0.0210,0.0029
315,0.0052,0.0125,0.0131,0.0053
316,0.0047,0.0128,0.0130,0.0054
317,0.0048,0.0124,0.0123,0.0054
318,0.0048,0.0129,0.0123,0.0051
319,0.0041,0.0125,0.0124,0.0044
320,0.0051,0.0134,0.0140,0.0026
321,0.0058,0.0125,0.0128,0.0026
322,0.0046,0.0124,0.0127,0.0026
323,0.0048,0.0130,0.0130,0.0026
324,0.0077,0.0190,0.0180,0.0058
325,0.0052,0.0156,0.0164,0.0026
326,0.0065,0.0231,0.0219,0.0031
327,0.0058,0.0153,0.0158,0.0025
328,0.0062,0.0166,0.0168,0.0027
329,0.0065,0.0212,0.0210,0.0029
330,0.0065,0.0231,0.0219,0.0031
331,0.0065,0.0277,0.0263,0.0034
332,0.0043,0.0201,0.0194,0.0119
333,0.0029,0.0185,0.0175,0.0130
334,0.0038,0.0182,0.0177,0.0137
335,0.0081,0.0279,0.0243,0.0059
336,0.0075,0.0197,0.0183,0.0078
337,0.0049,0.0112,0.0116,0.0030
338,0.0049,0.0112,0.0116,0.0030
339,0.0049,0.0112,0.0116,0.0030
340,0.0069,0.0128,0.0138,0.0024
341,0.0069,0.0128,0.0138,0.0024
342,0.0078,0.0123,0.0132,0.0026
343,0.0064,0.0120,0.0132,0.0024
344,0.0054,0.0125,0.0136,0.0024
345,0.0047,0.0138,0.0152,0.0024
346,0.0056,0.0146,0.0156,0.0024
347,0.0062,0.0207,0.0202,0.0081
348,0.0061,0.0188,0.0194,0.0026
349,0.0066,0.0232,0.0231,0.0027
350,0.0066,0.0270,0.0261,0.0027
351,0.0065,0.0307,0.0287,0.0028
352,0.0078,0.0123,0.0132,0.0026
353,0.0047,0.0476,0.0451,0.0313
354,0.0031,0.0398,0.0378,0.0307
355,0.0037,0.0357,0.0342,0.0292
356,0.0049,0.0369,0.0359,0.0273
357,0.0057,0.0373,0.0379,0.0242
358,0.0053,0.0263,0.0267,0.0091
359,0.0055,0.0349,0.0371,0.0202
360,0.0045,0.0248,0.0273,0.0153
361,0.0075,0.0173,0.0186,0.0106
362,0.0086,0.0176,0.0180,0.0081
363,0.0061,0.0111,0.0118,0.0052
364,0.0064,0.0120,0.0132,0.0024
365,0.0062,0.0152,0.0165,0.0024
366,0.0062,0.0160,0.0172,0.0026
367,0.0063,0.0131,0.0137,0.0031
368,0.0092,0.0141,0.0146,0.0045
369,0.0053,0.0301,0.0299,0.0116
370,0.0108,0.0146,0.0149,0.0065
371,0.0115,0.0134,0.0136,0.0072
372,0.0116,0.0151,0.0171,0.0064
373,0.0119,0.0173,0.0197,0.0060
374,0.0111,0.0193,0.0197,0.0078
375,0.0088,0.0392,0.0369,0.0183
376,0.0054,0.0125,0.0136,0.0024
377,0.0049,0.0112,0.0116,0.0030
378,0.0049,0.0112,0.0116,0.0030
379,0.0049,0.0112,0.0116,0.0030
380,0.0074,0.0280,0.0265,0.0125
381,0.0049,0.0112,0.0116,0.0030
382,0.0049,0.0112,0.0116,0.0030
383,0.0049,0.0112,0.0116,0.0030
384,0.0049,0.0112,0.0116,0.0030
385,0.0049,0.0112,0.0116,0.0030
386,0.0049,0.0112,0.0116,0.0030
387,0.0049,0.0112,0.0116,0.0030
388,0.0047,0.0138,0.0152,0.0024
389,0.0049,0.0112,0.0116,0.0030
390,0.0049,0.0112,0.0116,0.0030
391,0.0165,0.0277,0.0292,0.0129
392,0.0049,0.0112,0.0116,0.0030
393,0.0049,0.0112,0.0116,0.0030
394,0.0049,0.0112,0.0116,0.0030
395,0.0049,0.0112,0.0116,0.0030
396,0.0049,0.0112,0.0116,0.0030
397,0.0049,0.0112,0.0116,0.0030
398,0.0049,0.0112,0.0116,0.0030
399,0.0049,0.0112,0.0116,0.0030
400,0.0056,0.0146,0.0156,0.0024
401,0.0049,0.0112,0.0116,0.0030
402,0.0061,0.0177,0.0172,0.0033
403,0.0049,0.0112,0.0116,0.0030
404,0.0049,0.0112,0.0116,0.0030
405,0.0049,0.0112,0.0116,0.0030
406,0.0049,0.0112,0.0116,0.0030
407,0.0049,0.0112,0.0116,0.0030
408,0.0049,0.0112,0.0116,0.0030
409,0.0049,0.0112,0.0116,0.0030
410,0.0049,0.0112,0.0116,0.0030
411,0.0049,0.0112,0.0116,0.0030
412,0.0061,0.0188,0.0194,0.0026
413,0.0041,0.0143,0.0135,0.0035
414,0.0049,0.0112,0.0116,0.0030
415,0.0049,0.0112,0.0116,0.0030
416,0.0049,0.0112,0.0116,0.0030
417,0.0049,0.0112,0.0116,0.0030
418,0.0049,0.0112,0.0116,0.0030
419,0.0060,0.0132,0.0165,0.0073
420,0.0079,0.0111,0.0139,0.0061
421,0.0084,0.0111,0.0137,0.0055
422,0.0092,0.0113,0.0130,0.0051
423,0.0056,0.0146,0.0156,0.0024
424,0.0041,0.0143,0.0135,0.0035
425,0.0066,0.0232,0.0231,0.0027
426,0.0079,0.0113,0.0122,0.0051
427,0.0068,0.0119,0.0128,0.0052
428,0.0058,0.0111,0.0124,0.0053
429,0.0054,0.0109,0.0118,0.0049
430,0.0047,0.0108,0.0115,0.0041
431,0.0069,0.0128,0.0138,0.0024
432,0.0078,0.0123,0.0132,0.0026
433,0.0064,0.0120,0.0132,0.0024
434,0.0054,0.0125,0.0136,0.0024
435,0.0041,0.0143,0.0135,0.0035
436,0.0047,0.0138,0.0152,0.0024
437,0.0066,0.0270,0.0261,0.0027
438,0.0056,0.0146,0.0156,0.0024
439,0.0061,0.0188,0.0194,0.0026
440,0.0066,0.0232,0.0231,0.0027
441,0.0066,0.0270,0.0261,0.0027
442,0.0065,0.0307,0.0287,0.0028
443,0.0047,0.0476,0.0451,0.0313
444,0.0031,0.0398,0.0378,0.0307
445,0.0037,0.0357,0.0342,0.0292
446,0.0060,0.0171,0.0153,0.0032
447,0.0041,0.0143,0.0135,0.0035
448,0.0059,0.0108,0.0115,0.0029
449,0.0059,0.0108,0.0115,0.0029
450,0.0059,0.0108,0.0115,0.0029
451,0.0081,0.0136,0.0145,0.0024
452,0.0081,0.0136,0.0145,0.0024
453,0.0089,0.0123,0.0134,0.0027
454,0.0074,0.0113,0.0128,0.0025
455,0.0058,0.0119,0.0130,0.0024
456,0.0049,0.0131,0.0146,0.0024
457,0.0056,0.0169,0.0178,0.0025
458,0.0041,0.0143,0.0135,0.0035
459,0.0061,0.0187,0.0193,0.0026
460,0.0066,0.0247,0.0246,0.0026
461,0.0066,0.0284,0.0270,0.0026
462,0.0066,0.0322,0.0305,0.0027
463,0.0089,0.0123,0.0134,0.0027
464,0.0050,0.0624,0.0584,0.0407
465,0.0035,0.0535,0.0508,0.0391
466,0.0039,0.0499,0.0476,0.0368
467,0.0051,0.0477,0.0473,0.0335
468,0.0059,0.0476,0.0488,0.0295
469,0.0041,0.0143,0.0135,0.0035
470,0.0057,0.0431,0.0460,0.0243
471,0.0045,0.0320,0.0358,0.0186
472,0.0076,0.0195,0.0224,0.0127
473,0.0091,0.0174,0.0185,0.0091
474,0.0066,0.0111,0.0128,0.0056
475,0.0074,0.0113,0.0128,0.0025
476,0.0066,0.0143,0.0160,0.0025
477,0.0065,0.0154,0.0167,0.0026
478,0.0062,0.0126,0.0133,0.0030
479,0.0092,0.0137,0.0142,0.0044
480,0.0041,0.0143,0.0135,0.0035
481,0.0109,0.0140,0.0140,0.0065
482,0.0117,0.0132,0.0133,0.0075
483,0.0121,0.0140,0.0157,0.0070
484,0.0128,0.0160,0.0185,0.0064
485,0.0126,0.0199,0.0195,0.0089
486,0.0110,0.0432,0.0397,0.0209
487,0.0058,0.0119,0.0130,0.0024
488,0.0059,0.0108,0.0115,0.0029
489,0.0059,0.0108,0.0115,0.0029
490,0.0059,0.0108,0.0115,0.0029
491,0.0041,0.0143,0.0135,0.0035
492,0.0059,0.0108,0.0115,0.0029
493,0.0059,0.0108,0.0115,0.0029
494,0.0059,0.0108,0.0115,0.0029
495,0.0059,0.0108,0.0115,0.0029
496,0.0059,0.0108,0.0115,0.0029
497,0.0059,0.0108,0.0115,0.0029
498,0.0059,0.0108,0.0115,0.0029
499,0.0049,0.0131,0.0146,0.0024
500,0.0059,0.0108,0.0115,0.0029
501,0.0059,0.0108,0.0115,0.0029
502,0.0041,0.0143,0.0135,0.0035
503,0.0059,0.0108,0.0115,0.0029
504,0.0059,0.0108,0.0115,0.0029
505,0.0059,0.0108,0.0115,0.0029
506,0.0059,0.0108,0.0115,0.0029
507,0.0059,0.0108,0.0115,0.0029
508,0.0059,0.0108,0.0115,0.0029
509,0.0059,0.0108,0.0115,0.0029
510,0.0059,0.0108,0.0115,0.0029
511,0.0056,0.0169,0.0178,0.0025
512,0.0059,0.0108,0.0115,0.0029
513,0.0041,0.0143,0.0135,0.0035
514,0.0059,0.0108,0.0115,0.0029
515,0.0059,0.0108,0.0115,0.0029
516,0.0059,0.0108,0.0115,0.0029
517,0.0059,0.0108,0.0115,0.0029
518,0.0059,0.0108,0.0115,0.0029
519,0.0059,0.0108,0.0115,0.0029
520,0.0059,0.0108,0.0115,0.0029
521,0.0059,0.0108,0.0115,0.0029
522,0.0059,0.0108,0.0115,0.0029
523,0.0061,0.0187,0.0193,0.0026
524,0.0060,0.0179,0.0174,0.0028
525,0.0059,0.0108,0.0115,0.0029
526,0.0059,0.0108,0.0115,0.0029
527,0.0059,0.0108,0.0115,0.0029
528,0.0059,0.0108,0.0115,0.0029
529,0.0059,0.0108,0.0115,0.0029
530,0.0070,0.0140,0.0188,0.0073
531,0.0085,0.0120,0.0162,0.0061
532,0.0096,0.0114,0.0148,0.0054
533,0.0103,0.0114,0.0137,0.0050
534,0.0056,0.0169,0.0178,0.0025
535,0.0041,0.0143,0.0135,0.0035
536,0.0066,0.0247,0.0246,0.0026
537,0.0092,0.0113,0.0129,0.0051
538,0.0083,0.0119,0.0127,0.0051
539,0.0073,0.0112,0.0119,0.0051
540,0.0066,0.0112,0.0113,0.0048
541,0.0056,0.0108,0.0116,0.0040
542,0.0081,0.0136,0.0145,0.0024
543,0.0089,0.0123,0.0134,0.0027
544,0.0074,0.0113,0.0128,0.0025
545,0.0058,0.0119,0.0130,0.0024
546,0.0041,0.0143,0.0135,0.0035
547,0.0049,0.0131,0.0146,0.0024
548,0.0066,0.0284,0.0270,0.0026
549,0.0056,0.0169,0.0178,0.0025
550,0.0061,0.0187,0.0193,0.0026
551,0.0066,0.0247,0.0246,0.0026
552,0.0066,0.0284,0.0270,0.0026
553,0.0066,0.0322,0.0305,0.0027
554,0.0050,0.0624,0.0584,0.0407
555,0.0035,0.0535,0.0508,0.0391
556,0.0039,0.0499,0.0476,0.0368
557,0.0056,0.0713,0.0606,0.0423
558,0.0041,0.0143,0.0135,0.0035
559,0.0041,0.0143,0.0135,0.0035
560,0.0041,0.0143,0.0135,0.0035
561,0.0041,0.0143,0.0135,0.0035
562,0.0041,0.0143,0.0135,0.0035
563,0.0041,0.0143,0.0135,0.0035
564,0.0041,0.0143,0.0135,0.0035
565,0.0041,0.0143,0.0135,0.0035
566,0.0059,0.0188,0.0181,0.0024
567,0.0041,0.0143,0.0135,0.0035
568,0.0055,0.0676,0.0623,0.0353
569,0.0041,0.0143,0.0135,0.0035
570,0.0041,0.0143,0.0135,0.0035
571,0.0041,0.0143,0.0135,0.0035
572,0.0041,0.0143,0.0135,0.0035
573,0.0041,0.0143,0.0135,0.0035
574,0.0041,0.0143,0.0135,0.0035
575,0.0041,0.0143,0.0135,0.0035
576,0.0041,0.0143,0.0135,0.0035
577,0.0041,0.0143,0.0135,0.0035
578,0.0060,0.0193,0.0181,0.0028
579,0.0062,0.0625,0.0619,0.0301
580,0.0041,0.0143,0.0135,0.0035
581,0.0041,0.0143,0.0135,0.0035
582,0.0041,0.0143,0.0135,0.0035
583,0.0041,0.0143,0.0135,0.0035
584,0.0041,0.0143,0.0135,0.0035
585,0.0043,0.0123,0.0195,0.0060
586,0.0051,0.0133,0.0207,0.0052
587,0.0053,0.0136,0.0198,0.0048
588,0.0054,0.0147,0.0195,0.0047
589,0.0059,0.0188,0.0181,0.0024
590,0.0067,0.0550,0.0564,0.0256
591,0.0065,0.0228,0.0210,0.0034
592,0.0050,0.0159,0.0186,0.0051
593,0.0050,0.0156,0.0170,0.0053
594,0.0054,0.0160,0.0166,0.0054
595,0.0058,0.0157,0.0155,0.0052
596,0.0051,0.0145,0.0141,0.0045
597,0.0051,0.0146,0.0137,0.0029
598,0.0056,0.0138,0.0125,0.0029
599,0.0054,0.0160,0.0144,0.0032
600,0.0061,0.0177,0.0172,0.0033
601,0.0065,0.0449,0.0483,0.0215
602,0.0060,0.0179,0.0174,0.0028
603,0.0068,0.0236,0.0212,0.0041
604,0.0059,0.0188,0.0181,0.0024
605,0.0060,0.0193,0.0181,0.0028
606,0.0065,0.0228,0.0210,0.0034
607,0.0068,0.0236,0.0212,0.0041
608,0.0073,0.0261,0.0241,0.0048
609,0.0048,0.0474,0.0397,0.0269
610,0.0045,0.0472,0.0435,0.0223
611,0.0054,0.0439,0.0437,0.0191
612,0.0048,0.0154,0.0143,0.0034
613,0.0057,0.0365,0.0402,0.0175
614,0.0041,0.0121,0.0120,0.0033
615,0.0041,0.0121,0.0120,0.0033
616,0.0041,0.0121,0.0120,0.0033
617,0.0060,0.0126,0.0130,0.0026
618,0.0060,0.0126,0.0130,0.0026
619,0.0067,0.0118,0.0118,0.0026
620,0.0055,0.0121,0.0120,0.0026
621,0.0049,0.0129,0.0126,0.0026
622,0.0050,0.0150,0.0159,0.0026
623,0.0055,0.0163,0.0173,0.0024
624,0.0055,0.0310,0.0341,0.0134
625,0.0059,0.0170,0.0179,0.0025
626,0.0063,0.0223,0.0229,0.0027
627,0.0063,0.0235,0.0232,0.0030
628,0.0064,0.0279,0.0277,0.0032
629,0.0067,0.0118,0.0118,0.0026
630,0.0042,0.0206,0.0199,0.0127
631,0.0030,0.0189,0.0178,0.0140
632,0.0040,0.0185,0.0177,0.0146
633,0.0052,0.0193,0.0182,0.0147
634,0.0057,0.0206,0.0198,0.0138
635,0.0075,0.0303,0.0323,0.0094
636,0.0052,0.0221,0.0218,0.0120
637,0.0049,0.0178,0.0180,0.0093
638,0.0081,0.0181,0.0174,0.0063
639,0.0084,0.0188,0.0182,0.0059
640,0.0051,0.0123,0.0126,0.0048
641,0.0055,0.0121,0.0120,0.0026
642,0.0059,0.0156,0.0164,0.0026
643,0.0062,0.0164,0.0167,0.0026
644,0.0063,0.0146,0.0145,0.0033
645,0.0088,0.0163,0.0161,0.0050
646,0.0076,0.0277,0.0291,0.0063
647,0.0096,0.0164,0.0154,0.0067
648,0.0094,0.0152,0.0146,0.0070
649,0.0092,0.0176,0.0186,0.0068
650,0.0088,0.0203,0.0214,0.0076
651,0.0068,0.0188,0.0191,0.0073
652,0.0062,0.0304,0.0321,0.0127
653,0.0049,0.0129,0.0126,0.0026
654,0.0041,0.0121,0.0120,0.0033
655,0.0041,0.0121,0.0120,0.0033
656,0.0041,0.0121,0.0120,0.0033
657,0.0052,0.0165,0.0164,0.0034
658,0.0041,0.0121,0.0120,0.0033
659,0.0041,0.0121,0.0120,0.0033
660,0.0041,0.0121,0.0120,0.0033
661,0.0041,0.0121,0.0120,0.0033
662,0.0041,0.0121,0.0120,0.0033
663,0.0041,0.0121,0.0120,0.0033
664,0.0041,0.0121,0.0120,0.0033
665,0.0050,0.0150,0.0159,0.0026
666,0.0041,0.0121,0.0120,0.0033
667,0.0041,0.0121,0.0120,0.0033
668,0.0064,0.0198,0.0178,0.0036
669,0.0041,0.0121,0.0120,0.0033
670,0.0041,0.0121,0.0120,0.0033
671,0.0041,0.0121,0.0120,0.0033
672,0.0041,0.0121,0.0120,0.0033
673,0.0041,0.0121,0.0120,0.0033
674,0.0041,0.0121,0.0120,0.0033
675,0.0041,0.0121,0.0120,0.0033
676,0.0041,0.0121,0.0120,0.0033
677,0.0055,0.0163,0.0173,0.0024
678,0.0041,0.0121,0.0120,0.0033
679,0.0059,0.0191,0.0189,0.0030
680,0.0041,0.0121,0.0120,0.0033
681,0.0041,0.0121,0.0120,0.0033
682,0.0041,0.0121,0.0120,0.0033
683,0.0041,0.0121,0.0120,0.0033
684,0.0041,0.0121,0.0120,0.0033
685,0.0041,0.0121,0.0120,0.0033
686,0.0041,0.0121,0.0120,0.0033
687,0.0041,0.0121,0.0120,0.0033
688,0.0041,0.0121,0.0120,0.0033
689,0.0059,0.0170,0.0179,0.0025
690,0.0060,0.0212,0.0209,0.0028
691,0.0041,0.0121,0.0120,0.0033
692,0.0041,0.0121,0.0120,0.0033
693,0.0041,0.0121,0.0120,0.0033
694,0.0041,0.0121,0.0120,0.0033
695,0.0041,0.0121,0.0120,0.0033
696,0.0059,0.0112,0.0145,0.0065
697,0.0074,0.0115,0.0149,0.0056
698,0.0078,0.0119,0.0148,0.0051
699,0.0085,0.0135,0.0160,0.0049
700,0.0055,0.0163,0.0173,0.0024
701,0.0057,0.0200,0.0189,0.0042
702,0.0063,0.0223,0.0229,0.0027
703,0.0065,0.0133,0.0138,0.0052
704,0.0056,0.0138,0.0138,0.0053
705,0.0049,0.0130,0.0128,0.0055
706,0.0048,0.0135,0.0129,0.0051
707,0.0040,0.0124,0.0123,0.0044
708,0.0060,0.0126,0.0130,0.0026
709,0.0067,0.0118,0.0118,0.0026
710,0.0055,0.0121,0.0120,0.0026
711,0.0049,0.0129,0.0126,0.0026
712,0.0075,0.0209,0.0198,0.0064
713,0.0050,0.0150,0.0159,0.0026
714,0.0063,0.0235,0.0232,0.0030
715,0.0055,0.0163,0.0173,0.0024
716,0.0059,0.0170,0.0179,0.0025
717,0.0063,0.0223,0.0229,0.0027
718,0.0063,0.0235,0.0232,0.0030
719,0.0064,0.0279,0.0277,0.0032
720,0.0042,0.0206,0.0199,0.0127
721,0.0030,0.0189,0.0178,0.0140
722,0.0040,0.0185,0.0177,0.0146
723,0.0054,0.0168,0.0153,0.0030
724,0.0075,0.0223,0.0212,0.0080
725,0.0058,0.0107,0.0112,0.0031
726,0.0058,0.0107,0.0112,0.0031
727,0.0058,0.0107,0.0112,0.0031
728,0.0080,0.0120,0.0129,0.0024
729,0.0080,0.0120,0.0129,0.0024
730,0.0091,0.0112,0.0116,0.0025
731,0.0077,0.0112,0.0117,0.0024
732,0.0060,0.0121,0.0125,0.0024
733,0.0048,0.0133,0.0146,0.0024
734,0.0054,0.0165,0.0181,0.0024
735,0.0068,0.0243,0.0243,0.0087
736,0.0058,0.0199,0.0214,0.0025
737,0.0063,0.0245,0.0255,0.0025
738,0.0062,0.0277,0.0280,0.0026
739,0.0062,0.0308,0.0303,0.0027
740,0.0091,0.0112,0.0116,0.0025
741,0.0046,0.0493,0.0462,0.0327
742,0.0030,0.0417,0.0391,0.0320
743,0.0036,0.0374,0.0354,0.0302
744,0.0049,0.0382,0.0368,0.0280
745,0.0056,0.0388,0.0391,0.0247
746,0.0068,0.0308,0.0311,0.0103
747,0.0053,0.0364,0.0385,0.0206
748,0.0047,0.0264,0.0289,0.0157
749,0.0081,0.0183,0.0198,0.0111
750,0.0090,0.0172,0.0181,0.0086
751,0.0066,0.0112,0.0123,0.0055
752,0.0077,0.0112,0.0117,0.0024
753,0.0074,0.0140,0.0152,0.0024
754,0.0068,0.0148,0.0160,0.0026
755,0.0064,0.0133,0.0137,0.0030
756,0.0091,0.0155,0.0160,0.0047
757,0.0087,0.0357,0.0351,0.0138
758,0.0104,0.0159,0.0156,0.0067
759,0.0109,0.0135,0.0129,0.0073
760,0.0111,0.0130,0.0138,0.0063
761,0.0116,0.0149,0.0165,0.0059
762,0.0111,0.0173,0.0178,0.0072
763,0.0092,0.0386,0.0377,0.0172
764,0.0060,0.0121,0.0125,0.0024
765,0.0058,0.0107,0.0112,0.0031
766,0.0058,0.0107,0.0112,0.0031
767,0.0058,0.0107,0.0112,0.0031
768,0.0133,0.0343,0.0315,0.0156
769,0.0058,0.0107,0.0112,0.0031
770,0.0058,0.0107,0.0112,0.0031
771,0.0058,0.0107,0.0112,0.0031
772,0.0058,0.0107,0.0112,0.0031
773,0.0058,0.0107,0.0112,0.0031
774,0.0058,0.0107,0.0112,0.0031
775,0.0058,0.0107,0.0112,0.0031
776,0.0048,0.0133,0.0146,0.0024
777,0.0058,0.0107,0.0112,0.0031
778,0.0058,0.0107,0.0112,0.0031
779,0.0235,0.0302,0.0298,0.0158
780,0.0058,0.0107,0.0112,0.0031
781,0.0058,0.0107,0.0112,0.0031
782,0.0058,0.0107,0.0112,0.0031
783,0.0058,0.0107,0.0112,0.0031
784,0.0058,0.0107,0.0112,0.0031
785,0.0058,0.0107,0.0112,0.0031
786,0.0058,0.0107,0.0112,0.0031
787,0.0058,0.0107,0.0112,0.0031
788,0.0054,0.0165,0.0181,0.0024
789,0.0058,0.0107,0.0112,0.0031
790,0.0072,0.0205,0.0193,0.0035
791,0.0058,0.0107,0.0112,0.0031
792,0.0058,0.0107,0.0112,0.0031
793,0.0058,0.0107,0.0112,0.0031
794,0.0058,0.0107,0.0112,0.0031
795,0.0058,0.0107,0.0112,0.0031
796,0.0058,0.0107,0.0112,0.0031
797,0.0058,0.0107,0.0112,0.0031
798,0.0058,0.0107,0.0112,0.0031
799,0.0058,0.0107,0.0112,0.0031
800,0.0058,0.0199,0.0214,0.0025
801,0.0048,0.0154,0.0143,0.0034
802,0.0058,0.0107,0.0112,0.0031
803,0.0058,0.0107,0.0112,0.0031
804,0.0058,0.0107,0.0112,0.0031
805,0.0058,0.0107,0.0112,0.0031
806,0.0058,0.0107,0.0112,0.0031
807,0.0087,0.0115,0.0147,0.0066
808,0.0108,0.0110,0.0136,0.0056
809,0.0112,0.0110,0.0131,0.0051
810,0.0120,0.0124,0.0136,0.0048
811,0.0054,0.0165,0.0181,0.0024
812,0.0048,0.0154,0.0143,0.0034
813,0.0063,0.0245,0.0255,0.0025
814,0.0097,0.0122,0.0123,0.0051
815,0.0082,0.0123,0.0125,0.0052
816,0.0067,0.0111,0.0117,0.0053
817,0.0060,0.0110,0.0112,0.0050
818,0.0053,0.0107,0.0113,0.0042
819,0.0080,0.0120,0.0129,0.0024
820,0.0091,0.0112,0.0116,0.0025
821,0.0077,0.0112,0.0117,0.0024
822,0.0060,0.0121,0.0125,0.0024
823,0.0048,0.0154,0.0143,0.0034
824,0.0048,0.0133,0.0146,0.0024
825,0.0062,0.0277,0.0280,0.0026
826,0.0054,0.0165,0.0181,0.0024
827,0.0058,0.0199,0.0214,0.0025
828,0.0063,0.0245,0.0255,0.0025
829,0.0062,0.0277,0.0280,0.0026
830,0.0062,0.0308,0.0303,0.0027
831,0.0046,0.0493,0.0462,0.0327
832,0.0030,0.0417,0.0391,0.0320
833,0.0036,0.0374,0.0354,0.0302
834,0.0054,0.0168,0.0153,0.0030
835,0.0048,0.0154,0.0143,0.0034
836,0.0069,0.0105,0.0112,0.0030
837,0.0069,0.0105,0.0112,0.0030
838,0.0069,0.0105,0.0112,0.0030
839,0.0095,0.0124,0.0131,0.0024
840,0.0095,0.0124,0.0131,0.0024
841,0.0101,0.0110,0.0116,0.0026
842,0.0087,0.0106,0.0114,0.0025
843,0.0067,0.0116,0.0121,0.0024
844,0.0054,0.0122,0.0135,0.0024
845,0.0053,0.0188,0.0204,0.0024
846,0.0048,0.0154,0.0143,0.0034
847,0.0058,0.0206,0.0221,0.0025
848,0.0063,0.0264,0.0274,0.0025
849,0.0063,0.0296,0.0294,0.0025
850,0.0062,0.0331,0.0329,0.0026
851,0.0101,0.0110,0.0116,0.0026
852,0.0050,0.0646,0.0600,0.0422
853,0.0034,0.0552,0.0520,0.0404
854,0.0038,0.0511,0.0485,0.0377
855,0.0050,0.0495,0.0487,0.0343
856,0.0057,0.0494,0.0505,0.0301
857,0.0048,0.0154,0.0143,0.0034
858,0.0054,0.0445,0.0472,0.0246
859,0.0047,0.0331,0.0368,0.0189
860,0.0082,0.0208,0.0239,0.0133
861,0.0096,0.0173,0.0190,0.0096
862,0.0071,0.0116,0.0138,0.0060
863,0.0087,0.0106,0.0114,0.0025
864,0.0078,0.0130,0.0148,0.0024
865,0.0073,0.0145,0.0157,0.0026
866,0.0065,0.0130,0.0139,0.0030
867,0.0089,0.0156,0.0164,0.0046
868,0.0048,0.0154,0.0143,0.0034
869,0.0104,0.0157,0.0155,0.0067
870,0.0111,0.0134,0.0127,0.0076
871,0.0114,0.0126,0.0132,0.0070
872,0.0120,0.0142,0.0155,0.0064
873,0.0122,0.0183,0.0181,0.0083
874,0.0113,0.0430,0.0407,0.0199
875,0.0067,0.0116,0.0121,0.0024
876,0.0069,0.0105,0.0112,0.0030
877,0.0069,0.0105,0.0112,0.0030
878,0.0069,0.0105,0.0112,0.0030
879,0.0048,0.0154,0.0143,0.0034
880,0.0069,0.0105,0.0112,0.0030
881,0.0069,0.0105,0.0112,0.0030
882,0.0069,0.0105,0.0112,0.0030
883,0.0069,0.0105,0.0112,0.0030
884,0.0069,0.0105,0.0112,0.0030
885,0.0069,0.0105,0.0112,0.0030
886,0.0069,0.0105,0.0112,0.0030
887,0.0054,0.0122,0.0135,0.0024
888,0.0069,0.0105,0.0112,0.0030
889,0.0069,0.0105,0.0112,0.0030
890,0.0048,0.0154,0.0143,0.0034
891,0.0069,0.0105,0.0112,0.0030
892,0.0069,0.0105,0.0112,0.0030
893,0.0069,0.0105,0.0112,0.0030
894,0.0069,0.0105,0.0112,0.0030
895,0.0069,0.0105,0.0112,0.0030
896,0.0069,0.0105,0.0112,0.0030
897,0.0069,0.0105,0.0112,0.0030
898,0.0069,0.0105,0.0112,0.0030
899,0.0053,0.0188,0.0204,0.0024
900,0.0069,0.0105,0.0112,0.0030
901,0.0048,0.0154,0.0143,0.0034
902,0.0069,0.0105,0.0112,0.0030
903,0.0069,0.0105,0.0112,0.0030
904,0.0069,0.0105,0.0112,0.0030
905,0.0069,0.0105,0.0112,0.0030
906,0.0069,0.0105,0.0112,0.0030
907,0.0069,0.0105,0.0112,0.0030
908,0.0069,0.0105,0.0112,0.0030
909,0.0069,0.0105,0.0112,0.0030
910,0.0069,0.0105,0.0112,0.0030
911,0.0058,0.0206,0.0221,0.0025
912,0.0066,0.0208,0.0200,0.0028
913,0.0069,0.0105,0.0112,0.0030
914,0.0069,0.0105,0.0112,0.0030
915,0.0069,0.0105,0.0112,0.0030
916,0.0069,0.0105,0.0112,0.0030
917,0.0069,0.0105,0.0112,0.0030
918,0.0101,0.0118,0.0160,0.0066
919,0.0118,0.0112,0.0146,0.0056
920,0.0125,0.0110,0.0136,0.0051
921,0.0131,0.0117,0.0131,0.0048
922,0.0053,0.0188,0.0204,0.0024
923,0.0048,0.0154,0.0143,0.0034
924,0.0063,0.0264,0.0274,0.0025
925,0.0112,0.0117,0.0122,0.0050
926,0.0101,0.0126,0.0125,0.0051
927,0.0085,0.0117,0.0115,0.0052
928,0.0075,0.0114,0.0112,0.0049
929,0.0063,0.0108,0.0116,0.0041
930,0.0095,0.0124,0.0131,0.0024
931,0.0101,0.0110,0.0116,0.0026
932,0.0087,0.0106,0.0114,0.0025
933,0.0067,0.0116,0.0121,0.0024
934,0.0048,0.0154,0.0143,0.0034
935,0.0054,0.0122,0.0135,0.0024
936,0.0063,0.0296,0.0294,0.0025
937,0.0053,0.0188,0.0204,0.0024
938,0.0058,0.0206,0.0221,0.0025
939,0.0063,0.0264,0.0274,0.0025
940,0.0063,0.0296,0.0294,0.0025
941,0.0062,0.0331,0.0329,0.0026
942,0.0050,0.0646,0.0600,0.0422
943,0.0034,0.0552,0.0520,0.0404
944,0.0038,0.0511,0.0485,0.0377
945,0.0060,0.0171,0.0153,0.0032
946,0.0048,0.0154,0.0143,0.0034
947,0.0049,0.0154,0.0146,0.0033
948,0.0049,0.0154,0.0146,0.0033
949,0.0049,0.0154,0.0146,0.0033
950,0.0059,0.0163,0.0145,0.0029
951,0.0059,0.0163,0.0145,0.0029
952,0.0065,0.0173,0.0152,0.0031
953,0.0067,0.0199,0.0177,0.0034
954,0.0070,0.0206,0.0197,0.0035
955,0.0065,0.0199,0.0195,0.0028
956,0.0059,0.0209,0.0193,0.0024
957,0.0048,0.0154,0.0143,0.0034
958,0.0060,0.0215,0.0196,0.0029
959,0.0066,0.0260,0.0230,0.0039
960,0.0073,0.0267,0.0229,0.0048
961,0.0083,0.0292,0.0261,0.0058
962,0.0065,0.0173,0.0152,0.0031
963,0.0054,0.0709,0.0610,0.0420
964,0.0056,0.0675,0.0627,0.0353
965,0.0065,0.0624,0.0622,0.0303
966,0.0071,0.0548,0.0567,0.0260
967,0.0067,0.0448,0.0485,0.0221
968,0.0048,0.0154,0.0143,0.0034
969,0.0058,0.0362,0.0402,0.0180
970,0.0057,0.0304,0.0334,0.0135
971,0.0077,0.0293,0.0312,0.0093
972,0.0077,0.0264,0.0278,0.0061
973,0.0054,0.0164,0.0165,0.0035
974,0.0067,0.0199,0.0177,0.0034
975,0.0062,0.0190,0.0190,0.0028
976,0.0061,0.0209,0.0205,0.0028
977,0.0059,0.0200,0.0188,0.0042
978,0.0077,0.0214,0.0203,0.0064
979,0.0048,0.0154,0.0143,0.0034
980,0.0077,0.0226,0.0214,0.0078
981,0.0068,0.0245,0.0243,0.0085
982,0.0065,0.0310,0.0309,0.0106
983,0.0078,0.0357,0.0343,0.0144
984,0.0116,0.0342,0.0304,0.0166
985,0.0211,0.0296,0.0285,0.0163
986,0.0070,0.0206,0.0197,0.0035
987,0.0049,0.0154,0.0146,0.0033
988,0.0049,0.0154,0.0146,0.0033
989,0.0049,0.0154,0.0146,0.0033
990,0.0048,0.0154,0.0143,0.0034
991,0.0049,0.0154,0.0146,0.0033
992,0.0049,0.0154,0.0146,0.0033
993,0.0049,0.0154,0.0146,0.0033
994,0.0049,0.0154,0.0146,0.0033
995,0.0049,0.0154,0.0146,0.0033
996,0.0049,0.0154,0.0146,0.0033
997,0.0049,0.0154,0.0146,0.0033
998,0.0065,0.0199,0.0195,0.0028
999,0.0049,0.0154,0.0146,0.0033
1000,0.0049,0.0154,0.0146,0.0033
1001,0.0048,0.0154,0.0143,0.0034
1002,0.0049,0.0154,0.0146,0.0033
1003,0.0049,0.0154,0.0146,0.0033
1004,0.0049,0.0154,0.0146,0.0033
1005,0.0049,0.0154,0.0146,0.0033
1006,0.0049,0.0154,0.0146,0.0033
1007,0.0049,0.0154,0.0146,0.0033
1008,0.0049,0.0154,0.0146,0.0033
1009,0.0049,0.0154,0.0146,0.0033
1010,0.0059,0.0209,0.0193,0.0024
1011,0.0049,0.0154,0.0146,0.0033
1012,0.0048,0.0154,0.0143,0.0034
1013,0.0049,0.0154,0.0146,0.0033
1014,0.0049,0.0154,0.0146,0.0033
1015,0.0049,0.0154,0.0146,0.0033
1016,0.0049,0.0154,0.0146,0.0033
1017,0.0049,0.0154,0.0146,0.0033
1018,0.0049,0.0154,0.0146,0.0033
1019,0.0049,0.0154,0.0146,0.0033
1020,0.0049,0.0154,0.0146,0.0033
1021,0.0049,0.0154,0.0146,0.0033
1022,0.0060,0.0215,0.0196,0.0029
1023,0.0048,0.0154,0.0143,0.0034
1024,0.0049,0.0154,0.0146,0.0033
1025,0.0049,0.0154,0.0146,0.0033
1026,0.0049,0.0154,0.0146,0.0033
1027,0.0049,0.0154,0.0146,0.0033
1028,0.0049,0.0154,0.0146,0.0033
1029,0.0057,0.0143,0.0266,0.0051
1030,0.0065,0.0161,0.0274,0.0045
1031,0.0066,0.0173,0.0276,0.0043
1032,0.0067,0.0187,0.0273,0.0043
1033,0.0059,0.0209,0.0193,0.0024
1034,0.0061,0.0204,0.0187,0.0024
1035,0.0066,0.0260,0.0230,0.0039
1036,0.0059,0.0202,0.0254,0.0048
1037,0.0059,0.0191,0.0225,0.0050
1038,0.0063,0.0190,0.0209,0.0051
1039,0.0064,0.0193,0.0205,0.0049
1040,0.0057,0.0175,0.0182,0.0042
1041,0.0059,0.0163,0.0145,0.0029
1042,0.0065,0.0173,0.0152,0.0031
1043,0.0067,0.0199,0.0177,0.0034
1044,0.0070,0.0206,0.0197,0.0035
1045,0.0048,0.0154,0.0143,0.0034
1046,0.0065,0.0199,0.0195,0.0028
1047,0.0073,0.0267,0.0229,0.0048
1048,0.0059,0.0209,0.0193,0.0024
1049,0.0060,0.0215,0.0196,0.0029
1050,0.0066,0.0260,0.0230,0.0039
1051,0.0073,0.0267,0.0229,0.0048
1052,0.0083,0.0292,0.0261,0.0058
1053,0.0054,0.0709,0.0610,0.0420
1054,0.0056,0.0675,0.0627,0.0353
1055,0.0065,0.0624,0.0622,0.0303
1056,0.0064,0.0198,0.0178,0.0036
1057,0.0048,0.0154,0.0143,0.0034
1058,0.0044,0.0143,0.0137,0.0034
1059,0.0044,0.0143,0.0137,0.0034
1060,0.0044,0.0143,0.0137,0.0034
1061,0.0057,0.0142,0.0132,0.0028
1062,0.0057,0.0142,0.0132,0.0028
1063,0.0063,0.0139,0.0123,0.0028
1064,0.0058,0.0160,0.0143,0.0031
1065,0.0060,0.0179,0.0176,0.0033
1066,0.0059,0.0173,0.0169,0.0028
1067,0.0058,0.0188,0.0185,0.0024
1068,0.0048,0.0154,0.0143,0.0034
1069,0.0059,0.0197,0.0188,0.0027
1070,0.0064,0.0237,0.0223,0.0033
1071,0.0068,0.0244,0.0223,0.0040
1072,0.0075,0.0266,0.0253,0.0047
1073,0.0063,0.0139,0.0123,0.0028
1074,0.0047,0.0468,0.0397,0.0266
1075,0.0046,0.0467,0.0437,0.0223
1076,0.0057,0.0437,0.0439,0.0194
1077,0.0065,0.0389,0.0403,0.0171
1078,0.0063,0.0313,0.0335,0.0149
1079,0.0048,0.0154,0.0143,0.0034
1080,0.0056,0.0251,0.0270,0.0122
1081,0.0055,0.0234,0.0250,0.0094
1082,0.0079,0.0256,0.0266,0.0065
1083,0.0078,0.0230,0.0233,0.0050
1084,0.0050,0.0149,0.0149,0.0039
1085,0.0058,0.0160,0.0143,0.0031
1086,0.0060,0.0176,0.0178,0.0028
1087,0.0061,0.0187,0.0184,0.0028
1088,0.0060,0.0176,0.0164,0.0037
1089,0.0079,0.0195,0.0184,0.0057
1090,0.0048,0.0154,0.0143,0.0034
1091,0.0077,0.0200,0.0184,0.0075
1092,0.0065,0.0206,0.0199,0.0078
1093,0.0057,0.0263,0.0263,0.0094
1094,0.0054,0.0303,0.0293,0.0124
1095,0.0064,0.0277,0.0253,0.0135
1096,0.0143,0.0262,0.0276,0.0129
1097,0.0060,0.0179,0.0176,0.0033
1098,0.0044,0.0143,0.0137,0.0034
1099,0.0044,0.0143,0.0137,0.0034
1100,0.0044,0.0143,0.0137,0.0034
1101,0.0048,0.0154,0.0143,0.0034
1102,0.0044,0.0143,0.0137,0.0034
1103,0.0044,0.0143,0.0137,0.0034
1104,0.0044,0.0143,0.0137,0.0034
1105,0.0044,0.0143,0.0137,0.0034
1106,0.0044,0.0143,0.0137,0.0034
1107,0.0044,0.0143,0.0137,0.0034
1108,0.0044,0.0143,0.0137,0.0034
1109,0.0059,0.0173,0.0169,0.0028
1110,0.0044,0.0143,0.0137,0.0034
1111,0.0044,0.0143,0.0137,0.0034
1112,0.0048,0.0154,0.0143,0.0034
1113,0.0044,0.0143,0.0137,0.0034
1114,0.0044,0.0143,0.0137,0.0034
1115,0.0044,0.0143,0.0137,0.0034
1116,0.0044,0.0143,0.0137,0.0034
1117,0.0044,0.0143,0.0137,0.0034
1118,0.0044,0.0143,0.0137,0.0034
1119,0.0044,0.0143,0.0137,0.0034
1120,0.0044,0.0143,0.0137,0.0034
1121,0.0058,0.0188,0.0185,0.0024
1122,0.0044,0.0143,0.0137,0.0034
1123,0.0048,0.0154,0.0143,0.0034
1124,0.0044,0.0143,0.0137,0.0034
1125,0.0044,0.0143,0.0137,0.0034
1126,0.0044,0.0143,0.0137,0.0034
1127,0.0044,0.0143,0.0137,0.0034
1128,0.0044,0.0143,0.0137,0.0034
1129,0.0044,0.0143,0.0137,0.0034
1130,0.0044,0.0143,0.0137,0.0034
1131,0.0044,0.0143,0.0137,0.0034
1132,0.0044,0.0143,0.0137,0.0034
1133,0.0059,0.0197,0.0188,0.0027
1134,0.0048,0.0154,0.0143,0.0034
1135,0.0044,0.0143,0.0137,0.0034
1136,0.0044,0.0143,0.0137,0.0034
1137,0.0044,0.0143,0.0137,0.0034
1138,0.0044,0.0143,0.0137,0.0034
1139,0.0044,0.0143,0.0137,0.0034
1140,0.0059,0.0136,0.0232,0.0054
1141,0.0071,0.0156,0.0250,0.0047
1142,0.0071,0.0160,0.0239,0.0045
1143,0.0071,0.0171,0.0232,0.0044
1144,0.0058,0.0188,0.0185,0.0024
1145,0.0048,0.0154,0.0143,0.0034
1146,0.0064,0.0237,0.0223,0.0033
1147,0.0058,0.0185,0.0223,0.0049
1148,0.0053,0.0176,0.0199,0.0051
1149,0.0053,0.0182,0.0196,0.0053
1150,0.0055,0.0174,0.0178,0.0050
1151,0.0049,0.0153,0.0152,0.0044
1152,0.0057,0.0142,0.0132,0.0028
1153,0.0063,0.0139,0.0123,0.0028
1154,0.0058,0.0160,0.0143,0.0031
1155,0.0060,0.0179,0.0176,0.0033
1156,0.0061,0.0217,0.0194,0.0030
1157,0.0059,0.0173,0.0169,0.0028
1158,0.0068,0.0244,0.0223,0.0040
1159,0.0058,0.0188,0.0185,0.0024
1160,0.0059,0.0197,0.0188,0.0027
1161,0.0064,0.0237,0.0223,0.0033
1162,0.0068,0.0244,0.0223,0.0040
1163,0.0075,0.0266,0.0253,0.0047
1164,0.0047,0.0468,0.0397,0.0266
1165,0.0046,0.0467,0.0437,0.0223
1166,0.0057,0.0437,0.0439,0.0194
1167,0.0072,0.0205,0.0193,0.0035
1168,0.0048,0.0154,0.0143,0.0034
1169,0.0049,0.0123,0.0122,0.0033
1170,0.0049,0.0123,0.0122,0.0033
1171,0.0049,0.0123,0.0122,0.0033
1172,0.0068,0.0122,0.0124,0.0026
1173,0.0068,0.0122,0.0124,0.0026
1174,0.0077,0.0116,0.0114,0.0025
1175,0.0063,0.0120,0.0117,0.0026
1176,0.0053,0.0130,0.0126,0.0027
1177,0.0050,0.0146,0.0157,0.0027
1178,0.0054,0.0167,0.0184,0.0024
1179,0.0048,0.0154,0.0143,0.0034
1180,0.0058,0.0175,0.0192,0.0025
1181,0.0061,0.0229,0.0245,0.0026
1182,0.0062,0.0239,0.0245,0.0029
1183,0.0064,0.0278,0.0288,0.0031
1184,0.0077,0.0116,0.0114,0.0025
1185,0.0041,0.0209,0.0202,0.0133
1186,0.0031,0.0191,0.0179,0.0146
1187,0.0042,0.0188,0.0178,0.0152
1188,0.0054,0.0195,0.0183,0.0151
1189,0.0058,0.0211,0.0201,0.0140
1190,0.0048,0.0154,0.0143,0.0034
1191,0.0053,0.0228,0.0223,0.0122
1192,0.0051,0.0183,0.0185,0.0095
1193,0.0084,0.0178,0.0172,0.0065
1194,0.0086,0.0181,0.0177,0.0062
1195,0.0054,0.0124,0.0128,0.0049
1196,0.0063,0.0120,0.0117,0.0026
1197,0.0067,0.0154,0.0161,0.0026
1198,0.0066,0.0162,0.0162,0.0026
1199,0.0064,0.0148,0.0143,0.0032
1200,0.0088,0.0171,0.0168,0.0049
1201,0.0048,0.0154,0.0143,0.0034
1202,0.0096,0.0167,0.0156,0.0064
1203,0.0094,0.0153,0.0144,0.0067
1204,0.0092,0.0175,0.0178,0.0069
1205,0.0091,0.0201,0.0203,0.0082
1206,0.0074,0.0174,0.0174,0.0075
1207,0.0061,0.0281,0.0310,0.0110
1208,0.0053,0.0130,0.0126,0.0027
1209,0.0049,0.0123,0.0122,0.0033
1210,0.0049,0.0123,0.0122,0.0033
1211,0.0049,0.0123,0.0122,0.0033
1212,0.0048,0.0154,0.0143,0.0034
1213,0.0049,0.0123,0.0122,0.0033
1214,0.0049,0.0123,0.0122,0.0033
1215,0.0049,0.0123,0.0122,0.0033
1216,0.0049,0.0123,0.0122,0.0033
1217,0.0049,0.0123,0.0122,0.0033
1218,0.0049,0.0123,0.0122,0.0033
1219,0.0049,0.0123,0.0122,0.0033
1220,0.0050,0.0146,0.0157,0.0027
1221,0.0049,0.0123,0.0122,0.0033
1222,0.0049,0.0123,0.0122,0.0033
1223,0.0050,0.0128,0.0226,0.0057
1224,0.0049,0.0123,0.0122,0.0033
1225,0.0049,0.0123,0.0122,0.0033
1226,0.0049,0.0123,0.0122,0.0033
1227,0.0049,0.0123,0.0122,0.0033
1228,0.0049,0.0123,0.0122,0.0033
1229,0.0049,0.0123,0.0122,0.0033
1230,0.0049,0.0123,0.0122,0.0033
1231,0.0049,0.0123,0.0122,0.0033
1232,0.0054,0.0167,0.0184,0.0024
1233,0.0049,0.0123,0.0122,0.0033
1234,0.0052,0.0138,0.0229,0.0049
1235,0.0049,0.0123,0.0122,0.0033
1236,0.0049,0.0123,0.0122,0.0033
1237,0.0049,0.0123,0.0122,0.0033
1238,0.0049,0.0123,0.0122,0.0033
1239,0.0049,0.0123,0.0122,0.0033
1240,0.0049,0.0123,0.0122,0.0033
1241,0.0049,0.0123,0.0122,0.0033
1242,0.0049,0.0123,0.0122,0.0033
1243,0.0049,0.0123,0.0122,0.0033
1244,0.0058,0.0175,0.0192,0.0025
1245,0.0052,0.0149,0.0235,0.0046
1246,0.0049,0.0123,0.0122,0.0033
1247,0.0049,0.0123,0.0122,0.0033
1248,0.0049,0.0123,0.0122,0.0033
1249,0.0049,0.0123,0.0122,0.0033
1250,0.0049,0.0123,0.0122,0.0033
1251,0.0087,0.0118,0.0166,0.0058
1252,0.0102,0.0132,0.0180,0.0050
1253,0.0104,0.0141,0.0180,0.0047
1254,0.0108,0.0163,0.0196,0.0046
1255,0.0054,0.0167,0.0184,0.0024
1256,0.0054,0.0162,0.0232,0.0045
1257,0.0061,0.0229,0.0245,0.0026
1258,0.0082,0.0157,0.0166,0.0050
1259,0.0068,0.0159,0.0160,0.0052
1260,0.0057,0.0148,0.0146,0.0054
1261,0.0051,0.0150,0.0145,0.0051
1262,0.0044,0.0130,0.0129,0.0044
1263,0.0068,0.0122,0.0124,0.0026
1264,0.0077,0.0116,0.0114,0.0025
1265,0.0063,0.0120,0.0117,0.0026
1266,0.0053,0.0130,0.0126,0.0027
1267,0.0061,0.0204,0.0187,0.0024
1268,0.0050,0.0146,0.0157,0.0027
1269,0.0062,0.0239,0.0245,0.0029
1270,0.0054,0.0167,0.0184,0.0024
1271,0.0058,0.0175,0.0192,0.0025
1272,0.0061,0.0229,0.0245,0.0026
1273,0.0062,0.0239,0.0245,0.0029
1274,0.0064,0.0278,0.0288,0.0031
1275,0.0041,0.0209,0.0202,0.0133
1276,0.0031,0.0191,0.0179,0.0146
1277,0.0042,0.0188,0.0178,0.0152
1278,0.0066,0.0208,0.0200,0.0028
1279,0.0067,0.0249,0.0217,0.0040
1280,0.0068,0.0107,0.0111,0.0031
1281,0.0068,0.0107,0.0111,0.0031
1282,0.0068,0.0107,0.0111,0.0031
1283,0.0091,0.0113,0.0121,0.0024
1284,0.0091,0.0113,0.0121,0.0024
1285,0.0103,0.0109,0.0111,0.0025
1286,0.0087,0.0111,0.0113,0.0024
1287,0.0068,0.0123,0.0126,0.0024
1288,0.0052,0.0132,0.0149,0.0025
1289,0.0053,0.0174,0.0197,0.0024
1290,0.0055,0.0177,0.0217,0.0049
1291,0.0057,0.0203,0.0228,0.0024
1292,0.0061,0.0251,0.0272,0.0025
1293,0.0060,0.0276,0.0292,0.0026
1294,0.0061,0.0310,0.0320,0.0027
1295,0.0103,0.0109,0.0111,0.0025
1296,0.0046,0.0505,0.0469,0.0336
1297,0.0030,0.0425,0.0394,0.0327
1298,0.0037,0.0383,0.0358,0.0307
1299,0.0050,0.0391,0.0373,0.0283
1300,0.0056,0.0397,0.0397,0.0249
1301,0.0059,0.0170,0.0192,0.0051
1302,0.0052,0.0377,0.0394,0.0207
1303,0.0049,0.0276,0.0299,0.0159
1304,0.0085,0.0188,0.0204,0.0114
1305,0.0093,0.0170,0.0182,0.0090
1306,0.0071,0.0114,0.0125,0.0057
1307,0.0087,0.0111,0.0113,0.0024
1308,0.0085,0.0140,0.0150,0.0025
1309,0.0074,0.0144,0.0154,0.0025
1310,0.0067,0.0138,0.0141,0.0030
1311,0.0089,0.0165,0.0170,0.0045
1312,0.0066,0.0170,0.0180,0.0053
1313,0.0101,0.0167,0.0164,0.0065
1314,0.0105,0.0137,0.0129,0.0070
1315,0.0107,0.0124,0.0126,0.0060
1316,0.0111,0.0140,0.0151,0.0058
1317,0.0111,0.0153,0.0163,0.0063
1318,0.0097,0.0362,0.0368,0.0150
1319,0.0068,0.0123,0.0126,0.0024
1320,0.0068,0.0107,0.0111,0.0031
1321,0.0068,0.0107,0.0111,0.0031
1322,0.0068,0.0107,0.0111,0.0031
1323,0.0067,0.0178,0.0183,0.0050
1324,0.0068,0.0107,0.0111,0.0031
1325,0.0068,0.0107,0.0111,0.0031
1326,0.0068,0.0107,0.0111,0.0031
1327,0.0068,0.0107,0.0111,0.0031
1328,0.0068,0.0107,0.0111,0.0031
1329,0.0068,0.0107,0.0111,0.0031
1330,0.0068,0.0107,0.0111,0.0031
1331,0.0052,0.0132,0.0149,0.0025
1332,0.0068,0.0107,0.0111,0.0031
1333,0.0068,0.0107,0.0111,0.0031
1334,0.0059,0.0167,0.0168,0.0043
1335,0.0068,0.0107,0.0111,0.0031
1336,0.0068,0.0107,0.0111,0.0031
1337,0.0068,0.0107,0.0111,0.0031
1338,0.0068,0.0107,0.0111,0.0031
1339,0.0068,0.0107,0.0111,0.0031
1340,0.0068,0.0107,0.0111,0.0031
1341,0.0068,0.0107,0.0111,0.0031
1342,0.0068,0.0107,0.0111,0.0031
1343,0.0053,0.0174,0.0197,0.0024
1344,0.0068,0.0107,0.0111,0.0031
1345,0.0054,0.0168,0.0153,0.0030
1346,0.0068,0.0107,0.0111,0.0031
1347,0.0068,0.0107,0.0111,0.0031
1348,0.0068,0.0107,0.0111,0.0031
1349,0.0068,0.0107,0.0111,0.0031
1350,0.0068,0.0107,0.0111,0.0031
1351,0.0068,0.0107,0.0111,0.0031
1352,0.0068,0.0107,0.0111,0.0031
1353,0.0068,0.0107,0.0111,0.0031
1354,0.0068,0.0107,0.0111,0.0031
1355,0.0057,0.0203,0.0228,0.0024
1356,0.0060,0.0171,0.0153,0.0032
1357,0.0068,0.0107,0.0111,0.0031
1358,0.0068,0.0107,0.0111,0.0031
1359,0.0068,0.0107,0.0111,0.0031
1360,0.0068,0.0107,0.0111,0.0031
1361,0.0068,0.0107,0.0111,0.0031
1362,0.0120,0.0108,0.0139,0.0059
1363,0.0141,0.0128,0.0151,0.0050
1364,0.0141,0.0128,0.0145,0.0047
1365,0.0145,0.0149,0.0160,0.0045
1366,0.0053,0.0174,0.0197,0.0024
1367,0.0064,0.0198,0.0178,0.0036
1368,0.0061,0.0251,0.0272,0.0025
1369,0.0117,0.0144,0.0138,0.0049
1370,0.0099,0.0141,0.0134,0.0051
1371,0.0079,0.0123,0.0116,0.0053
1372,0.0068,0.0119,0.0113,0.0050
1373,0.0061,0.0111,0.0112,0.0042
1374,0.0091,0.0113,0.0121,0.0024
1375,0.0103,0.0109,0.0111,0.0025
1376,0.0087,0.0111,0.0113,0.0024
1377,0.0068,0.0123,0.0126,0.0024
1378,0.0072,0.0205,0.0193,0.0035
1379,0.0052,0.0132,0.0149,0.0025
1380,0.0060,0.0276,0.0292,0.0026
1381,0.0053,0.0174,0.0197,0.0024
1382,0.0057,0.0203,0.0228,0.0024
1383,0.0061,0.0251,0.0272,0.0025
1384,0.0060,0.0276,0.0292,0.0026
1385,0.0061,0.0310,0.0320,0.0027
1386,0.0046,0.0505,0.0469,0.0336
1387,0.0030,0.0425,0.0394,0.0327
1388,0.0037,0.0383,0.0358,0.0307
1389,0.0061,0.0204,0.0187,0.0024
1390,0.0066,0.0208,0.0200,0.0028
1391,0.0080,0.0105,0.0110,0.0030
1392,0.0080,0.0105,0.0110,0.0030
1393,0.0080,0.0105,0.0110,0.0030
1394,0.0106,0.0119,0.0125,0.0023
1395,0.0106,0.0119,0.0125,0.0023
1396,0.0113,0.0104,0.0109,0.0026
1397,0.0099,0.0105,0.0110,0.0024
1398,0.0076,0.0120,0.0124,0.0024
1399,0.0059,0.0122,0.0138,0.0024
1400,0.0053,0.0201,0.0225,0.0024
1401,0.0072,0.0258,0.0218,0.0049
1402,0.0057,0.0216,0.0242,0.0024
1403,0.0060,0.0274,0.0295,0.0024
1404,0.0060,0.0302,0.0314,0.0025
1405,0.0060,0.0334,0.0347,0.0026
1406,0.0113,0.0104,0.0109,0.0026
1407,0.0051,0.0657,0.0606,0.0432
1408,0.0034,0.0564,0.0526,0.0412
1409,0.0038,0.0522,0.0490,0.0383
1410,0.0050,0.0505,0.0493,0.0347
1411,0.0057,0.0504,0.0511,0.0302
1412,0.0061,0.0204,0.0187,0.0024
1413,0.0053,0.0456,0.0481,0.0248
1414,0.0048,0.0343,0.0379,0.0191
1415,0.0085,0.0218,0.0250,0.0137
1416,0.0099,0.0172,0.0191,0.0100
1417,0.0077,0.0117,0.0138,0.0061
1418,0.0099,0.0105,0.0110,0.0024
1419,0.0090,0.0125,0.0140,0.0025
1420,0.0081,0.0143,0.0153,0.0025
1421,0.0069,0.0135,0.0142,0.0029
1422,0.0088,0.0169,0.0177,0.0046
1423,0.0061,0.0217,0.0194,0.0030
1424,0.0100,0.0169,0.0168,0.0066
1425,0.0104,0.0141,0.0133,0.0073
1426,0.0108,0.0120,0.0120,0.0066
1427,0.0113,0.0132,0.0142,0.0059
1428,0.0118,0.0162,0.0169,0.0071
1429,0.0116,0.0409,0.0403,0.0178
1430,0.0076,0.0120,0.0124,0.0024
1431,0.0080,0.0105,0.0110,0.0030
1432,0.0080,0.0105,0.0110,0.0030
1433,0.0080,0.0105,0.0110,0.0030
1434,0.0067,0.0249,0.0217,0.0040
1435,0.0080,0.0105,0.0110,0.0030
1436,0.0080,0.0105,0.0110,0.0030
1437,0.0080,0.0105,0.0110,0.0030
1438,0.0080,0.0105,0.0110,0.0030
1439,0.0080,0.0105,0.0110,0.0030
1440,0.0080,0.0105,0.0110,0.0030
1441,0.0080,0.0105,0.0110,0.0030
1442,0.0059,0.0122,0.0138,0.0024
1443,0.0080,0.0105,0.0110,0.0030
1444,0.0080,0.0105,0.0110,0.0030
1445,0.0072,0.0258,0.0218,0.0049
1446,0.0080,0.0105,0.0110,0.0030
1447,0.0080,0.0105,0.0110,0.0030
1448,0.0080,0.0105,0.0110,0.0030
1449,0.0080,0.0105,0.0110,0.0030
1450,0.0080,0.0105,0.0110,0.0030
1451,0.0080,0.0105,0.0110,0.0030
1452,0.0080,0.0105,0.0110,0.0030
1453,0.0080,0.0105,0.0110,0.0030
1454,0.0053,0.0201,0.0225,0.0024
1455,0.0080,0.0105,0.0110,0.0030
1456,0.0081,0.0279,0.0243,0.0059
1457,0.0080,0.0105,0.0110,0.0030
1458,0.0080,0.0105,0.0110,0.0030
1459,0.0080,0.0105,0.0110,0.0030
1460,0.0080,0.0105,0.0110,0.0030
1461,0.0080,0.0105,0.0110,0.0030
1462,0.0080,0.0105,0.0110,0.0030
1463,0.0080,0.0105,0.0110,0.0030
1464,0.0080,0.0105,0.0110,0.0030
1465,0.0080,0.0105,0.0110,0.0030
1466,0.0057,0.0216,0.0242,0.0024
1467,0.0056,0.0713,0.0606,0.0423
1468,0.0080,0.0105,0.0110,0.0030
1469,0.0080,0.0105,0.0110,0.0030
1470,0.0080,0.0105,0.0110,0.0030
1471,0.0080,0.0105,0.0110,0.0030
1472,0.0080,0.0105,0.0110,0.0030
1473,0.0136,0.0108,0.0140,0.0059
1474,0.0150,0.0117,0.0139,0.0050
1475,0.0155,0.0121,0.0134,0.0047
1476,0.0158,0.0137,0.0141,0.0045
1477,0.0053,0.0201,0.0225,0.0024
1478,0.0055,0.0676,0.0623,0.0353
1479,0.0060,0.0274,0.0295,0.0024
1480,0.0132,0.0136,0.0128,0.0049
1481,0.0118,0.0146,0.0135,0.0050
1482,0.0098,0.0133,0.0119,0.0052
1483,0.0085,0.0126,0.0116,0.0049
1484,0.0073,0.0110,0.0113,0.0041
1485,0.0106,0.0119,0.0125,0.0023
1486,0.0113,0.0104,0.0109,0.0026
1487,0.0099,0.0105,0.0110,0.0024
1488,0.0076,0.0120,0.0124,0.0024
1489,0.0062,0.0625,0.0619,0.0301
1490,0.0059,0.0122,0.0138,0.0024
1491,0.0060,0.0302,0.0314,0.0025
1492,0.0053,0.0201,0.0225,0.0024
1493,0.0057,0.0216,0.0242,0.0024
1494,0.0060,0.0274,0.0295,0.0024
1495,0.0060,0.0302,0.0314,0.0025
1496,0.0060,0.0334,0.0347,0.0026
1497,0.0051,0.0657,0.0606,0.0432
1498,0.0034,0.0564,0.0526,0.0412
1499,0.0038,0.0522,0.0490,0.0383
1500,0.0112,0.0161,0.0151,0.0042
1501,0.0112,0.0161,0.0151,0.0042
1502,0.0143,0.0234,0.0204,0.0042
1503,0.0090,0.0310,0.0366,0.0426
1504,0.0073,0.0090,0.0088,0.0033
1505,0.0071,0.0121,0.0128,0.0034
1506,0.0073,0.0090,0.0088,0.0033
1507,0.0073,0.0176,0.0191,0.0030
1508,0.0086,0.0074,0.0067,0.0032
1509,0.0073,0.0090,0.0088,0.0033
1510,0.0073,0.0090,0.0088,0.0033
1511,0.0071,0.0121,0.0128,0.0034
1512,0.0073,0.0090,0.0088,0.0033
1513,0.0086,0.0074,0.0067,0.0032
1514,0.0074,0.0331,0.0416,0.0383
1515,0.0071,0.0121,0.0128,0.0034
1516,0.0073,0.0090,0.0088,0.0033
1517,0.0073,0.0090,0.0088,0.0033
1518,0.0071,0.0121,0.0128,0.0034
1519,0.0075,0.0201,0.0221,0.0029
1520,0.0073,0.0090,0.0088,0.0033
1521,0.0071,0.0121,0.0128,0.0034
1522,0.0073,0.0090,0.0088,0.0033
1523,0.0073,0.0090,0.0088,0.0033
1524,0.0086,0.0074,0.0067,0.0032
1525,0.0081,0.0350,0.0458,0.0361
1526,0.0106,0.0096,0.0132,0.0063
1527,0.0122,0.0091,0.0114,0.0054
1528,0.0116,0.0129,0.0155,0.0051
1529,0.0137,0.0101,0.0101,0.0047
1530,0.0071,0.0181,0.0204,0.0028
1531,0.0090,0.0275,0.0283,0.0032
1532,0.0120,0.0107,0.0097,0.0049
1533,0.0110,0.0110,0.0093,0.0051
1534,0.0094,0.0139,0.0137,0.0052
1535,0.0089,0.0083,0.0073,0.0048
1536,0.0102,0.0368,0.0485,0.0352
1537,0.0072,0.0095,0.0090,0.0041
1538,0.0084,0.0131,0.0139,0.0031
1539,0.0101,0.0092,0.0087,0.0032
1540,0.0093,0.0124,0.0109,0.0030
1541,0.0094,0.0139,0.0131,0.0028
1542,0.0074,0.0112,0.0115,0.0030
1543,0.0082,0.0279,0.0280,0.0032
1544,0.0084,0.0204,0.0218,0.0031
1545,0.0077,0.0197,0.0212,0.0030
1546,0.0079,0.0247,0.0259,0.0030
1547,0.0122,0.0395,0.0509,0.0357
1548,0.0089,0.0313,0.0309,0.0034
1549,0.0082,0.0334,0.0329,0.0035
1550,0.0054,0.0652,0.0606,0.0435
1551,0.0043,0.0570,0.0532,0.0408
1552,0.0042,0.0554,0.0517,0.0417
1553,0.0071,0.0221,0.0419,0.0340
1554,0.0044,0.0242,0.0390,0.0392
1555,0.0053,0.0308,0.0399,0.0425
1556,0.0078,0.0399,0.0446,0.0432
1557,0.0103,0.0488,0.0517,0.0433
1558,0.0107,0.0150,0.0144,0.0042
1559,0.0048,0.0141,0.0117,0.0034
1560,0.0048,0.0141,0.0117,0.0034
1561,0.0048,0.0155,0.0143,0.0034
1562,0.0063,0.0155,0.0128,0.0030
1563,0.0078,0.0159,0.0131,0.0031
1564,0.0060,0.0172,0.0153,0.0033
1565,0.0061,0.0189,0.0160,0.0034
1566,0.0065,0.0194,0.0175,0.0033
1567,0.0066,0.0209,0.0201,0.0028
1568,0.0055,0.0222,0.0198,0.0023
1569,0.0107,0.0150,0.0144,0.0042
1570,0.0056,0.0218,0.0186,0.0031
1571,0.0066,0.0252,0.0220,0.0040
1572,0.0074,0.0260,0.0211,0.0052
1573,0.0085,0.0294,0.0245,0.0063
1574,0.0089,0.0173,0.0148,0.0034
1575,0.0062,0.0733,0.0625,0.0437
1576,0.0062,0.0699,0.0641,0.0374
1577,0.0063,0.0625,0.0618,0.0301
1578,0.0072,0.0570,0.0580,0.0280
1579,0.0071,0.0498,0.0534,0.0262
1580,0.0107,0.0150,0.0144,0.0042
1581,0.0057,0.0365,0.0403,0.0175
1582,0.0054,0.0319,0.0355,0.0148
1583,0.0078,0.0297,0.0316,0.0099
1584,0.0076,0.0274,0.0288,0.0062
1585,0.0055,0.0168,0.0170,0.0038
1586,0.0061,0.0189,0.0160,0.0034
1587,0.0058,0.0192,0.0190,0.0030
1588,0.0067,0.0189,0.0171,0.0028
1589,0.0056,0.0193,0.0179,0.0045
1590,0.0064,0.0252,0.0259,0.0088
1591,0.0101,0.0136,0.0113,0.0041
1592,0.0064,0.0240,0.0227,0.0099
1593,0.0065,0.0254,0.0241,0.0114
1594,0.0068,0.0308,0.0312,0.0103
1595,0.0101,0.0327,0.0304,0.0153
1596,0.0169,0.0334,0.0297,0.0199
1597,0.0235,0.0302,0.0297,0.0158
1598,0.0065,0.0194,0.0175,0.0033
1599,0.0048,0.0141,0.0117,0.0034
1600,0.0048,0.0155,0.0143,0.0034
1601,0.0061,0.0143,0.0114,0.0034
1602,0.0092,0.0129,0.0099,0.0041
1603,0.0048,0.0141,0.0117,0.0034
1604,0.0048,0.0155,0.0143,0.0034
1605,0.0048,0.0141,0.0117,0.0034
1606,0.0048,0.0141,0.0117,0.0034
1607,0.0061,0.0143,0.0114,0.0034
1608,0.0048,0.0141,0.0117,0.0034
1609,0.0048,0.0141,0.0117,0.0034
1610,0.0066,0.0209,0.0201,0.0028
1611,0.0048,0.0141,0.0117,0.0034
1612,0.0061,0.0143,0.0114,0.0034
1613,0.0143,0.0253,0.0204,0.0050
1614,0.0123,0.0159,0.0118,0.0042
1615,0.0048,0.0155,0.0143,0.0034
1616,0.0048,0.0141,0.0117,0.0034
1617,0.0048,0.0141,0.0117,0.0034
1618,0.0048,0.0155,0.0143,0.0034
1619,0.0061,0.0143,0.0114,0.0034
1620,0.0048,0.0141,0.0117,0.0034
1621,0.0048,0.0155,0.0143,0.0034
1622,0.0048,0.0141,0.0117,0.0034
1623,0.0054,0.0202,0.0173,0.0024
1624,0.0061,0.0143,0.0114,0.0034
1625,0.0152,0.0207,0.0159,0.0046
1626,0.0048,0.0141,0.0117,0.0034
1627,0.0048,0.0141,0.0117,0.0034
1628,0.0048,0.0155,0.0143,0.0034
1629,0.0048,0.0141,0.0117,0.0034
1630,0.0061,0.0143,0.0114,0.0034
1631,0.0048,0.0155,0.0143,0.0034
1632,0.0048,0.0141,0.0117,0.0034
1633,0.0048,0.0141,0.0117,0.0034
1634,0.0048,0.0155,0.0143,0.0034
1635,0.0060,0.0235,0.0203,0.0032
1636,0.0164,0.0194,0.0165,0.0047
1637,0.0048,0.0141,0.0117,0.0034
1638,0.0048,0.0155,0.0143,0.0034
1639,0.0048,0.0141,0.0117,0.0034
1640,0.0048,0.0141,0.0117,0.0034
1641,0.0061,0.0143,0.0114,0.0034
1642,0.0054,0.0108,0.0212,0.0055
1643,0.0060,0.0122,0.0217,0.0048
1644,0.0052,0.0149,0.0235,0.0046
1645,0.0066,0.0145,0.0216,0.0044
1646,0.0055,0.0222,0.0198,0.0023
1647,0.0152,0.0187,0.0177,0.0042
1648,0.0066,0.0252,0.0220,0.0040
1649,0.0060,0.0165,0.0201,0.0049
1650,0.0059,0.0152,0.0168,0.0052
1651,0.0066,0.0170,0.0181,0.0053
1652,0.0061,0.0157,0.0156,0.0051
1653,0.0054,0.0156,0.0144,0.0044
1654,0.0054,0.0167,0.0152,0.0030
1655,0.0071,0.0168,0.0143,0.0033
1656,0.0061,0.0189,0.0160,0.0034
1657,0.0065,0.0204,0.0186,0.0032
1658,0.0136,0.0197,0.0184,0.0037
1659,0.0060,0.0194,0.0180,0.0026
1660,0.0074,0.0260,0.0211,0.0052
1661,0.0061,0.0206,0.0189,0.0024
1662,0.0056,0.0218,0.0186,0.0031
1663,0.0070,0.0273,0.0226,0.0044
1664,0.0072,0.0260,0.0220,0.0049
1665,0.0085,0.0294,0.0245,0.0063
1666,0.0062,0.0733,0.0625,0.0437
1667,0.0055,0.0677,0.0623,0.0353
1668,0.0079,0.0686,0.0672,0.0354
1669,0.0143,0.0207,0.0187,0.0041
1670,0.0057,0.0286,0.0340,0.0400
1671,0.0053,0.0303,0.0393,0.0362
1672,0.0072,0.0314,0.0430,0.0342
1673,0.0099,0.0323,0.0447,0.0333
1674,0.0129,0.0331,0.0451,0.0334
1675,0.0043,0.0128,0.0108,0.0035
1676,0.0043,0.0128,0.0108,0.0035
1677,0.0041,0.0143,0.0136,0.0035
1678,0.0062,0.0132,0.0110,0.0029
1679,0.0080,0.0133,0.0109,0.0029
1680,0.0143,0.0227,0.0191,0.0047
1681,0.0055,0.0140,0.0126,0.0029
1682,0.0056,0.0148,0.0117,0.0030
1683,0.0055,0.0168,0.0155,0.0031
1684,0.0060,0.0180,0.0175,0.0028
1685,0.0054,0.0197,0.0185,0.0023
1686,0.0055,0.0192,0.0169,0.0028
1687,0.0065,0.0228,0.0210,0.0034
1688,0.0069,0.0233,0.0202,0.0044
1689,0.0077,0.0268,0.0239,0.0052
1690,0.0092,0.0139,0.0116,0.0031
1691,0.0141,0.0247,0.0202,0.0055
1692,0.0053,0.0495,0.0418,0.0289
1693,0.0051,0.0494,0.0454,0.0251
1694,0.0054,0.0440,0.0438,0.0191
1695,0.0065,0.0413,0.0418,0.0199
1696,0.0066,0.0378,0.0402,0.0203
1697,0.0055,0.0255,0.0272,0.0118
1698,0.0053,0.0246,0.0270,0.0110
1699,0.0081,0.0257,0.0268,0.0072
1700,0.0077,0.0241,0.0244,0.0050
1701,0.0055,0.0153,0.0157,0.0041
1702,0.0139,0.0289,0.0240,0.0063
1703,0.0056,0.0148,0.0117,0.0030
1704,0.0056,0.0178,0.0182,0.0029
1705,0.0067,0.0168,0.0152,0.0028
1706,0.0057,0.0170,0.0158,0.0040
1707,0.0063,0.0238,0.0252,0.0083
1708,0.0061,0.0221,0.0209,0.0097
1709,0.0052,0.0224,0.0207,0.0110
1710,0.0053,0.0262,0.0267,0.0090
1711,0.0061,0.0274,0.0253,0.0136
1712,0.0108,0.0289,0.0265,0.0181
1713,0.0108,0.0146,0.0102,0.0042
1714,0.0166,0.0278,0.0294,0.0129
1715,0.0055,0.0168,0.0155,0.0031
1716,0.0043,0.0128,0.0108,0.0035
1717,0.0041,0.0143,0.0136,0.0035
1718,0.0059,0.0131,0.0108,0.0035
1719,0.0043,0.0128,0.0108,0.0035
1720,0.0041,0.0143,0.0136,0.0035
1721,0.0043,0.0128,0.0108,0.0035
1722,0.0043,0.0128,0.0108,0.0035
1723,0.0059,0.0131,0.0108,0.0035
1724,0.0143,0.0269,0.0211,0.0060
1725,0.0082,0.0499,0.0425,0.0306
1726,0.0043,0.0128,0.0108,0.0035
1727,0.0043,0.0128,0.0108,0.0035
1728,0.0060,0.0180,0.0175,0.0028
1729,0.0043,0.0128,0.0108,0.0035
1730,0.0059,0.0131,0.0108,0.0035
1731,0.0041,0.0143,0.0136,0.0035
1732,0.0043,0.0128,0.0108,0.0035
1733,0.0043,0.0128,0.0108,0.0035
1734,0.0041,0.0143,0.0136,0.0035
1735,0.0059,0.0131,0.0108,0.0035
1736,0.0069,0.0498,0.0457,0.0267
1737,0.0043,0.0128,0.0108,0.0035
1738,0.0041,0.0143,0.0136,0.0035
1739,0.0043,0.0128,0.0108,0.0035
1740,0.0052,0.0176,0.0158,0.0023
1741,0.0059,0.0131,0.0108,0.0035
1742,0.0043,0.0128,0.0108,0.0035
1743,0.0043,0.0128,0.0108,0.0035
1744,0.0041,0.0143,0.0136,0.0035
1745,0.0043,0.0128,0.0108,0.0035
1746,0.0059,0.0131,0.0108,0.0035
1747,0.0068,0.0471,0.0458,0.0237
1748,0.0041,0.0143,0.0136,0.0035
1749,0.0043,0.0128,0.0108,0.0035
1750,0.0043,0.0128,0.0108,0.0035
1751,0.0041,0.0143,0.0136,0.0035
1752,0.0059,0.0212,0.0191,0.0029
1753,0.0043,0.0128,0.0108,0.0035
1754,0.0041,0.0143,0.0136,0.0035
1755,0.0043,0.0128,0.0108,0.0035
1756,0.0043,0.0128,0.0108,0.0035
1757,0.0059,0.0131,0.0108,0.0035
1758,0.0073,0.0427,0.0428,0.0210
1759,0.0052,0.0099,0.0172,0.0059
1760,0.0064,0.0113,0.0189,0.0051
1761,0.0053,0.0136,0.0198,0.0048
1762,0.0069,0.0126,0.0172,0.0046
1763,0.0054,0.0197,0.0185,0.0023
1764,0.0065,0.0228,0.0210,0.0034
1765,0.0059,0.0145,0.0168,0.0050
1766,0.0053,0.0136,0.0142,0.0053
1767,0.0055,0.0161,0.0167,0.0054
1768,0.0053,0.0135,0.0131,0.0052
1769,0.0080,0.0415,0.0426,0.0217
1770,0.0047,0.0132,0.0114,0.0045
1771,0.0051,0.0148,0.0140,0.0029
1772,0.0071,0.0134,0.0112,0.0030
1773,0.0056,0.0148,0.0117,0.0030
1774,0.0059,0.0180,0.0167,0.0030
1775,0.0054,0.0163,0.0148,0.0026
1776,0.0069,0.0233,0.0202,0.0044
1777,0.0060,0.0185,0.0179,0.0024
1778,0.0055,0.0192,0.0169,0.0028
1779,0.0066,0.0244,0.0213,0.0038
1780,0.0080,0.0305,0.0321,0.0152
1781,0.0067,0.0236,0.0212,0.0041
1782,0.0077,0.0268,0.0239,0.0052
1783,0.0053,0.0495,0.0418,0.0289
1784,0.0045,0.0471,0.0435,0.0223
1785,0.0070,0.0512,0.0502,0.0262
1786,0.0056,0.0212,0.0254,0.0301
1787,0.0047,0.0225,0.0286,0.0270
1788,0.0065,0.0240,0.0315,0.0254
1789,0.0093,0.0254,0.0330,0.0249
1790,0.0124,0.0274,0.0339,0.0251
1791,0.0086,0.0280,0.0303,0.0121
1792,0.0050,0.0101,0.0090,0.0033
1793,0.0050,0.0101,0.0090,0.0033
1794,0.0042,0.0123,0.0121,0.0033
1795,0.0075,0.0106,0.0098,0.0026
1796,0.0094,0.0105,0.0097,0.0026
1797,0.0067,0.0118,0.0119,0.0026
1798,0.0067,0.0111,0.0093,0.0025
1799,0.0055,0.0114,0.0097,0.0024
1800,0.0050,0.0151,0.0159,0.0026
1801,0.0053,0.0166,0.0176,0.0022
1802,0.0093,0.0269,0.0295,0.0087
1803,0.0054,0.0159,0.0164,0.0025
1804,0.0063,0.0223,0.0230,0.0027
1805,0.0062,0.0216,0.0213,0.0032
1806,0.0065,0.0273,0.0267,0.0035
1807,0.0111,0.0113,0.0105,0.0027
1808,0.0043,0.0209,0.0208,0.0157
1809,0.0032,0.0201,0.0184,0.0173
1810,0.0040,0.0185,0.0177,0.0146
1811,0.0052,0.0211,0.0194,0.0177
1812,0.0057,0.0267,0.0268,0.0191
1813,0.0106,0.0241,0.0255,0.0058
1814,0.0052,0.0222,0.0219,0.0120
1815,0.0049,0.0160,0.0173,0.0106
1816,0.0087,0.0157,0.0148,0.0067
1817,0.0084,0.0188,0.0184,0.0059
1818,0.0065,0.0124,0.0138,0.0052
1819,0.0067,0.0111,0.0093,0.0025
1820,0.0059,0.0156,0.0165,0.0026
1821,0.0071,0.0134,0.0126,0.0027
1822,0.0061,0.0140,0.0142,0.0036
1823,0.0072,0.0223,0.0252,0.0077
1824,0.0141,0.0235,0.0239,0.0053
1825,0.0082,0.0195,0.0193,0.0088
1826,0.0082,0.0179,0.0165,0.0101
1827,0.0092,0.0177,0.0187,0.0068
1828,0.0082,0.0174,0.0163,0.0107
1829,0.0063,0.0253,0.0245,0.0166
1830,0.0062,0.0305,0.0323,0.0127
1831,0.0055,0.0114,0.0097,0.0024
1832,0.0050,0.0101,0.0090,0.0033
1833,0.0042,0.0123,0.0121,0.0033
1834,0.0069,0.0103,0.0089,0.0033
1835,0.0142,0.0307,0.0248,0.0070
1836,0.0152,0.0207,0.0159,0.0046
1837,0.0050,0.0101,0.0090,0.0033
1838,0.0042,0.0123,0.0121,0.0033
1839,0.0050,0.0101,0.0090,0.0033
1840,0.0050,0.0101,0.0090,0.0033
1841,0.0069,0.0103,0.0089,0.0033
1842,0.0050,0.0101,0.0090,0.0033
1843,0.0050,0.0101,0.0090,0.0033
1844,0.0050,0.0151,0.0159,0.0026
1845,0.0050,0.0101,0.0090,0.0033
1846,0.0069,0.0103,0.0089,0.0033
1847,0.0070,0.0284,0.0321,0.0051
1848,0.0042,0.0123,0.0121,0.0033
1849,0.0050,0.0101,0.0090,0.0033
1850,0.0050,0.0101,0.0090,0.0033
1851,0.0042,0.0123,0.0121,0.0033
1852,0.0069,0.0103,0.0089,0.0033
1853,0.0050,0.0101,0.0090,0.0033
1854,0.0042,0.0123,0.0121,0.0033
1855,0.0050,0.0101,0.0090,0.0033
1856,0.0049,0.0148,0.0153,0.0023
1857,0.0069,0.0103,0.0089,0.0033
1858,0.0085,0.0349,0.0384,0.0051
1859,0.0050,0.0101,0.0090,0.0033
1860,0.0050,0.0101,0.0090,0.0033
1861,0.0042,0.0123,0.0121,0.0033
1862,0.0050,0.0101,0.0090,0.0033
1863,0.0069,0.0103,0.0089,0.0033
1864,0.0042,0.0123,0.0121,0.0033
1865,0.0050,0.0101,0.0090,0.0033
1866,0.0050,0.0101,0.0090,0.0033
1867,0.0042,0.0123,0.0121,0.0033
1868,0.0057,0.0176,0.0183,0.0025
1869,0.0083,0.0325,0.0346,0.0062
1870,0.0050,0.0101,0.0090,0.0033
1871,0.0042,0.0123,0.0121,0.0033
1872,0.0050,0.0101,0.0090,0.0033
1873,0.0050,0.0101,0.0090,0.0033
1874,0.0069,0.0103,0.0089,0.0033
1875,0.0076,0.0083,0.0112,0.0063
1876,0.0091,0.0088,0.0119,0.0054
1877,0.0078,0.0118,0.0147,0.0051
1878,0.0103,0.0115,0.0135,0.0047
1879,0.0053,0.0166,0.0176,0.0022
1880,0.0088,0.0264,0.0267,0.0096
1881,0.0063,0.0223,0.0230,0.0027
1882,0.0080,0.0113,0.0109,0.0051
1883,0.0066,0.0110,0.0098,0.0054
1884,0.0050,0.0129,0.0127,0.0055
1885,0.0056,0.0106,0.0100,0.0052
1886,0.0042,0.0105,0.0090,0.0044
1887,0.0059,0.0127,0.0131,0.0026
1888,0.0088,0.0108,0.0101,0.0026
1889,0.0067,0.0111,0.0093,0.0025
1890,0.0070,0.0131,0.0115,0.0023
1891,0.0083,0.0324,0.0347,0.0100
1892,0.0047,0.0128,0.0128,0.0025
1893,0.0062,0.0216,0.0213,0.0032
1894,0.0056,0.0160,0.0172,0.0024
1895,0.0054,0.0159,0.0164,0.0025
1896,0.0061,0.0221,0.0226,0.0029
1897,0.0063,0.0236,0.0234,0.0030
1898,0.0065,0.0273,0.0267,0.0035
1899,0.0043,0.0209,0.0208,0.0157
1900,0.0030,0.0189,0.0178,0.0140
1901,0.0053,0.0279,0.0261,0.0220
1902,0.0113,0.0381,0.0404,0.0106
1903,0.0060,0.0128,0.0232,0.0196
1904,0.0039,0.0140,0.0204,0.0222
1905,0.0057,0.0186,0.0213,0.0241
1906,0.0086,0.0247,0.0252,0.0250
1907,0.0114,0.0313,0.0303,0.0249
1908,0.0070,0.0084,0.0080,0.0030
1909,0.0070,0.0084,0.0080,0.0030
1910,0.0059,0.0108,0.0113,0.0031
1911,0.0096,0.0093,0.0092,0.0023
1912,0.0115,0.0090,0.0088,0.0023
1913,0.0150,0.0491,0.0506,0.0129
1914,0.0091,0.0111,0.0116,0.0025
1915,0.0094,0.0104,0.0094,0.0024
1916,0.0075,0.0103,0.0097,0.0022
1917,0.0049,0.0134,0.0147,0.0024
1918,0.0056,0.0152,0.0174,0.0022
1919,0.0053,0.0178,0.0194,0.0024
1920,0.0063,0.0245,0.0255,0.0025
1921,0.0059,0.0250,0.0258,0.0027
1922,0.0061,0.0288,0.0284,0.0029
1923,0.0136,0.0106,0.0103,0.0027
1924,0.0173,0.0553,0.0546,0.0163
1925,0.0046,0.0477,0.0454,0.0337
1926,0.0028,0.0404,0.0378,0.0332
1927,0.0037,0.0374,0.0354,0.0302
1928,0.0047,0.0380,0.0362,0.0294
1929,0.0052,0.0407,0.0413,0.0276
1930,0.0053,0.0365,0.0385,0.0206
1931,0.0044,0.0247,0.0277,0.0165
1932,0.0088,0.0140,0.0156,0.0113
1933,0.0090,0.0173,0.0182,0.0086
1934,0.0085,0.0111,0.0135,0.0059
1935,0.0202,0.0459,0.0415,0.0183
1936,0.0094,0.0104,0.0094,0.0024
1937,0.0074,0.0141,0.0153,0.0024
1938,0.0079,0.0118,0.0123,0.0025
1939,0.0064,0.0129,0.0144,0.0034
1940,0.0075,0.0217,0.0257,0.0074
1941,0.0090,0.0191,0.0198,0.0087
1942,0.0098,0.0172,0.0165,0.0104
1943,0.0112,0.0130,0.0138,0.0064
1944,0.0110,0.0129,0.0119,0.0102
1945,0.0100,0.0268,0.0260,0.0174
1946,0.0114,0.0178,0.0133,0.0044
1947,0.0205,0.0445,0.0396,0.0153
1948,0.0092,0.0384,0.0374,0.0171
1949,0.0075,0.0103,0.0097,0.0022
1950,0.0070,0.0084,0.0080,0.0030
1951,0.0059,0.0108,0.0113,0.0031
1952,0.0088,0.0080,0.0077,0.0030
1953,0.0070,0.0084,0.0080,0.0030
1954,0.0059,0.0108,0.0113,0.0031
1955,0.0070,0.0084,0.0080,0.0030
1956,0.0070,0.0084,0.0080,0.0030
1957,0.0088,0.0080,0.0077,0.0030
1958,0.0164,0.0194,0.0165,0.0047
1959,0.0070,0.0084,0.0080,0.0030
1960,0.0070,0.0084,0.0080,0.0030
1961,0.0049,0.0134,0.0147,0.0024
1962,0.0070,0.0084,0.0080,0.0030
1963,0.0088,0.0080,0.0077,0.0030
1964,0.0059,0.0108,0.0113,0.0031
1965,0.0070,0.0084,0.0080,0.0030
1966,0.0070,0.0084,0.0080,0.0030
1967,0.0059,0.0108,0.0113,0.0031
1968,0.0088,0.0080,0.0077,0.0030
1969,0.0107,0.0150,0.0144,0.0042
1970,0.0070,0.0084,0.0080,0.0030
1971,0.0059,0.0108,0.0113,0.0031
1972,0.0070,0.0084,0.0080,0.0030
1973,0.0050,0.0140,0.0155,0.0023
1974,0.0088,0.0080,0.0077,0.0030
1975,0.0070,0.0084,0.0080,0.0030
1976,0.0070,0.0084,0.0080,0.0030
1977,0.0059,0.0108,0.0113,0.0031
1978,0.0070,0.0084,0.0080,0.0030
1979,0.0088,0.0080,0.0077,0.0030
1980,0.0107,0.0150,0.0144,0.0042
1981,0.0059,0.0108,0.0113,0.0031
1982,0.0070,0.0084,0.0080,0.0030
1983,0.0070,0.0084,0.0080,0.0030
1984,0.0059,0.0108,0.0113,0.0031
1985,0.0057,0.0186,0.0205,0.0024
1986,0.0070,0.0084,0.0080,0.0030
1987,0.0059,0.0108,0.0113,0.0031
1988,0.0070,0.0084,0.0080,0.0030
1989,0.0070,0.0084,0.0080,0.0030
1990,0.0088,0.0080,0.0077,0.0030
1991,0.0098,0.0138,0.0123,0.0042
1992,0.0104,0.0085,0.0111,0.0065
1993,0.0127,0.0080,0.0095,0.0055
1994,0.0112,0.0111,0.0132,0.0051
1995,0.0138,0.0099,0.0099,0.0047
1996,0.0056,0.0152,0.0174,0.0022
1997,0.0063,0.0245,0.0255,0.0025
1998,0.0114,0.0100,0.0088,0.0050
1999,0.0096,0.0094,0.0083,0.0052
2000,0.0066,0.0113,0.0119,0.0053
2001,0.0076,0.0073,0.0084,0.0050
2002,0.0107,0.0150,0.0144,0.0042
2003,0.0060,0.0085,0.0081,0.0042
2004,0.0079,0.0119,0.0128,0.0024
2005,0.0112,0.0099,0.0097,0.0026
2006,0.0094,0.0104,0.0094,0.0024
2007,0.0092,0.0125,0.0120,0.0022
2008,0.0053,0.0104,0.0109,0.0023
2009,0.0059,0.0250,0.0258,0.0027
2010,0.0054,0.0162,0.0178,0.0024
2011,0.0053,0.0178,0.0194,0.0024
2012,0.0060,0.0224,0.0237,0.0026
2013,0.0107,0.0150,0.0144,0.0042
2014,0.0062,0.0277,0.0280,0.0026
2015,0.0061,0.0288,0.0284,0.0029
2016,0.0046,0.0477,0.0454,0.0337
2017,0.0030,0.0416,0.0390,0.0319
2018,0.0043,0.0403,0.0379,0.0339
2019,0.0067,0.0199,0.0360,0.0274
2020,0.0041,0.0214,0.0335,0.0328
2021,0.0053,0.0270,0.0342,0.0368
2022,0.0082,0.0358,0.0391,0.0383
2023,0.0109,0.0452,0.0462,0.0382
2024,0.0107,0.0150,0.0144,0.0042
2025,0.0082,0.0079,0.0078,0.0029
2026,0.0082,0.0079,0.0078,0.0029
2027,0.0069,0.0105,0.0111,0.0030
2028,0.0111,0.0100,0.0096,0.0022
2029,0.0129,0.0095,0.0092,0.0022
2030,0.0101,0.0110,0.0116,0.0026
2031,0.0104,0.0096,0.0089,0.0024
2032,0.0082,0.0092,0.0088,0.0022
2033,0.0053,0.0124,0.0137,0.0024
2034,0.0057,0.0180,0.0204,0.0022
2035,0.0107,0.0150,0.0144,0.0042
2036,0.0052,0.0193,0.0211,0.0024
2037,0.0063,0.0265,0.0275,0.0025
2038,0.0059,0.0270,0.0274,0.0025
2039,0.0060,0.0317,0.0316,0.0026
2040,0.0144,0.0097,0.0098,0.0028
2041,0.0049,0.0626,0.0587,0.0429
2042,0.0030,0.0536,0.0504,0.0412
2043,0.0038,0.0511,0.0484,0.0377
2044,0.0046,0.0490,0.0478,0.0354
2045,0.0051,0.0510,0.0522,0.0325
2046,0.0098,0.0138,0.0123,0.0042
2047,0.0054,0.0445,0.0473,0.0246
2048,0.0043,0.0310,0.0353,0.0195
2049,0.0090,0.0162,0.0196,0.0134
2050,0.0096,0.0173,0.0189,0.0096
2051,0.0091,0.0110,0.0145,0.0063
2052,0.0104,0.0096,0.0089,0.0024
2053,0.0079,0.0130,0.0147,0.0024
2054,0.0084,0.0113,0.0124,0.0025
2055,0.0066,0.0127,0.0148,0.0033
2056,0.0074,0.0221,0.0263,0.0073
2057,0.0086,0.0729,0.0624,0.0450
2058,0.0107,0.0150,0.0144,0.0042
2059,0.0091,0.0194,0.0203,0.0089
2060,0.0100,0.0175,0.0166,0.0107
2061,0.0115,0.0127,0.0131,0.0071
2062,0.0114,0.0133,0.0122,0.0108
2063,0.0112,0.0287,0.0273,0.0184
2064,0.0113,0.0431,0.0408,0.0200
2065,0.0082,0.0092,0.0088,0.0022
2066,0.0082,0.0079,0.0078,0.0029
2067,0.0069,0.0105,0.0111,0.0030
2068,0.0099,0.0073,0.0075,0.0028
2069,0.0107,0.0150,0.0144,0.0042
2070,0.0082,0.0079,0.0078,0.0029
2071,0.0069,0.0105,0.0111,0.0030
2072,0.0082,0.0079,0.0078,0.0029
2073,0.0082,0.0079,0.0078,0.0029
2074,0.0099,0.0073,0.0075,0.0028
2075,0.0082,0.0079,0.0078,0.0029
2076,0.0082,0.0079,0.0078,0.0029
2077,0.0053,0.0124,0.0137,0.0024
2078,0.0082,0.0079,0.0078,0.0029
2079,0.0099,0.0073,0.0075,0.0028
2080,0.0152,0.0187,0.0177,0.0042
2081,0.0069,0.0105,0.0111,0.0030
2082,0.0082,0.0079,0.0078,0.0029
2083,0.0082,0.0079,0.0078,0.0029
2084,0.0069,0.0105,0.0111,0.0030
2085,0.0099,0.0073,0.0075,0.0028
2086,0.0082,0.0079,0.0078,0.0029
2087,0.0069,0.0105,0.0111,0.0030
2088,0.0082,0.0079,0.0078,0.0029
2089,0.0050,0.0168,0.0184,0.0023
2090,0.0099,0.0073,0.0075,0.0028
2091,0.0107,0.0150,0.0144,0.0042
2092,0.0082,0.0079,0.0078,0.0029
2093,0.0082,0.0079,0.0078,0.0029
2094,0.0069,0.0105,0.0111,0.0030
2095,0.0082,0.0079,0.0078,0.0029
2096,0.0099,0.0073,0.0075,0.0028
2097,0.0069,0.0105,0.0111,0.0030
2098,0.0082,0.0079,0.0078,0.0029
2099,0.0082,0.0079,0.0078,0.0029
2100,0.0069,0.0105,0.0111,0.0030
2101,0.0057,0.0205,0.0228,0.0024
2102,0.0098,0.0138,0.0123,0.0042
2103,0.0082,0.0079,0.0078,0.0029
2104,0.0069,0.0105,0.0111,0.0030
2105,0.0082,0.0079,0.0078,0.0029
2106,0.0082,0.0079,0.0078,0.0029
2107,0.0099,0.0073,0.0075,0.0028
2108,0.0119,0.0084,0.0120,0.0065
2109,0.0136,0.0076,0.0101,0.0055
2110,0.0125,0.0109,0.0135,0.0051
2111,0.0148,0.0085,0.0087,0.0046
2112,0.0057,0.0180,0.0204,0.0022
2113,0.0107,0.0150,0.0144,0.0042
2114,0.0063,0.0265,0.0275,0.0025
2115,0.0127,0.0090,0.0083,0.0049
2116,0.0113,0.0094,0.0080,0.0051
2117,0.0086,0.0116,0.0114,0.0052
2118,0.0092,0.0075,0.0083,0.0049
2119,0.0072,0.0081,0.0081,0.0041
2120,0.0095,0.0123,0.0131,0.0024
2121,0.0121,0.0095,0.0096,0.0027
2122,0.0104,0.0096,0.0089,0.0024
2123,0.0100,0.0113,0.0109,0.0022
2124,0.0107,0.0150,0.0144,0.0042
2125,0.0062,0.0092,0.0095,0.0023
2126,0.0059,0.0270,0.0274,0.0025
2127,0.0053,0.0189,0.0204,0.0024
2128,0.0052,0.0193,0.0211,0.0024
2129,0.0059,0.0252,0.0268,0.0025
2130,0.0063,0.0294,0.0292,0.0025
2131,0.0060,0.0317,0.0316,0.0026
2132,0.0049,0.0626,0.0587,0.0429
2133,0.0034,0.0552,0.0519,0.0404
2134,0.0040,0.0523,0.0494,0.0406
2135,0.0107,0.0150,0.0144,0.0042
2136,0.0072,0.0251,0.0428,0.0332
2137,0.0043,0.0268,0.0412,0.0388
2138,0.0053,0.0322,0.0416,0.0432
2139,0.0081,0.0423,0.0473,0.0450
2140,0.0108,0.0513,0.0549,0.0449
2141,0.0046,0.0146,0.0121,0.0035
2142,0.0046,0.0146,0.0121,0.0035
2143,0.0048,0.0160,0.0150,0.0035
2144,0.0056,0.0159,0.0135,0.0032
2145,0.0070,0.0162,0.0137,0.0033
2146,0.0107,0.0150,0.0144,0.0042
2147,0.0056,0.0168,0.0152,0.0034
2148,0.0058,0.0179,0.0144,0.0035
2149,0.0064,0.0187,0.0163,0.0034
2150,0.0068,0.0209,0.0201,0.0028
2151,0.0054,0.0223,0.0196,0.0024
2152,0.0057,0.0219,0.0185,0.0032
2153,0.0068,0.0241,0.0207,0.0041
2154,0.0074,0.0251,0.0198,0.0053
2155,0.0084,0.0284,0.0231,0.0063
2156,0.0080,0.0174,0.0152,0.0035
2157,0.0098,0.0138,0.0123,0.0042
2158,0.0063,0.0744,0.0628,0.0443
2159,0.0061,0.0710,0.0645,0.0377
2160,0.0060,0.0635,0.0623,0.0303
2161,0.0068,0.0576,0.0582,0.0277
2162,0.0069,0.0501,0.0534,0.0257
2163,0.0057,0.0373,0.0410,0.0173
2164,0.0053,0.0332,0.0369,0.0147
2165,0.0075,0.0316,0.0337,0.0102
2166,0.0073,0.0298,0.0314,0.0066
2167,0.0052,0.0170,0.0170,0.0036
2168,0.0075,0.0698,0.0642,0.0385
2169,0.0107,0.0150,0.0144,0.0042
2170,0.0058,0.0179,0.0144,0.0035
2171,0.0055,0.0202,0.0203,0.0032
2172,0.0066,0.0201,0.0184,0.0029
2173,0.0054,0.0199,0.0185,0.0043
2174,0.0063,0.0245,0.0250,0.0087
2175,0.0062,0.0239,0.0228,0.0099
2176,0.0065,0.0257,0.0248,0.0115
2177,0.0071,0.0329,0.0341,0.0105
2178,0.0111,0.0341,0.0325,0.0153
2179,0.0185,0.0341,0.0308,0.0201
2180,0.0107,0.0150,0.0144,0.0042
2181,0.0256,0.0319,0.0319,0.0158
2182,0.0064,0.0187,0.0163,0.0034
2183,0.0046,0.0146,0.0121,0.0035
2184,0.0048,0.0160,0.0150,0.0035
2185,0.0056,0.0152,0.0123,0.0035
2186,0.0046,0.0146,0.0121,0.0035
2187,0.0048,0.0160,0.0150,0.0035
2188,0.0046,0.0146,0.0121,0.0035
2189,0.0046,0.0146,0.0121,0.0035
2190,0.0056,0.0152,0.0123,0.0035
2191,0.0107,0.0150,0.0144,0.0042
2192,0.0046,0.0146,0.0121,0.0035
2193,0.0046,0.0146,0.0121,0.0035
2194,0.0068,0.0209,0.0201,0.0028
2195,0.0046,0.0146,0.0121,0.0035
2196,0.0056,0.0152,0.0123,0.0035
2197,0.0048,0.0160,0.0150,0.0035
2198,0.0046,0.0146,0.0121,0.0035
2199,0.0046,0.0146,0.0121,0.0035
2200,0.0048,0.0160,0.0150,0.0035
2201,0.0056,0.0152,0.0123,0.0035
2202,0.0145,0.0196,0.0185,0.0039
2203,0.0046,0.0146,0.0121,0.0035
2204,0.0048,0.0160,0.0150,0.0035
2205,0.0046,0.0146,0.0121,0.0035
2206,0.0054,0.0207,0.0176,0.0024
2207,0.0056,0.0152,0.0123,0.0035
2208,0.0046,0.0146,0.0121,0.0035
2209,0.0046,0.0146,0.0121,0.0035
2210,0.0048,0.0160,0.0150,0.0035
2211,0.0046,0.0146,0.0121,0.0035
2212,0.0056,0.0152,0.0123,0.0035
2213,0.0098,0.0138,0.0123,0.0042
2214,0.0048,0.0160,0.0150,0.0035
2215,0.0046,0.0146,0.0121,0.0035
2216,0.0046,0.0146,0.0121,0.0035
2217,0.0048,0.0160,0.0150,0.0035
2218,0.0059,0.0235,0.0201,0.0032
2219,0.0046,0.0146,0.0121,0.0035
2220,0.0048,0.0160,0.0150,0.0035
2221,0.0046,0.0146,0.0121,0.0035
2222,0.0046,0.0146,0.0121,0.0035
2223,0.0056,0.0152,0.0123,0.0035
2224,0.0107,0.0150,0.0144,0.0042
2225,0.0056,0.0107,0.0191,0.0061
2226,0.0052,0.0113,0.0195,0.0053
2227,0.0050,0.0140,0.0214,0.0049
2228,0.0055,0.0130,0.0192,0.0047
2229,0.0054,0.0223,0.0196,0.0024
2230,0.0068,0.0241,0.0207,0.0041
2231,0.0056,0.0148,0.0175,0.0050
2232,0.0059,0.0142,0.0151,0.0052
2233,0.0070,0.0166,0.0173,0.0053
2234,0.0061,0.0153,0.0148,0.0051
2235,0.0107,0.0150,0.0144,0.0042
2236,0.0055,0.0160,0.0144,0.0044
2237,0.0051,0.0172,0.0160,0.0031
2238,0.0064,0.0166,0.0144,0.0034
2239,0.0058,0.0179,0.0144,0.0035
2240,0.0063,0.0196,0.0173,0.0033
2241,0.0060,0.0197,0.0178,0.0027
2242,0.0074,0.0251,0.0198,0.0053
2243,0.0063,0.0206,0.0185,0.0025
2244,0.0057,0.0219,0.0185,0.0032
2245,0.0069,0.0263,0.0214,0.0044
2246,0.0107,0.0150,0.0144,0.0042
2247,0.0072,0.0252,0.0209,0.0050
2248,0.0084,0.0284,0.0231,0.0063
2249,0.0063,0.0744,0.0628,0.0443
2250,0.0054,0.0688,0.0629,0.0359
2251,0.0077,0.0691,0.0673,0.0353
2252,0.0063,0.0252,0.0352,0.0452
2253,0.0051,0.0284,0.0399,0.0396
2254,0.0069,0.0306,0.0437,0.0358
2255,0.0096,0.0321,0.0456,0.0340
2256,0.0126,0.0331,0.0452,0.0333
2257,0.0107,0.0150,0.0144,0.0042
2258,0.0040,0.0133,0.0112,0.0035
2259,0.0040,0.0133,0.0112,0.0035
2260,0.0041,0.0149,0.0143,0.0035
2261,0.0054,0.0139,0.0120,0.0030
2262,0.0070,0.0141,0.0119,0.0031
2263,0.0049,0.0143,0.0133,0.0030
2264,0.0050,0.0142,0.0110,0.0031
2265,0.0055,0.0165,0.0146,0.0032
2266,0.0062,0.0187,0.0181,0.0028
2267,0.0052,0.0193,0.0178,0.0023
2268,0.0098,0.0138,0.0123,0.0042
2269,0.0056,0.0192,0.0166,0.0029
2270,0.0067,0.0220,0.0198,0.0036
2271,0.0069,0.0223,0.0188,0.0045
2272,0.0076,0.0265,0.0229,0.0053
2273,0.0082,0.0145,0.0127,0.0032
2274,0.0055,0.0506,0.0422,0.0295
2275,0.0050,0.0503,0.0457,0.0253
2276,0.0051,0.0450,0.0444,0.0192
2277,0.0062,0.0419,0.0421,0.0195
2278,0.0065,0.0382,0.0404,0.0199
2279,0.0074,0.0651,0.0635,0.0333
2280,0.0107,0.0150,0.0144,0.0042
2281,0.0054,0.0261,0.0279,0.0115
2282,0.0052,0.0255,0.0279,0.0109
2283,0.0078,0.0273,0.0286,0.0073
2284,0.0075,0.0259,0.0264,0.0052
2285,0.0052,0.0153,0.0155,0.0039
2286,0.0050,0.0142,0.0110,0.0031
2287,0.0052,0.0190,0.0195,0.0030
2288,0.0066,0.0179,0.0165,0.0028
2289,0.0056,0.0172,0.0161,0.0039
2290,0.0061,0.0225,0.0239,0.0082
2291,0.0107,0.0150,0.0144,0.0042
2292,0.0057,0.0216,0.0206,0.0097
2293,0.0048,0.0225,0.0212,0.0111
2294,0.0049,0.0282,0.0296,0.0092
2295,0.0064,0.0291,0.0279,0.0137
2296,0.0120,0.0298,0.0276,0.0185
2297,0.0184,0.0296,0.0311,0.0133
2298,0.0055,0.0165,0.0146,0.0032
2299,0.0040,0.0133,0.0112,0.0035
2300,0.0041,0.0149,0.0143,0.0035
2301,0.0052,0.0139,0.0115,0.0036
2302,0.0107,0.0150,0.0144,0.0042
2303,0.0040,0.0133,0.0112,0.0035
2304,0.0041,0.0149,0.0143,0.0035
2305,0.0040,0.0133,0.0112,0.0035
2306,0.0040,0.0133,0.0112,0.0035
2307,0.0052,0.0139,0.0115,0.0036
2308,0.0040,0.0133,0.0112,0.0035
2309,0.0040,0.0133,0.0112,0.0035
2310,0.0062,0.0187,0.0181,0.0028
2311,0.0040,0.0133,0.0112,0.0035
2312,0.0052,0.0139,0.0115,0.0036
2313,0.0107,0.0150,0.0144,0.0042
2314,0.0041,0.0149,0.0143,0.0035
2315,0.0040,0.0133,0.0112,0.0035
2316,0.0040,0.0133,0.0112,0.0035
2317,0.0041,0.0149,0.0143,0.0035
2318,0.0052,0.0139,0.0115,0.0036
2319,0.0040,0.0133,0.0112,0.0035
2320,0.0041,0.0149,0.0143,0.0035
2321,0.0040,0.0133,0.0112,0.0035
2322,0.0053,0.0181,0.0158,0.0024
2323,0.0052,0.0139,0.0115,0.0036
2324,0.0137,0.0207,0.0184,0.0040
2325,0.0040,0.0133,0.0112,0.0035
2326,0.0040,0.0133,0.0112,0.0035
2327,0.0041,0.0149,0.0143,0.0035
2328,0.0040,0.0133,0.0112,0.0035
2329,0.0052,0.0139,0.0115,0.0036
2330,0.0041,0.0149,0.0143,0.0035
2331,0.0040,0.0133,0.0112,0.0035
2332,0.0040,0.0133,0.0112,0.0035
2333,0.0041,0.0149,0.0143,0.0035
2334,0.0058,0.0206,0.0181,0.0030
2335,0.0107,0.0150,0.0144,0.0042
2336,0.0040,0.0133,0.0112,0.0035
2337,0.0041,0.0149,0.0143,0.0035
2338,0.0040,0.0133,0.0112,0.0035
2339,0.0040,0.0133,0.0112,0.0035
2340,0.0052,0.0139,0.0115,0.0036
2341,0.0046,0.0101,0.0159,0.0065
2342,0.0048,0.0102,0.0167,0.0056
2343,0.0044,0.0127,0.0177,0.0052
2344,0.0053,0.0114,0.0150,0.0049
2345,0.0052,0.0193,0.0178,0.0023
2346,0.0107,0.0150,0.0144,0.0042
2347,0.0067,0.0220,0.0198,0.0036
2348,0.0050,0.0132,0.0147,0.0051
2349,0.0050,0.0126,0.0127,0.0054
2350,0.0059,0.0153,0.0157,0.0054
2351,0.0053,0.0131,0.0122,0.0053
2352,0.0047,0.0136,0.0118,0.0045
2353,0.0046,0.0154,0.0149,0.0030
2354,0.0062,0.0137,0.0120,0.0031
2355,0.0050,0.0142,0.0110,0.0031
2356,0.0056,0.0173,0.0153,0.0031
2357,0.0107,0.0150,0.0144,0.0042
2358,0.0054,0.0165,0.0147,0.0026
2359,0.0069,0.0223,0.0188,0.0045
2360,0.0062,0.0185,0.0175,0.0025
2361,0.0056,0.0192,0.0166,0.0029
2362,0.0066,0.0234,0.0199,0.0039
2363,0.0068,0.0231,0.0202,0.0042
2364,0.0076,0.0265,0.0229,0.0053
2365,0.0055,0.0506,0.0422,0.0295
2366,0.0044,0.0484,0.0442,0.0228
2367,0.0067,0.0516,0.0502,0.0259
2368,0.0107,0.0150,0.0144,0.0042
2369,0.0064,0.0183,0.0265,0.0346
2370,0.0044,0.0204,0.0291,0.0299
2371,0.0061,0.0228,0.0320,0.0269
2372,0.0089,0.0250,0.0337,0.0255
2373,0.0120,0.0273,0.0341,0.0251
2374,0.0042,0.0106,0.0092,0.0033
2375,0.0042,0.0106,0.0092,0.0033
2376,0.0036,0.0127,0.0126,0.0033
2377,0.0065,0.0115,0.0109,0.0026
2378,0.0083,0.0115,0.0108,0.0027
2379,0.0098,0.0138,0.0123,0.0042
2380,0.0058,0.0126,0.0130,0.0026
2381,0.0056,0.0109,0.0093,0.0025
2382,0.0049,0.0115,0.0101,0.0024
2383,0.0052,0.0154,0.0161,0.0026
2384,0.0050,0.0157,0.0160,0.0023
2385,0.0054,0.0153,0.0151,0.0027
2386,0.0066,0.0214,0.0212,0.0029
2387,0.0063,0.0207,0.0195,0.0033
2388,0.0065,0.0270,0.0254,0.0036
2389,0.0098,0.0124,0.0121,0.0028
2390,0.0077,0.0580,0.0589,0.0286
2391,0.0112,0.0123,0.0188,0.0063
2392,0.0044,0.0200,0.0199,0.0147
2393,0.0032,0.0194,0.0179,0.0163
2394,0.0038,0.0182,0.0176,0.0137
2395,0.0050,0.0202,0.0188,0.0170
2396,0.0057,0.0257,0.0260,0.0185
2397,0.0053,0.0208,0.0207,0.0117
2398,0.0046,0.0150,0.0162,0.0103
2399,0.0083,0.0163,0.0154,0.0063
2400,0.0081,0.0202,0.0197,0.0055
2401,0.0061,0.0123,0.0133,0.0049
2402,0.0105,0.0122,0.0192,0.0056
2403,0.0056,0.0109,0.0093,0.0025
2404,0.0050,0.0168,0.0178,0.0026
2405,0.0067,0.0146,0.0139,0.0027
2406,0.0060,0.0138,0.0140,0.0036
2407,0.0071,0.0204,0.0234,0.0076
2408,0.0081,0.0182,0.0181,0.0088
2409,0.0081,0.0174,0.0164,0.0102
2410,0.0092,0.0197,0.0219,0.0069
2411,0.0080,0.0193,0.0190,0.0110
2412,0.0059,0.0256,0.0242,0.0171
2413,0.0107,0.0125,0.0185,0.0052
2414,0.0067,0.0316,0.0326,0.0136
2415,0.0049,0.0115,0.0101,0.0024
2416,0.0042,0.0106,0.0092,0.0033
2417,0.0036,0.0127,0.0126,0.0033
2418,0.0058,0.0111,0.0095,0.0033
2419,0.0042,0.0106,0.0092,0.0033
2420,0.0036,0.0127,0.0126,0.0033
2421,0.0042,0.0106,0.0092,0.0033
2422,0.0042,0.0106,0.0092,0.0033
2423,0.0058,0.0111,0.0095,0.0033
2424,0.0108,0.0132,0.0183,0.0051
2425,0.0042,0.0106,0.0092,0.0033
2426,0.0042,0.0106,0.0092,0.0033
2427,0.0052,0.0154,0.0161,0.0026
2428,0.0042,0.0106,0.0092,0.0033
2429,0.0058,0.0111,0.0095,0.0033
2430,0.0036,0.0127,0.0126,0.0033
2431,0.0042,0.0106,0.0092,0.0033
2432,0.0042,0.0106,0.0092,0.0033
2433,0.0036,0.0127,0.0126,0.0033
2434,0.0058,0.0111,0.0095,0.0033
2435,0.0136,0.0197,0.0184,0.0037
2436,0.0042,0.0106,0.0092,0.0033
2437,0.0036,0.0127,0.0126,0.0033
2438,0.0042,0.0106,0.0092,0.0033
2439,0.0050,0.0145,0.0143,0.0024
2440,0.0058,0.0111,0.0095,0.0033
2441,0.0042,0.0106,0.0092,0.0033
2442,0.0042,0.0106,0.0092,0.0033
2443,0.0036,0.0127,0.0126,0.0033
2444,0.0042,0.0106,0.0092,0.0033
2445,0.0058,0.0111,0.0095,0.0033
2446,0.0143,0.0227,0.0191,0.0047
2447,0.0036,0.0127,0.0126,0.0033
2448,0.0042,0.0106,0.0092,0.0033
2449,0.0042,0.0106,0.0092,0.0033
2450,0.0036,0.0127,0.0126,0.0033
2451,0.0056,0.0165,0.0165,0.0027
2452,0.0042,0.0106,0.0092,0.0033
2453,0.0036,0.0127,0.0126,0.0033
2454,0.0042,0.0106,0.0092,0.0033
2455,0.0042,0.0106,0.0092,0.0033
2456,0.0058,0.0111,0.0095,0.0033
2457,0.0119,0.0153,0.0184,0.0052
2458,0.0052,0.0094,0.0115,0.0070
2459,0.0063,0.0085,0.0107,0.0059
2460,0.0056,0.0113,0.0138,0.0054
2461,0.0078,0.0096,0.0113,0.0050
2462,0.0050,0.0157,0.0160,0.0023
2463,0.0066,0.0214,0.0212,0.0029
2464,0.0062,0.0101,0.0098,0.0052
2465,0.0053,0.0099,0.0090,0.0054
2466,0.0048,0.0124,0.0123,0.0054
2467,0.0049,0.0099,0.0094,0.0052
2468,0.0128,0.0147,0.0166,0.0053
2469,0.0037,0.0107,0.0093,0.0044
2470,0.0051,0.0136,0.0141,0.0026
2471,0.0076,0.0117,0.0115,0.0027
2472,0.0056,0.0109,0.0093,0.0025
2473,0.0060,0.0128,0.0109,0.0024
2474,0.0046,0.0126,0.0122,0.0025
2475,0.0063,0.0207,0.0195,0.0033
2476,0.0059,0.0154,0.0159,0.0025
2477,0.0054,0.0153,0.0151,0.0027
2478,0.0061,0.0213,0.0209,0.0030
2479,0.0132,0.0167,0.0179,0.0052
2480,0.0065,0.0234,0.0222,0.0031
2481,0.0065,0.0270,0.0254,0.0036
2482,0.0044,0.0200,0.0199,0.0147
2483,0.0029,0.0185,0.0176,0.0130
2484,0.0050,0.0272,0.0255,0.0212
2485,0.0074,0.0156,0.0225,0.0190
2486,0.0041,0.0151,0.0211,0.0202
2487,0.0049,0.0174,0.0213,0.0229
2488,0.0080,0.0233,0.0246,0.0248
2489,0.0110,0.0311,0.0302,0.0254
2490,0.0123,0.0151,0.0149,0.0050
2491,0.0058,0.0088,0.0082,0.0029
2492,0.0058,0.0088,0.0082,0.0029
2493,0.0049,0.0111,0.0116,0.0030
2494,0.0084,0.0103,0.0102,0.0023
2495,0.0102,0.0100,0.0099,0.0024
2496,0.0078,0.0122,0.0131,0.0026
2497,0.0080,0.0106,0.0102,0.0024
2498,0.0064,0.0108,0.0110,0.0023
2499,0.0048,0.0135,0.0149,0.0024
2500,0.0051,0.0138,0.0150,0.0023
2501,0.0082,0.0531,0.0558,0.0270
2502,0.0125,0.0157,0.0155,0.0046
2503,0.0053,0.0167,0.0174,0.0026
2504,0.0066,0.0232,0.0231,0.0027
2505,0.0061,0.0240,0.0236,0.0028
2506,0.0063,0.0287,0.0268,0.0029
2507,0.0121,0.0122,0.0124,0.0028
2508,0.0046,0.0459,0.0442,0.0323
2509,0.0028,0.0386,0.0366,0.0320
2510,0.0037,0.0357,0.0342,0.0292
2511,0.0046,0.0366,0.0352,0.0287
2512,0.0053,0.0394,0.0403,0.0272
2513,0.0101,0.0136,0.0113,0.0041
2514,0.0055,0.0350,0.0372,0.0202
2515,0.0042,0.0226,0.0256,0.0160
2516,0.0081,0.0130,0.0141,0.0108
2517,0.0086,0.0177,0.0181,0.0081
2518,0.0078,0.0106,0.0126,0.0056
2519,0.0080,0.0106,0.0102,0.0024
2520,0.0061,0.0152,0.0165,0.0024
2521,0.0072,0.0124,0.0126,0.0025
2522,0.0061,0.0117,0.0127,0.0034
2523,0.0076,0.0191,0.0231,0.0073
2524,0.0123,0.0159,0.0118,0.0042
2525,0.0094,0.0171,0.0179,0.0086
2526,0.0103,0.0153,0.0146,0.0103
2527,0.0116,0.0152,0.0173,0.0064
2528,0.0111,0.0143,0.0139,0.0105
2529,0.0097,0.0266,0.0247,0.0181
2530,0.0088,0.0391,0.0369,0.0182
2531,0.0064,0.0108,0.0110,0.0023
2532,0.0058,0.0088,0.0082,0.0029
2533,0.0049,0.0111,0.0116,0.0030
2534,0.0075,0.0085,0.0080,0.0029
2535,0.0152,0.0207,0.0159,0.0046
2536,0.0058,0.0088,0.0082,0.0029
2537,0.0049,0.0111,0.0116,0.0030
2538,0.0058,0.0088,0.0082,0.0029
2539,0.0058,0.0088,0.0082,0.0029
2540,0.0075,0.0085,0.0080,0.0029
2541,0.0058,0.0088,0.0082,0.0029
2542,0.0058,0.0088,0.0082,0.0029
2543,0.0048,0.0135,0.0149,0.0024
2544,0.0058,0.0088,0.0082,0.0029
2545,0.0075,0.0085,0.0080,0.0029
2546,0.0155,0.0213,0.0183,0.0045
2547,0.0049,0.0111,0.0116,0.0030
2548,0.0058,0.0088,0.0082,0.0029
2549,0.0058,0.0088,0.0082,0.0029
2550,0.0049,0.0111,0.0116,0.0030
2551,0.0075,0.0085,0.0080,0.0029
2552,0.0058,0.0088,0.0082,0.0029
2553,0.0049,0.0111,0.0116,0.0030
2554,0.0058,0.0088,0.0082,0.0029
2555,0.0049,0.0128,0.0134,0.0024
2556,0.0075,0.0085,0.0080,0.0029
2557,0.0152,0.0187,0.0177,0.0042
2558,0.0058,0.0088,0.0082,0.0029
2559,0.0058,0.0088,0.0082,0.0029
2560,0.0049,0.0111,0.0116,0.0030
2561,0.0058,0.0088,0.0082,0.0029
2562,0.0075,0.0085,0.0080,0.0029
2563,0.0049,0.0111,0.0116,0.0030
2564,0.0058,0.0088,0.0082,0.0029
2565,0.0058,0.0088,0.0082,0.0029
2566,0.0049,0.0111,0.0116,0.0030
2567,0.0055,0.0171,0.0181,0.0026
2568,0.0141,0.0247,0.0202,0.0055
2569,0.0058,0.0088,0.0082,0.0029
2570,0.0049,0.0111,0.0116,0.0030
2571,0.0058,0.0088,0.0082,0.0029
2572,0.0058,0.0088,0.0082,0.0029
2573,0.0075,0.0085,0.0080,0.0029
2574,0.0072,0.0105,0.0135,0.0072
2575,0.0094,0.0081,0.0104,0.0060
2576,0.0084,0.0111,0.0137,0.0054
2577,0.0109,0.0082,0.0089,0.0049
2578,0.0051,0.0138,0.0150,0.0023
2579,0.0145,0.0196,0.0185,0.0039
2580,0.0066,0.0232,0.0231,0.0027
2581,0.0091,0.0086,0.0086,0.0051
2582,0.0077,0.0087,0.0089,0.0052
2583,0.0058,0.0111,0.0124,0.0053
2584,0.0063,0.0070,0.0090,0.0050
2585,0.0050,0.0088,0.0085,0.0041
2586,0.0069,0.0128,0.0138,0.0024
2587,0.0099,0.0115,0.0118,0.0026
2588,0.0080,0.0106,0.0102,0.0024
2589,0.0080,0.0121,0.0117,0.0022
2590,0.0143,0.0207,0.0187,0.0041
2591,0.0048,0.0098,0.0101,0.0023
2592,0.0061,0.0240,0.0236,0.0028
2593,0.0056,0.0146,0.0156,0.0025
2594,0.0053,0.0167,0.0174,0.0026
2595,0.0059,0.0213,0.0215,0.0028
2596,0.0066,0.0269,0.0261,0.0027
2597,0.0063,0.0287,0.0268,0.0029
2598,0.0046,0.0459,0.0442,0.0323
2599,0.0031,0.0400,0.0379,0.0307
2600,0.0042,0.0387,0.0368,0.0330
2601,0.0139,0.0234,0.0192,0.0047
2602,0.0087,0.0255,0.0341,0.0231
2603,0.0047,0.0251,0.0332,0.0285
2604,0.0047,0.0280,0.0347,0.0338
2605,0.0075,0.0344,0.0380,0.0375
2606,0.0105,0.0449,0.0461,0.0387
2607,0.0068,0.0082,0.0079,0.0028
2608,0.0068,0.0082,0.0079,0.0028
2609,0.0059,0.0108,0.0114,0.0029
2610,0.0097,0.0113,0.0111,0.0023
2611,0.0115,0.0111,0.0108,0.0023
2612,0.0112,0.0161,0.0151,0.0042
2613,0.0080,0.0403,0.0438,0.0197
2614,0.0141,0.0247,0.0202,0.0055
2615,0.0089,0.0124,0.0135,0.0027
2616,0.0089,0.0097,0.0096,0.0025
2617,0.0069,0.0095,0.0097,0.0023
2618,0.0049,0.0131,0.0145,0.0024
2619,0.0052,0.0158,0.0174,0.0023
2620,0.0053,0.0175,0.0184,0.0026
2621,0.0066,0.0247,0.0246,0.0026
2622,0.0061,0.0259,0.0250,0.0026
2623,0.0063,0.0307,0.0292,0.0027
2624,0.0129,0.0113,0.0118,0.0029
2625,0.0139,0.0289,0.0240,0.0063
2626,0.0049,0.0607,0.0574,0.0414
2627,0.0031,0.0522,0.0495,0.0401
2628,0.0039,0.0498,0.0476,0.0368
2629,0.0046,0.0476,0.0469,0.0347
2630,0.0052,0.0492,0.0507,0.0319
2631,0.0057,0.0432,0.0461,0.0243
2632,0.0039,0.0294,0.0337,0.0191
2633,0.0082,0.0155,0.0187,0.0129
2634,0.0091,0.0176,0.0186,0.0091
2635,0.0083,0.0104,0.0135,0.0060
2636,0.0082,0.0499,0.0425,0.0306
2637,0.0089,0.0097,0.0096,0.0025
2638,0.0066,0.0141,0.0159,0.0025
2639,0.0076,0.0116,0.0121,0.0025
2640,0.0062,0.0112,0.0128,0.0033
2641,0.0076,0.0190,0.0230,0.0072
2642,0.0095,0.0166,0.0174,0.0086
2643,0.0105,0.0157,0.0147,0.0106
2644,0.0121,0.0141,0.0157,0.0070
2645,0.0122,0.0132,0.0124,0.0109
2646,0.0113,0.0274,0.0247,0.0189
2647,0.0069,0.0498,0.0457,0.0267
2648,0.0109,0.0436,0.0400,0.0211
2649,0.0069,0.0095,0.0097,0.0023
2650,0.0068,0.0082,0.0079,0.0028
2651,0.0059,0.0108,0.0114,0.0029
2652,0.0085,0.0078,0.0078,0.0028
2653,0.0068,0.0082,0.0079,0.0028
2654,0.0059,0.0108,0.0114,0.0029
2655,0.0068,0.0082,0.0079,0.0028
2656,0.0068,0.0082,0.0079,0.0028
2657,0.0085,0.0078,0.0078,0.0028
2658,0.0073,0.0528,0.0507,0.0279
2659,0.0068,0.0082,0.0079,0.0028
2660,0.0068,0.0082,0.0079,0.0028
2661,0.0049,0.0131,0.0145,0.0024
2662,0.0068,0.0082,0.0079,0.0028
2663,0.0085,0.0078,0.0078,0.0028
2664,0.0059,0.0108,0.0114,0.0029
2665,0.0068,0.0082,0.0079,0.0028
2666,0.0068,0.0082,0.0079,0.0028
2667,0.0059,0.0108,0.0114,0.0029
2668,0.0085,0.0078,0.0078,0.0028
2669,0.0088,0.0238,0.0274,0.0320
2670,0.0068,0.0082,0.0079,0.0028
2671,0.0059,0.0108,0.0114,0.0029
2672,0.0068,0.0082,0.0079,0.0028
2673,0.0048,0.0152,0.0160,0.0024
2674,0.0085,0.0078,0.0078,0.0028
2675,0.0068,0.0082,0.0079,0.0028
2676,0.0068,0.0082,0.0079,0.0028
2677,0.0059,0.0108,0.0114,0.0029
2678,0.0068,0.0082,0.0079,0.0028
2679,0.0085,0.0078,0.0078,0.0028
2680,0.0070,0.0253,0.0304,0.0281
2681,0.0059,0.0108,0.0114,0.0029
2682,0.0068,0.0082,0.0079,0.0028
2683,0.0068,0.0082,0.0079,0.0028
2684,0.0059,0.0108,0.0114,0.0029
2685,0.0055,0.0187,0.0200,0.0025
2686,0.0068,0.0082,0.0079,0.0028
2687,0.0059,0.0108,0.0114,0.0029
2688,0.0068,0.0082,0.0079,0.0028
2689,0.0068,0.0082,0.0079,0.0028
2690,0.0085,0.0078,0.0078,0.0028
2691,0.0074,0.0272,0.0335,0.0262
2692,0.0084,0.0110,0.0155,0.0072
2693,0.0100,0.0089,0.0129,0.0060
2694,0.0095,0.0113,0.0149,0.0054
2695,0.0119,0.0077,0.0096,0.0049
2696,0.0052,0.0158,0.0174,0.0023
2697,0.0066,0.0247,0.0246,0.0026
2698,0.0105,0.0081,0.0091,0.0050
2699,0.0094,0.0085,0.0084,0.0051
2700,0.0073,0.0111,0.0118,0.0051
2701,0.0078,0.0070,0.0083,0.0048
2702,0.0094,0.0289,0.0356,0.0256
2703,0.0061,0.0083,0.0084,0.0039
2704,0.0081,0.0136,0.0146,0.0024
2705,0.0108,0.0112,0.0118,0.0027
2706,0.0089,0.0097,0.0096,0.0025
2707,0.0085,0.0107,0.0103,0.0023
2708,0.0054,0.0091,0.0093,0.0023
2709,0.0061,0.0259,0.0250,0.0026
2710,0.0056,0.0171,0.0179,0.0025
2711,0.0053,0.0175,0.0184,0.0026
2712,0.0059,0.0239,0.0244,0.0026
2713,0.0116,0.0324,0.0382,0.0263
2714,0.0067,0.0287,0.0272,0.0026
2715,0.0063,0.0307,0.0292,0.0027
2716,0.0049,0.0607,0.0574,0.0414
2717,0.0036,0.0536,0.0508,0.0392
2718,0.0040,0.0509,0.0485,0.0397
2719,0.0093,0.0311,0.0407,0.0284
2720,0.0052,0.0310,0.0406,0.0345
2721,0.0048,0.0340,0.0426,0.0398
2722,0.0074,0.0410,0.0463,0.0439
2723,0.0104,0.0511,0.0547,0.0453
2724,0.0087,0.0344,0.0382,0.0153
2725,0.0101,0.0126,0.0123,0.0041
2726,0.0101,0.0126,0.0123,0.0041
2727,0.0101,0.0126,0.0123,0.0041
2728,0.0097,0.0113,0.0105,0.0040
2729,0.0091,0.0102,0.0088,0.0039
2730,0.0118,0.0136,0.0108,0.0039
2731,0.0143,0.0171,0.0131,0.0041
2732,0.0153,0.0149,0.0121,0.0042
2733,0.0146,0.0154,0.0158,0.0040
2734,0.0134,0.0157,0.0165,0.0037
2735,0.0093,0.0315,0.0350,0.0110
2736,0.0143,0.0181,0.0180,0.0040
2737,0.0143,0.0207,0.0194,0.0043
2738,0.0141,0.0248,0.0222,0.0049
2739,0.0137,0.0314,0.0280,0.0055
2740,0.0108,0.0117,0.0088,0.0039
2741,0.0077,0.0256,0.0245,0.0171
2742,0.0063,0.0248,0.0220,0.0191
2743,0.0063,0.0252,0.0216,0.0199
2744,0.0070,0.0256,0.0227,0.0197
2745,0.0078,0.0328,0.0314,0.0213
2746,0.0106,0.0277,0.0302,0.0070
2747,0.0082,0.0277,0.0273,0.0157
2748,0.0085,0.0247,0.0262,0.0124
2749,0.0092,0.0203,0.0221,0.0086
2750,0.0107,0.0193,0.0201,0.0063
2751,0.0140,0.0218,0.0224,0.0060
2752,0.0143,0.0171,0.0131,0.0041
2753,0.0063,0.0268,0.0309,0.0050
2754,0.0082,0.0328,0.0365,0.0051
2755,0.0084,0.0301,0.0325,0.0059
2756,0.0096,0.0226,0.0232,0.0091
2757,0.0143,0.0247,0.0251,0.0052
2758,0.0103,0.0279,0.0304,0.0089
2759,0.0133,0.0329,0.0351,0.0092
2760,0.0168,0.0421,0.0438,0.0100
2761,0.0189,0.0471,0.0470,0.0117
2762,0.0202,0.0361,0.0325,0.0129
2763,0.0169,0.0385,0.0348,0.0098
2764,0.0153,0.0149,0.0121,0.0042
2765,0.0101,0.0126,0.0123,0.0041
2766,0.0101,0.0126,0.0123,0.0041
2767,0.0093,0.0112,0.0102,0.0041
2768,0.0159,0.0238,0.0189,0.0049
2769,0.0101,0.0126,0.0123,0.0041
2770,0.0101,0.0126,0.0123,0.0041
2771,0.0101,0.0126,0.0123,0.0041
2772,0.0101,0.0126,0.0123,0.0041
2773,0.0093,0.0112,0.0102,0.0041
2774,0.0101,0.0126,0.0123,0.0041
2775,0.0101,0.0126,0.0123,0.0041
2776,0.0146,0.0154,0.0158,0.0040
2777,0.0101,0.0126,0.0123,0.0041
2778,0.0093,0.0112,0.0102,0.0041
2779,0.0074,0.0294,0.0329,0.0051
2780,0.0101,0.0126,0.0123,0.0041
2781,0.0101,0.0126,0.0123,0.0041
2782,0.0101,0.0126,0.0123,0.0041
2783,0.0101,0.0126,0.0123,0.0041
2784,0.0093,0.0112,0.0102,0.0041
2785,0.0101,0.0126,0.0123,0.0041
2786,0.0101,0.0126,0.0123,0.0041
2787,0.0101,0.0126,0.0123,0.0041
2788,0.0143,0.0163,0.0169,0.0039
2789,0.0093,0.0112,0.0102,0.0041
2790,0.0086,0.0365,0.0399,0.0051
2791,0.0101,0.0126,0.0123,0.0041
2792,0.0101,0.0126,0.0123,0.0041
2793,0.0101,0.0126,0.0123,0.0041
2794,0.0101,0.0126,0.0123,0.0041
2795,0.0093,0.0112,0.0102,0.0041
2796,0.0101,0.0126,0.0123,0.0041
2797,0.0101,0.0126,0.0123,0.0041
2798,0.0101,0.0126,0.0123,0.0041
2799,0.0101,0.0126,0.0123,0.0041
2800,0.0137,0.0176,0.0177,0.0038
2801,0.0081,0.0346,0.0368,0.0064
2802,0.0101,0.0126,0.0123,0.0041
2803,0.0101,0.0126,0.0123,0.0041
2804,0.0101,0.0126,0.0123,0.0041
2805,0.0101,0.0126,0.0123,0.0041
2806,0.0093,0.0112,0.0102,0.0041
2807,0.0103,0.0121,0.0151,0.0068
2808,0.0101,0.0110,0.0144,0.0059
2809,0.0106,0.0109,0.0140,0.0055
2810,0.0109,0.0115,0.0142,0.0052
2811,0.0134,0.0157,0.0165,0.0037
2812,0.0085,0.0288,0.0291,0.0100
2813,0.0143,0.0207,0.0194,0.0043
2814,0.0115,0.0122,0.0132,0.0053
2815,0.0120,0.0122,0.0126,0.0053
2816,0.0122,0.0133,0.0134,0.0053
2817,0.0113,0.0119,0.0111,0.0050
2818,0.0115,0.0129,0.0127,0.0046
2819,0.0097,0.0113,0.0105,0.0040
2820,0.0118,0.0136,0.0108,0.0039
2821,0.0143,0.0171,0.0131,0.0041
2822,0.0146,0.0171,0.0141,0.0040
2823,0.0106,0.0159,0.0130,0.0042
2824,0.0079,0.0350,0.0375,0.0102
2825,0.0146,0.0154,0.0158,0.0040
2826,0.0141,0.0248,0.0222,0.0049
2827,0.0143,0.0163,0.0169,0.0039
2828,0.0143,0.0181,0.0180,0.0040
2829,0.0139,0.0207,0.0192,0.0042
2830,0.0141,0.0248,0.0222,0.0049
2831,0.0137,0.0314,0.0280,0.0055
2832,0.0077,0.0256,0.0245,0.0171
2833,0.0063,0.0248,0.0220,0.0191
2834,0.0066,0.0334,0.0295,0.0245
2835,0.0111,0.0414,0.0441,0.0114
2836,0.0091,0.0155,0.0217,0.0174
2837,0.0063,0.0160,0.0188,0.0193
2838,0.0064,0.0191,0.0190,0.0209
2839,0.0085,0.0237,0.0217,0.0219
2840,0.0102,0.0310,0.0274,0.0227
2841,0.0103,0.0104,0.0104,0.0040
2842,0.0103,0.0104,0.0104,0.0040
2843,0.0103,0.0104,0.0104,0.0040
2844,0.0103,0.0102,0.0099,0.0039
2845,0.0100,0.0088,0.0082,0.0038
2846,0.0151,0.0528,0.0542,0.0142
2847,0.0124,0.0123,0.0100,0.0039
2848,0.0145,0.0163,0.0129,0.0039
2849,0.0151,0.0139,0.0121,0.0040
2850,0.0142,0.0137,0.0147,0.0039
2851,0.0133,0.0146,0.0164,0.0037
2852,0.0143,0.0199,0.0203,0.0039
2853,0.0144,0.0241,0.0233,0.0043
2854,0.0142,0.0289,0.0271,0.0048
2855,0.0138,0.0351,0.0316,0.0054
2856,0.0119,0.0103,0.0080,0.0038
2857,0.0180,0.0597,0.0588,0.0185
2858,0.0078,0.0510,0.0478,0.0335
2859,0.0065,0.0446,0.0408,0.0338
2860,0.0064,0.0414,0.0374,0.0328
2861,0.0072,0.0422,0.0394,0.0309
2862,0.0080,0.0460,0.0454,0.0295
2863,0.0085,0.0408,0.0424,0.0230
2864,0.0086,0.0330,0.0363,0.0178
2865,0.0092,0.0234,0.0270,0.0126
2866,0.0109,0.0185,0.0206,0.0088
2867,0.0144,0.0211,0.0221,0.0067
2868,0.0225,0.0519,0.0466,0.0213
2869,0.0145,0.0163,0.0129,0.0039
2870,0.0069,0.0253,0.0295,0.0050
2871,0.0083,0.0312,0.0351,0.0051
2872,0.0083,0.0284,0.0310,0.0057
2873,0.0097,0.0199,0.0209,0.0088
2874,0.0108,0.0257,0.0282,0.0085
2875,0.0141,0.0297,0.0320,0.0086
2876,0.0176,0.0372,0.0387,0.0081
2877,0.0199,0.0414,0.0415,0.0080
2878,0.0217,0.0310,0.0274,0.0108
2879,0.0250,0.0496,0.0435,0.0195
2880,0.0186,0.0388,0.0343,0.0114
2881,0.0151,0.0139,0.0121,0.0040
2882,0.0103,0.0104,0.0104,0.0040
2883,0.0103,0.0104,0.0104,0.0040
2884,0.0098,0.0084,0.0080,0.0039
2885,0.0103,0.0104,0.0104,0.0040
2886,0.0103,0.0104,0.0104,0.0040
2887,0.0103,0.0104,0.0104,0.0040
2888,0.0103,0.0104,0.0104,0.0040
2889,0.0098,0.0084,0.0080,0.0039
2890,0.0170,0.0224,0.0191,0.0049
2891,0.0103,0.0104,0.0104,0.0040
2892,0.0103,0.0104,0.0104,0.0040
2893,0.0142,0.0137,0.0147,0.0039
2894,0.0103,0.0104,0.0104,0.0040
2895,0.0098,0.0084,0.0080,0.0039
2896,0.0103,0.0104,0.0104,0.0040
2897,0.0103,0.0104,0.0104,0.0040
2898,0.0103,0.0104,0.0104,0.0040
2899,0.0103,0.0104,0.0104,0.0040
2900,0.0098,0.0084,0.0080,0.0039
2901,0.0112,0.0161,0.0151,0.0042
2902,0.0103,0.0104,0.0104,0.0040
2903,0.0103,0.0104,0.0104,0.0040
2904,0.0103,0.0104,0.0104,0.0040
2905,0.0142,0.0159,0.0171,0.0038
2906,0.0098,0.0084,0.0080,0.0039
2907,0.0103,0.0104,0.0104,0.0040
2908,0.0103,0.0104,0.0104,0.0040
2909,0.0103,0.0104,0.0104,0.0040
2910,0.0103,0.0104,0.0104,0.0040
2911,0.0098,0.0084,0.0080,0.0039
2912,0.0112,0.0161,0.0151,0.0042
2913,0.0103,0.0104,0.0104,0.0040
2914,0.0103,0.0104,0.0104,0.0040
2915,0.0103,0.0104,0.0104,0.0040
2916,0.0103,0.0104,0.0104,0.0040
2917,0.0136,0.0187,0.0197,0.0038
2918,0.0103,0.0104,0.0104,0.0040
2919,0.0103,0.0104,0.0104,0.0040
2920,0.0103,0.0104,0.0104,0.0040
2921,0.0103,0.0104,0.0104,0.0040
2922,0.0098,0.0084,0.0080,0.0039
2923,0.0102,0.0151,0.0133,0.0041
2924,0.0107,0.0128,0.0166,0.0070
2925,0.0113,0.0108,0.0144,0.0060
2926,0.0119,0.0105,0.0133,0.0055
2927,0.0124,0.0104,0.0122,0.0052
2928,0.0133,0.0146,0.0164,0.0037
2929,0.0144,0.0241,0.0233,0.0043
2930,0.0125,0.0107,0.0114,0.0052
2931,0.0125,0.0110,0.0115,0.0052
2932,0.0123,0.0112,0.0118,0.0052
2933,0.0114,0.0085,0.0085,0.0049
2934,0.0096,0.0153,0.0118,0.0042
2935,0.0112,0.0161,0.0151,0.0042
2936,0.0115,0.0105,0.0106,0.0044
2937,0.0103,0.0102,0.0099,0.0039
2938,0.0124,0.0123,0.0100,0.0039
2939,0.0145,0.0163,0.0129,0.0039
2940,0.0146,0.0160,0.0138,0.0038
2941,0.0142,0.0137,0.0147,0.0039
2942,0.0142,0.0289,0.0271,0.0048
2943,0.0142,0.0159,0.0171,0.0038
2944,0.0143,0.0199,0.0203,0.0039
2945,0.0139,0.0225,0.0217,0.0042
2946,0.0112,0.0161,0.0151,0.0042
2947,0.0142,0.0289,0.0271,0.0048
2948,0.0138,0.0351,0.0316,0.0054
2949,0.0078,0.0510,0.0478,0.0335
2950,0.0065,0.0446,0.0408,0.0338
2951,0.0066,0.0460,0.0418,0.0356
2952,0.0097,0.0213,0.0330,0.0230
2953,0.0064,0.0217,0.0303,0.0288
2954,0.0060,0.0257,0.0300,0.0328
2955,0.0079,0.0329,0.0338,0.0347
2956,0.0096,0.0423,0.0405,0.0351
2957,0.0112,0.0161,0.0151,0.0042
2958,0.0107,0.0097,0.0098,0.0039
2959,0.0107,0.0097,0.0098,0.0039
2960,0.0107,0.0097,0.0098,0.0039
2961,0.0110,0.0107,0.0105,0.0039
2962,0.0109,0.0090,0.0086,0.0038
2963,0.0128,0.0122,0.0102,0.0039
2964,0.0147,0.0162,0.0128,0.0039
2965,0.0151,0.0134,0.0113,0.0039
2966,0.0141,0.0124,0.0135,0.0039
2967,0.0132,0.0167,0.0184,0.0037
2968,0.0112,0.0161,0.0151,0.0042
2969,0.0143,0.0205,0.0211,0.0039
2970,0.0145,0.0250,0.0243,0.0043
2971,0.0143,0.0304,0.0279,0.0048
2972,0.0139,0.0368,0.0336,0.0054
2973,0.0125,0.0103,0.0084,0.0039
2974,0.0080,0.0658,0.0611,0.0424
2975,0.0067,0.0580,0.0534,0.0416
2976,0.0066,0.0546,0.0501,0.0398
2977,0.0074,0.0529,0.0508,0.0367
2978,0.0082,0.0552,0.0552,0.0340
2979,0.0102,0.0151,0.0133,0.0041
2980,0.0087,0.0484,0.0509,0.0267
2981,0.0087,0.0396,0.0439,0.0208
2982,0.0093,0.0261,0.0309,0.0146
2983,0.0112,0.0189,0.0216,0.0098
2984,0.0145,0.0214,0.0231,0.0070
2985,0.0147,0.0162,0.0128,0.0039
2986,0.0072,0.0243,0.0287,0.0051
2987,0.0085,0.0304,0.0343,0.0051
2988,0.0082,0.0280,0.0306,0.0057
2989,0.0095,0.0194,0.0205,0.0087
2990,0.0112,0.0161,0.0151,0.0042
2991,0.0107,0.0249,0.0275,0.0085
2992,0.0142,0.0287,0.0310,0.0086
2993,0.0177,0.0355,0.0369,0.0077
2994,0.0200,0.0395,0.0395,0.0070
2995,0.0220,0.0295,0.0258,0.0108
2996,0.0196,0.0408,0.0355,0.0138
2997,0.0151,0.0134,0.0113,0.0039
2998,0.0107,0.0097,0.0098,0.0039
2999,0.0107,0.0097,0.0098,0.0039
3000,0.0103,0.0077,0.0075,0.0038
3001,0.0112,0.0161,0.0151,0.0042
3002,0.0107,0.0097,0.0098,0.0039
3003,0.0107,0.0097,0.0098,0.0039
3004,0.0107,0.0097,0.0098,0.0039
3005,0.0107,0.0097,0.0098,0.0039
3006,0.0103,0.0077,0.0075,0.0038
3007,0.0107,0.0097,0.0098,0.0039
3008,0.0107,0.0097,0.0098,0.0039
3009,0.0141,0.0124,0.0135,0.0039
3010,0.0107,0.0097,0.0098,0.0039
3011,0.0103,0.0077,0.0075,0.0038
3012,0.0155,0.0218,0.0203,0.0042
3013,0.0107,0.0097,0.0098,0.0039
3014,0.0107,0.0097,0.0098,0.0039
3015,0.0107,0.0097,0.0098,0.0039
3016,0.0107,0.0097,0.0098,0.0039
3017,0.0103,0.0077,0.0075,0.0038
3018,0.0107,0.0097,0.0098,0.0039
3019,0.0107,0.0097,0.0098,0.0039
3020,0.0107,0.0097,0.0098,0.0039
3021,0.0142,0.0187,0.0197,0.0039
3022,0.0103,0.0077,0.0075,0.0038
3023,0.0112,0.0161,0.0151,0.0042
3024,0.0107,0.0097,0.0098,0.0039
3025,0.0107,0.0097,0.0098,0.0039
3026,0.0107,0.0097,0.0098,0.0039
3027,0.0107,0.0097,0.0098,0.0039
3028,0.0103,0.0077,0.0075,0.0038
3029,0.0107,0.0097,0.0098,0.0039
3030,0.0107,0.0097,0.0098,0.0039
3031,0.0107,0.0097,0.0098,0.0039
3032,0.0107,0.0097,0.0098,0.0039
3033,0.0136,0.0189,0.0199,0.0038
3034,0.0102,0.0151,0.0133,0.0041
3035,0.0107,0.0097,0.0098,0.0039
3036,0.0107,0.0097,0.0098,0.0039
3037,0.0107,0.0097,0.0098,0.0039
3038,0.0107,0.0097,0.0098,0.0039
3039,0.0103,0.0077,0.0075,0.0038
3040,0.0112,0.0136,0.0187,0.0071
3041,0.0117,0.0114,0.0162,0.0060
3042,0.0126,0.0106,0.0142,0.0055
3043,0.0132,0.0100,0.0123,0.0052
3044,0.0132,0.0167,0.0184,0.0037
3045,0.0129,0.0192,0.0148,0.0045
3046,0.0112,0.0161,0.0151,0.0042
3047,0.0145,0.0250,0.0243,0.0043
3048,0.0133,0.0104,0.0114,0.0052
3049,0.0132,0.0109,0.0113,0.0052
3050,0.0129,0.0113,0.0114,0.0051
3051,0.0120,0.0086,0.0080,0.0048
3052,0.0117,0.0102,0.0104,0.0043
3053,0.0110,0.0107,0.0105,0.0039
3054,0.0128,0.0122,0.0102,0.0039
3055,0.0147,0.0162,0.0128,0.0039
3056,0.0148,0.0156,0.0134,0.0038
3057,0.0112,0.0161,0.0151,0.0042
3058,0.0141,0.0124,0.0135,0.0039
3059,0.0143,0.0304,0.0279,0.0048
3060,0.0142,0.0187,0.0197,0.0039
3061,0.0143,0.0205,0.0211,0.0039
3062,0.0139,0.0236,0.0231,0.0041
3063,0.0143,0.0304,0.0279,0.0048
3064,0.0139,0.0368,0.0336,0.0054
3065,0.0080,0.0658,0.0611,0.0424
3066,0.0067,0.0580,0.0534,0.0416
3067,0.0067,0.0576,0.0531,0.0421
3068,0.0112,0.0161,0.0151,0.0042
3069,0.0100,0.0261,0.0396,0.0288
3070,0.0065,0.0268,0.0378,0.0346
3071,0.0059,0.0305,0.0375,0.0391
3072,0.0077,0.0389,0.0419,0.0413
3073,0.0094,0.0482,0.0489,0.0417
3074,0.0054,0.0151,0.0133,0.0036
3075,0.0054,0.0151,0.0133,0.0036
3076,0.0064,0.0168,0.0163,0.0037
3077,0.0052,0.0155,0.0125,0.0035
3078,0.0061,0.0153,0.0120,0.0035
3079,0.0112,0.0161,0.0151,0.0042
3080,0.0068,0.0189,0.0164,0.0038
3081,0.0075,0.0212,0.0177,0.0040
3082,0.0090,0.0210,0.0188,0.0040
3083,0.0095,0.0215,0.0208,0.0035
3084,0.0073,0.0222,0.0194,0.0029
3085,0.0080,0.0223,0.0187,0.0034
3086,0.0091,0.0258,0.0225,0.0042
3087,0.0091,0.0268,0.0216,0.0053
3088,0.0098,0.0304,0.0256,0.0063
3089,0.0067,0.0166,0.0132,0.0037
3090,0.0102,0.0151,0.0133,0.0041
3091,0.0061,0.0723,0.0620,0.0437
3092,0.0057,0.0690,0.0635,0.0374
3093,0.0060,0.0616,0.0612,0.0299
3094,0.0068,0.0568,0.0579,0.0282
3095,0.0069,0.0506,0.0539,0.0265
3096,0.0060,0.0363,0.0400,0.0176
3097,0.0051,0.0318,0.0356,0.0150
3098,0.0055,0.0277,0.0306,0.0102
3099,0.0057,0.0250,0.0269,0.0062
3100,0.0074,0.0195,0.0200,0.0045
3101,0.0112,0.0161,0.0151,0.0042
3102,0.0075,0.0212,0.0177,0.0040
3103,0.0055,0.0229,0.0245,0.0037
3104,0.0065,0.0232,0.0228,0.0037
3105,0.0056,0.0217,0.0201,0.0052
3106,0.0057,0.0219,0.0211,0.0093
3107,0.0046,0.0229,0.0220,0.0099
3108,0.0054,0.0265,0.0265,0.0111
3109,0.0064,0.0395,0.0411,0.0114
3110,0.0104,0.0398,0.0380,0.0165
3111,0.0161,0.0354,0.0305,0.0201
3112,0.0112,0.0161,0.0151,0.0042
3113,0.0203,0.0357,0.0327,0.0172
3114,0.0090,0.0210,0.0188,0.0040
3115,0.0054,0.0151,0.0133,0.0036
3116,0.0064,0.0168,0.0163,0.0037
3117,0.0057,0.0148,0.0121,0.0036
3118,0.0054,0.0151,0.0133,0.0036
3119,0.0064,0.0168,0.0163,0.0037
3120,0.0054,0.0151,0.0133,0.0036
3121,0.0054,0.0151,0.0133,0.0036
3122,0.0057,0.0148,0.0121,0.0036
3123,0.0112,0.0161,0.0151,0.0042
3124,0.0054,0.0151,0.0133,0.0036
3125,0.0054,0.0151,0.0133,0.0036
3126,0.0095,0.0215,0.0208,0.0035
3127,0.0054,0.0151,0.0133,0.0036
3128,0.0057,0.0148,0.0121,0.0036
3129,0.0064,0.0168,0.0163,0.0037
3130,0.0054,0.0151,0.0133,0.0036
3131,0.0054,0.0151,0.0133,0.0036
3132,0.0064,0.0168,0.0163,0.0037
3133,0.0057,0.0148,0.0121,0.0036
3134,0.0146,0.0221,0.0198,0.0039
3135,0.0054,0.0151,0.0133,0.0036
3136,0.0064,0.0168,0.0163,0.0037
3137,0.0054,0.0151,0.0133,0.0036
3138,0.0079,0.0205,0.0175,0.0030
3139,0.0057,0.0148,0.0121,0.0036
3140,0.0054,0.0151,0.0133,0.0036
3141,0.0054,0.0151,0.0133,0.0036
3142,0.0064,0.0168,0.0163,0.0037
3143,0.0054,0.0151,0.0133,0.0036
3144,0.0057,0.0148,0.0121,0.0036
3145,0.0102,0.0151,0.0133,0.0041
3146,0.0064,0.0168,0.0163,0.0037
3147,0.0054,0.0151,0.0133,0.0036
3148,0.0054,0.0151,0.0133,0.0036
3149,0.0064,0.0168,0.0163,0.0037
3150,0.0078,0.0235,0.0198,0.0034
3151,0.0054,0.0151,0.0133,0.0036
3152,0.0064,0.0168,0.0163,0.0037
3153,0.0054,0.0151,0.0133,0.0036
3154,0.0054,0.0151,0.0133,0.0036
3155,0.0057,0.0148,0.0121,0.0036
3156,0.0159,0.0238,0.0189,0.0049
3157,0.0112,0.0161,0.0151,0.0042
3158,0.0051,0.0123,0.0231,0.0054
3159,0.0054,0.0135,0.0236,0.0048
3160,0.0056,0.0168,0.0260,0.0047
3161,0.0060,0.0159,0.0236,0.0045
3162,0.0073,0.0222,0.0194,0.0029
3163,0.0091,0.0258,0.0225,0.0042
3164,0.0066,0.0182,0.0225,0.0049
3165,0.0072,0.0168,0.0193,0.0051
3166,0.0089,0.0192,0.0211,0.0052
3167,0.0072,0.0170,0.0174,0.0049
3168,0.0112,0.0161,0.0151,0.0042
3169,0.0068,0.0172,0.0168,0.0043
3170,0.0057,0.0172,0.0157,0.0036
3171,0.0060,0.0169,0.0137,0.0037
3172,0.0075,0.0212,0.0177,0.0040
3173,0.0083,0.0222,0.0201,0.0038
3174,0.0085,0.0204,0.0186,0.0033
3175,0.0091,0.0268,0.0216,0.0053
3176,0.0091,0.0212,0.0192,0.0031
3177,0.0080,0.0223,0.0187,0.0034
3178,0.0086,0.0269,0.0216,0.0044
3179,0.0112,0.0161,0.0151,0.0042
3180,0.0092,0.0267,0.0228,0.0050
3181,0.0098,0.0304,0.0256,0.0063
3182,0.0061,0.0723,0.0620,0.0437
3183,0.0053,0.0665,0.0617,0.0352
3184,0.0073,0.0684,0.0670,0.0357
3185,0.0061,0.0301,0.0340,0.0388
3186,0.0054,0.0311,0.0392,0.0357
3187,0.0071,0.0321,0.0430,0.0343
3188,0.0098,0.0331,0.0458,0.0341
3189,0.0126,0.0338,0.0463,0.0343
3190,0.0112,0.0161,0.0151,0.0042
3191,0.0047,0.0139,0.0124,0.0037
3192,0.0047,0.0139,0.0124,0.0037
3193,0.0058,0.0158,0.0155,0.0038
3194,0.0048,0.0133,0.0109,0.0034
3195,0.0060,0.0127,0.0099,0.0034
3196,0.0058,0.0156,0.0137,0.0035
3197,0.0065,0.0174,0.0140,0.0036
3198,0.0081,0.0184,0.0167,0.0038
3199,0.0090,0.0188,0.0186,0.0035
3200,0.0072,0.0193,0.0179,0.0029
3201,0.0102,0.0151,0.0133,0.0041
3202,0.0079,0.0199,0.0175,0.0032
3203,0.0090,0.0234,0.0215,0.0038
3204,0.0087,0.0237,0.0202,0.0045
3205,0.0092,0.0280,0.0248,0.0053
3206,0.0066,0.0128,0.0096,0.0035
3207,0.0054,0.0486,0.0414,0.0290
3208,0.0048,0.0486,0.0448,0.0254
3209,0.0052,0.0429,0.0430,0.0191
3210,0.0062,0.0413,0.0418,0.0203
3211,0.0065,0.0389,0.0408,0.0209
3212,0.0112,0.0161,0.0151,0.0042
3213,0.0059,0.0256,0.0275,0.0121
3214,0.0049,0.0249,0.0274,0.0115
3215,0.0056,0.0235,0.0256,0.0078
3216,0.0056,0.0212,0.0219,0.0051
3217,0.0072,0.0181,0.0187,0.0047
3218,0.0065,0.0174,0.0140,0.0036
3219,0.0051,0.0218,0.0237,0.0036
3220,0.0065,0.0213,0.0210,0.0037
3221,0.0057,0.0191,0.0174,0.0048
3222,0.0058,0.0198,0.0193,0.0088
3223,0.0112,0.0161,0.0151,0.0042
3224,0.0047,0.0201,0.0189,0.0096
3225,0.0049,0.0225,0.0220,0.0105
3226,0.0062,0.0351,0.0369,0.0100
3227,0.0085,0.0344,0.0328,0.0145
3228,0.0116,0.0291,0.0254,0.0177
3229,0.0138,0.0308,0.0298,0.0132
3230,0.0081,0.0184,0.0167,0.0038
3231,0.0047,0.0139,0.0124,0.0037
3232,0.0058,0.0158,0.0155,0.0038
3233,0.0051,0.0135,0.0112,0.0037
3234,0.0112,0.0161,0.0151,0.0042
3235,0.0047,0.0139,0.0124,0.0037
3236,0.0058,0.0158,0.0155,0.0038
3237,0.0047,0.0139,0.0124,0.0037
3238,0.0047,0.0139,0.0124,0.0037
3239,0.0051,0.0135,0.0112,0.0037
3240,0.0047,0.0139,0.0124,0.0037
3241,0.0047,0.0139,0.0124,0.0037
3242,0.0090,0.0188,0.0186,0.0035
3243,0.0047,0.0139,0.0124,0.0037
3244,0.0051,0.0135,0.0112,0.0037
3245,0.0112,0.0161,0.0151,0.0042
3246,0.0058,0.0158,0.0155,0.0038
3247,0.0047,0.0139,0.0124,0.0037
3248,0.0047,0.0139,0.0124,0.0037
3249,0.0058,0.0158,0.0155,0.0038
3250,0.0051,0.0135,0.0112,0.0037
3251,0.0047,0.0139,0.0124,0.0037
3252,0.0058,0.0158,0.0155,0.0038
3253,0.0047,0.0139,0.0124,0.0037
3254,0.0078,0.0181,0.0162,0.0030
3255,0.0051,0.0135,0.0112,0.0037
3256,0.0137,0.0240,0.0207,0.0041
3257,0.0047,0.0139,0.0124,0.0037
3258,0.0047,0.0139,0.0124,0.0037
3259,0.0058,0.0158,0.0155,0.0038
3260,0.0047,0.0139,0.0124,0.0037
3261,0.0051,0.0135,0.0112,0.0037
3262,0.0058,0.0158,0.0155,0.0038
3263,0.0047,0.0139,0.0124,0.0037
3264,0.0047,0.0139,0.0124,0.0037
3265,0.0058,0.0158,0.0155,0.0038
3266,0.0077,0.0207,0.0181,0.0032
3267,0.0170,0.0224,0.0191,0.0049
3268,0.0112,0.0161,0.0151,0.0042
3269,0.0047,0.0139,0.0124,0.0037
3270,0.0058,0.0158,0.0155,0.0038
3271,0.0047,0.0139,0.0124,0.0037
3272,0.0047,0.0139,0.0124,0.0037
3273,0.0051,0.0135,0.0112,0.0037
3274,0.0045,0.0112,0.0192,0.0057
3275,0.0053,0.0127,0.0207,0.0050
3276,0.0053,0.0155,0.0223,0.0049
3277,0.0061,0.0143,0.0195,0.0046
3278,0.0072,0.0193,0.0179,0.0029
3279,0.0112,0.0161,0.0151,0.0042
3280,0.0090,0.0234,0.0215,0.0038
3281,0.0061,0.0163,0.0192,0.0050
3282,0.0064,0.0150,0.0163,0.0052
3283,0.0079,0.0183,0.0196,0.0053
3284,0.0064,0.0145,0.0141,0.0051
3285,0.0061,0.0146,0.0135,0.0045
3286,0.0050,0.0155,0.0146,0.0035
3287,0.0055,0.0132,0.0103,0.0034
3288,0.0065,0.0174,0.0140,0.0036
3289,0.0076,0.0202,0.0185,0.0036
3290,0.0112,0.0161,0.0151,0.0042
3291,0.0080,0.0172,0.0157,0.0033
3292,0.0087,0.0237,0.0202,0.0045
3293,0.0090,0.0192,0.0184,0.0031
3294,0.0079,0.0199,0.0175,0.0032
3295,0.0084,0.0240,0.0202,0.0039
3296,0.0090,0.0247,0.0223,0.0043
3297,0.0092,0.0280,0.0248,0.0053
3298,0.0054,0.0486,0.0414,0.0290
3299,0.0045,0.0457,0.0427,0.0222
3300,0.0064,0.0515,0.0502,0.0269
3301,0.0112,0.0161,0.0151,0.0042
3302,0.0059,0.0225,0.0250,0.0289
3303,0.0049,0.0232,0.0284,0.0263
3304,0.0064,0.0243,0.0311,0.0251
3305,0.0091,0.0254,0.0334,0.0250
3306,0.0120,0.0270,0.0342,0.0254
3307,0.0046,0.0116,0.0106,0.0036
3308,0.0046,0.0116,0.0106,0.0036
3309,0.0052,0.0137,0.0139,0.0037
3310,0.0057,0.0109,0.0100,0.0032
3311,0.0072,0.0100,0.0088,0.0032
3312,0.0102,0.0151,0.0133,0.0041
3313,0.0061,0.0135,0.0129,0.0032
3314,0.0064,0.0137,0.0115,0.0031
3315,0.0072,0.0131,0.0112,0.0032
3316,0.0081,0.0164,0.0174,0.0034
3317,0.0070,0.0165,0.0174,0.0028
3318,0.0078,0.0167,0.0169,0.0030
3319,0.0090,0.0225,0.0229,0.0033
3320,0.0083,0.0222,0.0215,0.0036
3321,0.0084,0.0289,0.0279,0.0039
3322,0.0083,0.0097,0.0082,0.0032
3323,0.0120,0.0128,0.0220,0.0060
3324,0.0047,0.0229,0.0225,0.0166
3325,0.0033,0.0220,0.0199,0.0184
3326,0.0043,0.0191,0.0181,0.0153
3327,0.0052,0.0232,0.0209,0.0188
3328,0.0058,0.0294,0.0289,0.0201
3329,0.0059,0.0240,0.0238,0.0128
3330,0.0045,0.0198,0.0214,0.0116
3331,0.0061,0.0145,0.0155,0.0077
3332,0.0062,0.0159,0.0160,0.0060
3333,0.0076,0.0159,0.0172,0.0056
3334,0.0112,0.0132,0.0224,0.0053
3335,0.0064,0.0137,0.0115,0.0031
3336,0.0050,0.0201,0.0223,0.0035
3337,0.0067,0.0184,0.0184,0.0036
3338,0.0061,0.0158,0.0148,0.0045
3339,0.0068,0.0165,0.0174,0.0082
3340,0.0072,0.0153,0.0146,0.0086
3341,0.0082,0.0161,0.0156,0.0095
3342,0.0099,0.0271,0.0295,0.0072
3343,0.0109,0.0240,0.0234,0.0106
3344,0.0106,0.0195,0.0176,0.0142
3345,0.0112,0.0139,0.0225,0.0051
3346,0.0071,0.0274,0.0282,0.0090
3347,0.0072,0.0131,0.0112,0.0032
3348,0.0046,0.0116,0.0106,0.0036
3349,0.0052,0.0137,0.0139,0.0037
3350,0.0057,0.0108,0.0091,0.0035
3351,0.0046,0.0116,0.0106,0.0036
3352,0.0052,0.0137,0.0139,0.0037
3353,0.0046,0.0116,0.0106,0.0036
3354,0.0046,0.0116,0.0106,0.0036
3355,0.0057,0.0108,0.0091,0.0035
3356,0.0113,0.0147,0.0221,0.0049
3357,0.0046,0.0116,0.0106,0.0036
3358,0.0046,0.0116,0.0106,0.0036
3359,0.0081,0.0164,0.0174,0.0034
3360,0.0046,0.0116,0.0106,0.0036
3361,0.0057,0.0108,0.0091,0.0035
3362,0.0052,0.0137,0.0139,0.0037
3363,0.0046,0.0116,0.0106,0.0036
3364,0.0046,0.0116,0.0106,0.0036
3365,0.0052,0.0137,0.0139,0.0037
3366,0.0057,0.0108,0.0091,0.0035
3367,0.0137,0.0222,0.0197,0.0037
3368,0.0046,0.0116,0.0106,0.0036
3369,0.0052,0.0137,0.0139,0.0037
3370,0.0046,0.0116,0.0106,0.0036
3371,0.0075,0.0153,0.0156,0.0030
3372,0.0057,0.0108,0.0091,0.0035
3373,0.0046,0.0116,0.0106,0.0036
3374,0.0046,0.0116,0.0106,0.0036
3375,0.0052,0.0137,0.0139,0.0037
3376,0.0046,0.0116,0.0106,0.0036
3377,0.0057,0.0108,0.0091,0.0035
3378,0.0155,0.0218,0.0203,0.0042
3379,0.0143,0.0253,0.0204,0.0050
3380,0.0052,0.0137,0.0139,0.0037
3381,0.0046,0.0116,0.0106,0.0036
3382,0.0046,0.0116,0.0106,0.0036
3383,0.0052,0.0137,0.0139,0.0037
3384,0.0075,0.0173,0.0176,0.0030
3385,0.0046,0.0116,0.0106,0.0036
3386,0.0052,0.0137,0.0139,0.0037
3387,0.0046,0.0116,0.0106,0.0036
3388,0.0046,0.0116,0.0106,0.0036
3389,0.0057,0.0108,0.0091,0.0035
3390,0.0125,0.0169,0.0213,0.0051
3391,0.0062,0.0098,0.0130,0.0062
3392,0.0077,0.0103,0.0137,0.0054
3393,0.0072,0.0140,0.0174,0.0051
3394,0.0090,0.0129,0.0153,0.0048
3395,0.0070,0.0165,0.0174,0.0028
3396,0.0090,0.0225,0.0229,0.0033
3397,0.0075,0.0131,0.0131,0.0051
3398,0.0068,0.0126,0.0119,0.0053
3399,0.0071,0.0153,0.0155,0.0054
3400,0.0060,0.0116,0.0107,0.0051
3401,0.0134,0.0166,0.0196,0.0051
3402,0.0051,0.0121,0.0110,0.0044
3403,0.0052,0.0136,0.0140,0.0033
3404,0.0066,0.0108,0.0095,0.0031
3405,0.0064,0.0137,0.0115,0.0031
3406,0.0075,0.0154,0.0136,0.0030
3407,0.0072,0.0142,0.0140,0.0032
3408,0.0083,0.0222,0.0215,0.0036
3409,0.0087,0.0171,0.0181,0.0031
3410,0.0078,0.0167,0.0169,0.0030
3411,0.0081,0.0215,0.0213,0.0032
3412,0.0138,0.0177,0.0195,0.0051
3413,0.0088,0.0253,0.0248,0.0035
3414,0.0084,0.0289,0.0279,0.0039
3415,0.0047,0.0229,0.0225,0.0166
3416,0.0035,0.0194,0.0183,0.0145
3417,0.0050,0.0303,0.0276,0.0233
3418,0.0062,0.0115,0.0217,0.0194
3419,0.0043,0.0133,0.0188,0.0217
3420,0.0056,0.0177,0.0196,0.0230
3421,0.0083,0.0225,0.0227,0.0233
3422,0.0109,0.0291,0.0275,0.0236
3423,0.0128,0.0175,0.0183,0.0049
3424,0.0063,0.0096,0.0091,0.0034
3425,0.0063,0.0096,0.0091,0.0034
3426,0.0063,0.0125,0.0130,0.0035
3427,0.0078,0.0096,0.0093,0.0030
3428,0.0093,0.0083,0.0081,0.0030
3429,0.0079,0.0127,0.0125,0.0031
3430,0.0084,0.0127,0.0110,0.0030
3431,0.0080,0.0121,0.0112,0.0030
3432,0.0077,0.0146,0.0161,0.0032
3433,0.0071,0.0155,0.0173,0.0028
3434,0.0129,0.0180,0.0185,0.0045
3435,0.0077,0.0192,0.0206,0.0030
3436,0.0091,0.0263,0.0270,0.0032
3437,0.0082,0.0259,0.0264,0.0033
3438,0.0082,0.0313,0.0304,0.0035
3439,0.0108,0.0084,0.0076,0.0031
3440,0.0051,0.0502,0.0472,0.0344
3441,0.0034,0.0432,0.0398,0.0341
3442,0.0043,0.0390,0.0365,0.0308
3443,0.0050,0.0405,0.0382,0.0303
3444,0.0056,0.0438,0.0439,0.0286
3445,0.0106,0.0159,0.0130,0.0042
3446,0.0061,0.0389,0.0409,0.0212
3447,0.0043,0.0284,0.0318,0.0172
3448,0.0061,0.0161,0.0195,0.0121
3449,0.0067,0.0152,0.0171,0.0087
3450,0.0090,0.0151,0.0171,0.0063
3451,0.0084,0.0127,0.0110,0.0030
3452,0.0063,0.0185,0.0209,0.0034
3453,0.0074,0.0167,0.0173,0.0035
3454,0.0062,0.0139,0.0135,0.0043
3455,0.0070,0.0150,0.0171,0.0079
3456,0.0129,0.0192,0.0148,0.0045
3457,0.0081,0.0136,0.0136,0.0085
3458,0.0095,0.0128,0.0122,0.0094
3459,0.0113,0.0217,0.0239,0.0054
3460,0.0126,0.0173,0.0170,0.0085
3461,0.0130,0.0175,0.0163,0.0140
3462,0.0108,0.0325,0.0316,0.0123
3463,0.0080,0.0121,0.0112,0.0030
3464,0.0063,0.0096,0.0091,0.0034
3465,0.0063,0.0125,0.0130,0.0035
3466,0.0075,0.0082,0.0073,0.0033
3467,0.0159,0.0238,0.0189,0.0049
3468,0.0063,0.0096,0.0091,0.0034
3469,0.0063,0.0125,0.0130,0.0035
3470,0.0063,0.0096,0.0091,0.0034
3471,0.0063,0.0096,0.0091,0.0034
3472,0.0075,0.0082,0.0073,0.0033
3473,0.0063,0.0096,0.0091,0.0034
3474,0.0063,0.0096,0.0091,0.0034
3475,0.0077,0.0146,0.0161,0.0032
3476,0.0063,0.0096,0.0091,0.0034
3477,0.0075,0.0082,0.0073,0.0033
3478,0.0160,0.0237,0.0203,0.0047
3479,0.0063,0.0125,0.0130,0.0035
3480,0.0063,0.0096,0.0091,0.0034
3481,0.0063,0.0096,0.0091,0.0034
3482,0.0063,0.0125,0.0130,0.0035
3483,0.0075,0.0082,0.0073,0.0033
3484,0.0063,0.0096,0.0091,0.0034
3485,0.0063,0.0125,0.0130,0.0035
3486,0.0063,0.0096,0.0091,0.0034
3487,0.0073,0.0150,0.0162,0.0030
3488,0.0075,0.0082,0.0073,0.0033
3489,0.0137,0.0222,0.0197,0.0037
3490,0.0155,0.0218,0.0203,0.0042
3491,0.0063,0.0096,0.0091,0.0034
3492,0.0063,0.0096,0.0091,0.0034
3493,0.0063,0.0125,0.0130,0.0035
3494,0.0063,0.0096,0.0091,0.0034
3495,0.0075,0.0082,0.0073,0.0033
3496,0.0063,0.0125,0.0130,0.0035
3497,0.0063,0.0096,0.0091,0.0034
3498,0.0063,0.0096,0.0091,0.0034
3499,0.0063,0.0125,0.0130,0.0035
3500,0.0075,0.0188,0.0205,0.0029
3501,0.0143,0.0269,0.0211,0.0060
3502,0.0063,0.0096,0.0091,0.0034
3503,0.0063,0.0125,0.0130,0.0035
3504,0.0063,0.0096,0.0091,0.0034
3505,0.0063,0.0096,0.0091,0.0034
3506,0.0075,0.0082,0.0073,0.0033
3507,0.0091,0.0096,0.0123,0.0064
3508,0.0113,0.0095,0.0112,0.0054
3509,0.0103,0.0132,0.0156,0.0051
3510,0.0125,0.0113,0.0117,0.0047
3511,0.0071,0.0155,0.0173,0.0028
3512,0.0146,0.0221,0.0198,0.0039
3513,0.0091,0.0263,0.0270,0.0032
3514,0.0106,0.0116,0.0104,0.0050
3515,0.0093,0.0110,0.0097,0.0052
3516,0.0080,0.0134,0.0138,0.0053
3517,0.0074,0.0079,0.0075,0.0049
3518,0.0062,0.0100,0.0093,0.0043
3519,0.0069,0.0127,0.0136,0.0031
3520,0.0090,0.0095,0.0088,0.0031
3521,0.0084,0.0127,0.0110,0.0030
3522,0.0090,0.0146,0.0135,0.0028
3523,0.0143,0.0234,0.0204,0.0042
3524,0.0071,0.0121,0.0125,0.0030
3525,0.0082,0.0259,0.0264,0.0033
3526,0.0084,0.0169,0.0183,0.0031
3527,0.0077,0.0192,0.0206,0.0030
3528,0.0080,0.0224,0.0232,0.0030
3529,0.0088,0.0291,0.0292,0.0034
3530,0.0082,0.0313,0.0304,0.0035
3531,0.0051,0.0502,0.0472,0.0344
3532,0.0039,0.0432,0.0402,0.0324
3533,0.0044,0.0433,0.0401,0.0350
3534,0.0140,0.0263,0.0208,0.0050
3535,0.0068,0.0170,0.0350,0.0282
3536,0.0043,0.0191,0.0313,0.0331
3537,0.0053,0.0257,0.0324,0.0359
3538,0.0079,0.0333,0.0363,0.0365
3539,0.0104,0.0426,0.0430,0.0366
3540,0.0073,0.0090,0.0088,0.0033
3541,0.0073,0.0090,0.0088,0.0033
3542,0.0071,0.0121,0.0128,0.0034
3543,0.0095,0.0102,0.0098,0.0030
3544,0.0109,0.0089,0.0085,0.0029
3545,0.0143,0.0269,0.0211,0.0060
3546,0.0091,0.0127,0.0126,0.0032
3547,0.0093,0.0124,0.0109,0.0030
3548,0.0085,0.0117,0.0108,0.0030
3549,0.0077,0.0136,0.0152,0.0031
3550,0.0071,0.0181,0.0204,0.0028
3551,0.0077,0.0197,0.0212,0.0030
3552,0.0090,0.0275,0.0283,0.0032
3553,0.0082,0.0279,0.0280,0.0032
3554,0.0082,0.0334,0.0329,0.0035
3555,0.0118,0.0080,0.0076,0.0032
3556,0.0142,0.0307,0.0248,0.0070
3557,0.0054,0.0652,0.0606,0.0435
3558,0.0037,0.0564,0.0525,0.0421
3559,0.0045,0.0534,0.0502,0.0384
3560,0.0050,0.0516,0.0499,0.0363
3561,0.0056,0.0533,0.0540,0.0333
3562,0.0063,0.0471,0.0498,0.0253
3563,0.0042,0.0350,0.0393,0.0202
3564,0.0063,0.0193,0.0241,0.0141
3565,0.0074,0.0154,0.0180,0.0097
3566,0.0095,0.0153,0.0181,0.0067
3567,0.0086,0.0729,0.0624,0.0450
3568,0.0093,0.0124,0.0109,0.0030
3569,0.0068,0.0175,0.0203,0.0035
3570,0.0080,0.0160,0.0168,0.0035
3571,0.0064,0.0135,0.0134,0.0043
3572,0.0069,0.0150,0.0174,0.0078
3573,0.0079,0.0132,0.0132,0.0085
3574,0.0095,0.0122,0.0115,0.0096
3575,0.0115,0.0204,0.0225,0.0055
3576,0.0129,0.0155,0.0153,0.0085
3577,0.0138,0.0179,0.0164,0.0146
3578,0.0075,0.0698,0.0642,0.0385
3579,0.0125,0.0362,0.0344,0.0150
3580,0.0085,0.0117,0.0108,0.0030
3581,0.0073,0.0090,0.0088,0.0033
3582,0.0071,0.0121,0.0128,0.0034
3583,0.0086,0.0074,0.0067,0.0032
3584,0.0073,0.0090,0.0088,0.0033
3585,0.0071,0.0121,0.0128,0.0034
3586,0.0073,0.0090,0.0088,0.0033
3587,0.0073,0.0090,0.0088,0.0033
3588,0.0086,0.0074,0.0067,0.0032
3589,0.0079,0.0697,0.0675,0.0365
3590,0.0073,0.0090,0.0088,0.0033
3591,0.0073,0.0090,0.0088,0.0033
3592,0.0077,0.0136,0.0152,0.0031
3593,0.0073,0.0090,0.0088,0.0033
3594,0.0086,0.0074,0.0067,0.0032
3595,0.0071,0.0121,0.0128,0.0034
3596,0.0073,0.0090,0.0088,0.0033
3597,0.0073,0.0090,0.0088,0.0033
3598,0.0071,0.0121,0.0128,0.0034
3599,0.0086,0.0074,0.0067,0.0032
Total Error Summary
Vdc  RMSE=  0.0077
Idc  RMSE=  0.0219
Id   RMSE=  0.0216
Iq   RMSE=  0.0112
