Read Model from: ./ucf10/
Export Model to: ./ucf10/ucf10_fhf.json
idx_in [0, 1, 2, 3, 4, 5, 6]
idx_out [7, 8, 9, 10]
make_mimo_block stable2nd
H1s[0][0]  Real Poles: [-770.35707235 -770.35707235] Freqs [Hz]: [54.73205490927438]
H1s[0][1]  Real Poles: [-876.48697942 -876.48697942] Freqs [Hz]: [58.561846455120524]
H1s[0][2]  Real Poles: [-891.8588385 -891.8588385] Freqs [Hz]: [67.40892738780903]
H1s[0][3]  Real Poles: [-1020.21788061 -1020.21788061] Freqs [Hz]: [78.85276945122229]
H1s[1][0]  Real Poles: [-862.18972504 -862.18972504] Freqs [Hz]: [64.52351126218568]
H1s[1][1]  Real Poles: [-820.20360231 -820.20360231] Freqs [Hz]: [65.01919116360806]
H1s[1][2]  Real Poles: [-712.82276511 -712.82276511] Freqs [Hz]: [65.60377531359512]
H1s[1][3]  Real Poles: [-865.45793712 -865.45793712] Freqs [Hz]: [55.12438502616932]
H1s[2][0]  Real Poles: [-896.79231495 -896.79231495] Freqs [Hz]: [58.10651164576879]
H1s[2][1]  Real Poles: [-760.48180461 -760.48180461] Freqs [Hz]: [50.94477326484753]
H1s[2][2]  Real Poles: [-963.47677335 -963.47677335] Freqs [Hz]: [82.968697815056]
H1s[2][3]  Real Poles: [-940.85966423 -940.85966423] Freqs [Hz]: [75.65486863330696]
H1s[3][0]  Real Poles: [-510.35693288 -510.35693288] Freqs [Hz]: [71.73691313167252]
H1s[3][1]  Real Poles: [-322.14403152 -322.14403152] Freqs [Hz]: [66.27623670343073]
H1s[3][2]  Real Poles: [-819.97840106 -819.97840106] Freqs [Hz]: [66.09692712471873]
H1s[3][3]  Real Poles: [-810.07388234 -810.07388234] Freqs [Hz]: [83.74092024795087]
model_folder = ./ucf10/
model_root = ucf10
data_path = d:/data/ucf3/ucf9.hdf5
idx_in [0, 1, 2, 3, 4, 5, 6]
idx_out [7, 8, 9, 10]
read 2100 dataframes
dt=0.001000 data_len=4001 n_io=11 n_case=2100
['G', 'Ud', 'Uq', 'Vd', 'Vq', 'GVrms', 'Ctrl'] ['Vdc', 'Idc', 'Id', 'Iq'] (2100, 4001, 11)
make_mimo_block stable2nd
Idx,Vdc,Idc,Id,Iq,Vdc,Idc,Id,Iq
,RMSE,RMSE,RMSE,RMSE,MAE,MAE,MAE,MAE
Total,0.0136,0.0150,0.0145,0.0056,0.0033,0.0076,0.0077,0.0030
0,0.0134,0.0116,0.0099,0.0027,0.0033,0.0051,0.0051,0.0021
1,0.0134,0.0116,0.0099,0.0027,0.0033,0.0051,0.0051,0.0021
2,0.0141,0.0199,0.0168,0.0033,0.0043,0.0099,0.0104,0.0023
3,0.0143,0.0162,0.0121,0.0069,0.0055,0.0072,0.0064,0.0050
4,0.0133,0.0077,0.0082,0.0016,0.0031,0.0040,0.0046,0.0013
5,0.0136,0.0096,0.0105,0.0025,0.0036,0.0059,0.0069,0.0021
6,0.0133,0.0077,0.0082,0.0016,0.0031,0.0040,0.0046,0.0013
7,0.0135,0.0096,0.0101,0.0021,0.0026,0.0051,0.0056,0.0017
8,0.0134,0.0093,0.0107,0.0024,0.0024,0.0053,0.0062,0.0021
9,0.0133,0.0077,0.0082,0.0016,0.0031,0.0040,0.0046,0.0013
10,0.0133,0.0077,0.0082,0.0016,0.0031,0.0040,0.0046,0.0013
11,0.0136,0.0096,0.0105,0.0025,0.0036,0.0059,0.0069,0.0021
12,0.0133,0.0077,0.0082,0.0016,0.0031,0.0040,0.0046,0.0013
13,0.0134,0.0093,0.0107,0.0024,0.0024,0.0053,0.0062,0.0021
14,0.0143,0.0162,0.0121,0.0069,0.0055,0.0072,0.0064,0.0050
15,0.0136,0.0096,0.0105,0.0025,0.0036,0.0059,0.0069,0.0021
16,0.0133,0.0077,0.0082,0.0016,0.0031,0.0040,0.0046,0.0013
17,0.0133,0.0077,0.0082,0.0016,0.0031,0.0040,0.0046,0.0013
18,0.0136,0.0096,0.0105,0.0025,0.0036,0.0059,0.0069,0.0021
19,0.0138,0.0114,0.0114,0.0031,0.0032,0.0062,0.0064,0.0022
20,0.0133,0.0077,0.0082,0.0016,0.0031,0.0040,0.0046,0.0013
21,0.0136,0.0096,0.0105,0.0025,0.0036,0.0059,0.0069,0.0021
22,0.0133,0.0077,0.0082,0.0016,0.0031,0.0040,0.0046,0.0013
23,0.0133,0.0077,0.0082,0.0016,0.0031,0.0040,0.0046,0.0013
24,0.0134,0.0093,0.0107,0.0024,0.0024,0.0053,0.0062,0.0021
25,0.0143,0.0162,0.0121,0.0069,0.0055,0.0072,0.0064,0.0050
26,0.0142,0.0139,0.0214,0.0032,0.0051,0.0076,0.0120,0.0019
27,0.0137,0.0122,0.0175,0.0024,0.0040,0.0076,0.0105,0.0016
28,0.0137,0.0192,0.0295,0.0042,0.0040,0.0121,0.0185,0.0032
29,0.0135,0.0112,0.0145,0.0017,0.0032,0.0067,0.0090,0.0012
30,0.0138,0.0114,0.0105,0.0035,0.0038,0.0068,0.0058,0.0031
31,0.0141,0.0152,0.0156,0.0035,0.0036,0.0104,0.0110,0.0029
32,0.0136,0.0103,0.0109,0.0019,0.0038,0.0060,0.0064,0.0015
33,0.0137,0.0098,0.0097,0.0020,0.0041,0.0055,0.0054,0.0015
34,0.0135,0.0114,0.0121,0.0027,0.0029,0.0072,0.0076,0.0021
35,0.0136,0.0074,0.0073,0.0022,0.0039,0.0035,0.0035,0.0018
36,0.0143,0.0162,0.0121,0.0069,0.0055,0.0072,0.0064,0.0050
37,0.0134,0.0091,0.0096,0.0015,0.0034,0.0052,0.0056,0.0012
38,0.0135,0.0105,0.0121,0.0027,0.0035,0.0071,0.0087,0.0023
39,0.0132,0.0077,0.0076,0.0020,0.0018,0.0039,0.0038,0.0016
40,0.0132,0.0084,0.0085,0.0023,0.0021,0.0043,0.0047,0.0019
41,0.0139,0.0111,0.0096,0.0049,0.0046,0.0071,0.0056,0.0039
42,0.0135,0.0105,0.0109,0.0027,0.0027,0.0066,0.0071,0.0021
43,0.0137,0.0119,0.0113,0.0027,0.0026,0.0058,0.0054,0.0022
44,0.0139,0.0090,0.0090,0.0024,0.0032,0.0049,0.0052,0.0019
45,0.0136,0.0100,0.0102,0.0015,0.0023,0.0052,0.0054,0.0011
46,0.0138,0.0160,0.0156,0.0036,0.0033,0.0095,0.0093,0.0027
47,0.0143,0.0162,0.0121,0.0069,0.0055,0.0072,0.0064,0.0050
48,0.0142,0.0120,0.0124,0.0037,0.0037,0.0066,0.0071,0.0030
49,0.0138,0.0141,0.0137,0.0050,0.0031,0.0071,0.0074,0.0039
50,0.0148,0.0248,0.0194,0.0185,0.0059,0.0177,0.0135,0.0131
51,0.0138,0.0240,0.0207,0.0175,0.0041,0.0171,0.0147,0.0127
52,0.0136,0.0142,0.0116,0.0089,0.0037,0.0093,0.0073,0.0064
53,0.0136,0.0142,0.0116,0.0089,0.0037,0.0093,0.0073,0.0064
54,0.0136,0.0142,0.0116,0.0089,0.0037,0.0093,0.0073,0.0064
55,0.0136,0.0142,0.0116,0.0089,0.0037,0.0093,0.0073,0.0064
56,0.0136,0.0142,0.0116,0.0089,0.0037,0.0093,0.0073,0.0064
57,0.0136,0.0142,0.0116,0.0089,0.0037,0.0093,0.0073,0.0064
58,0.0134,0.0104,0.0089,0.0026,0.0033,0.0046,0.0047,0.0021
59,0.0132,0.0137,0.0124,0.0013,0.0022,0.0075,0.0065,0.0009
60,0.0132,0.0137,0.0124,0.0013,0.0022,0.0075,0.0065,0.0009
61,0.0135,0.0107,0.0093,0.0031,0.0030,0.0055,0.0057,0.0025
62,0.0131,0.0121,0.0108,0.0024,0.0018,0.0069,0.0062,0.0017
63,0.0135,0.0159,0.0126,0.0029,0.0030,0.0088,0.0076,0.0024
64,0.0136,0.0133,0.0125,0.0034,0.0033,0.0084,0.0085,0.0027
65,0.0131,0.0143,0.0117,0.0027,0.0019,0.0084,0.0070,0.0019
66,0.0133,0.0145,0.0108,0.0023,0.0024,0.0078,0.0063,0.0018
67,0.0139,0.0139,0.0122,0.0036,0.0041,0.0089,0.0084,0.0029
68,0.0138,0.0170,0.0140,0.0050,0.0038,0.0094,0.0093,0.0036
69,0.0134,0.0104,0.0089,0.0026,0.0033,0.0046,0.0047,0.0021
70,0.0136,0.0161,0.0132,0.0031,0.0031,0.0084,0.0078,0.0021
71,0.0144,0.0180,0.0147,0.0041,0.0051,0.0109,0.0097,0.0033
72,0.0136,0.0182,0.0139,0.0042,0.0026,0.0099,0.0078,0.0030
73,0.0138,0.0259,0.0208,0.0052,0.0032,0.0147,0.0122,0.0037
74,0.0137,0.0162,0.0123,0.0035,0.0042,0.0094,0.0079,0.0026
75,0.0141,0.0205,0.0173,0.0136,0.0042,0.0113,0.0109,0.0090
76,0.0135,0.0188,0.0133,0.0107,0.0031,0.0091,0.0066,0.0070
77,0.0136,0.0207,0.0189,0.0133,0.0032,0.0138,0.0129,0.0086
78,0.0133,0.0149,0.0121,0.0053,0.0024,0.0069,0.0059,0.0034
79,0.0139,0.0191,0.0168,0.0049,0.0047,0.0113,0.0119,0.0033
80,0.0134,0.0104,0.0089,0.0026,0.0033,0.0046,0.0047,0.0021
81,0.0137,0.0155,0.0145,0.0096,0.0032,0.0098,0.0088,0.0055
82,0.0134,0.0147,0.0139,0.0036,0.0028,0.0089,0.0085,0.0022
83,0.0134,0.0159,0.0144,0.0038,0.0027,0.0096,0.0086,0.0028
84,0.0137,0.0122,0.0121,0.0079,0.0034,0.0071,0.0083,0.0058
85,0.0136,0.0173,0.0156,0.0034,0.0036,0.0111,0.0105,0.0027
86,0.0131,0.0143,0.0117,0.0027,0.0019,0.0084,0.0070,0.0019
87,0.0136,0.0158,0.0144,0.0030,0.0037,0.0102,0.0099,0.0023
88,0.0134,0.0233,0.0213,0.0052,0.0030,0.0119,0.0108,0.0037
89,0.0134,0.0206,0.0187,0.0051,0.0030,0.0085,0.0073,0.0036
90,0.0143,0.0346,0.0325,0.0086,0.0058,0.0198,0.0188,0.0054
91,0.0133,0.0128,0.0115,0.0024,0.0026,0.0073,0.0074,0.0019
92,0.0133,0.0213,0.0196,0.0057,0.0024,0.0115,0.0099,0.0034
93,0.0132,0.0235,0.0216,0.0069,0.0023,0.0135,0.0117,0.0041
94,0.0146,0.0242,0.0251,0.0099,0.0061,0.0165,0.0169,0.0065
95,0.0133,0.0330,0.0316,0.0128,0.0023,0.0180,0.0179,0.0066
96,0.0143,0.0548,0.0489,0.0214,0.0055,0.0309,0.0269,0.0127
97,0.0141,0.0219,0.0203,0.0136,0.0049,0.0130,0.0130,0.0081
98,0.0133,0.0145,0.0108,0.0023,0.0024,0.0078,0.0063,0.0018
99,0.0132,0.0137,0.0124,0.0013,0.0022,0.0075,0.0065,0.0009
100,0.0135,0.0107,0.0093,0.0031,0.0030,0.0055,0.0057,0.0025
101,0.0136,0.0161,0.0140,0.0024,0.0035,0.0087,0.0080,0.0020
102,0.0134,0.0175,0.0164,0.0030,0.0030,0.0087,0.0091,0.0022
103,0.0132,0.0137,0.0124,0.0013,0.0022,0.0075,0.0065,0.0009
104,0.0135,0.0107,0.0093,0.0031,0.0030,0.0055,0.0057,0.0025
105,0.0132,0.0137,0.0124,0.0013,0.0022,0.0075,0.0065,0.0009
106,0.0132,0.0137,0.0124,0.0013,0.0022,0.0075,0.0065,0.0009
107,0.0136,0.0161,0.0140,0.0024,0.0035,0.0087,0.0080,0.0020
108,0.0132,0.0137,0.0124,0.0013,0.0022,0.0075,0.0065,0.0009
109,0.0132,0.0137,0.0124,0.0013,0.0022,0.0075,0.0065,0.0009
110,0.0139,0.0139,0.0122,0.0036,0.0041,0.0089,0.0084,0.0029
111,0.0132,0.0137,0.0124,0.0013,0.0022,0.0075,0.0065,0.0009
112,0.0136,0.0161,0.0140,0.0024,0.0035,0.0087,0.0080,0.0020
113,0.0142,0.0187,0.0145,0.0038,0.0042,0.0075,0.0077,0.0027
114,0.0134,0.0125,0.0102,0.0024,0.0026,0.0063,0.0057,0.0020
115,0.0135,0.0107,0.0093,0.0031,0.0030,0.0055,0.0057,0.0025
116,0.0132,0.0137,0.0124,0.0013,0.0022,0.0075,0.0065,0.0009
117,0.0132,0.0137,0.0124,0.0013,0.0022,0.0075,0.0065,0.0009
118,0.0135,0.0107,0.0093,0.0031,0.0030,0.0055,0.0057,0.0025
119,0.0136,0.0161,0.0140,0.0024,0.0035,0.0087,0.0080,0.0020
120,0.0132,0.0137,0.0124,0.0013,0.0022,0.0075,0.0065,0.0009
121,0.0135,0.0107,0.0093,0.0031,0.0030,0.0055,0.0057,0.0025
122,0.0132,0.0137,0.0124,0.0013,0.0022,0.0075,0.0065,0.0009
123,0.0136,0.0152,0.0115,0.0026,0.0030,0.0078,0.0066,0.0019
124,0.0136,0.0161,0.0140,0.0024,0.0035,0.0087,0.0080,0.0020
125,0.0135,0.0130,0.0107,0.0021,0.0028,0.0053,0.0048,0.0017
126,0.0132,0.0137,0.0124,0.0013,0.0022,0.0075,0.0065,0.0009
127,0.0132,0.0137,0.0124,0.0013,0.0022,0.0075,0.0065,0.0009
128,0.0135,0.0107,0.0093,0.0031,0.0030,0.0055,0.0057,0.0025
129,0.0132,0.0137,0.0124,0.0013,0.0022,0.0075,0.0065,0.0009
130,0.0136,0.0161,0.0140,0.0024,0.0035,0.0087,0.0080,0.0020
131,0.0135,0.0107,0.0093,0.0031,0.0030,0.0055,0.0057,0.0025
132,0.0132,0.0137,0.0124,0.0013,0.0022,0.0075,0.0065,0.0009
133,0.0132,0.0137,0.0124,0.0013,0.0022,0.0075,0.0065,0.0009
134,0.0135,0.0107,0.0093,0.0031,0.0030,0.0055,0.0057,0.0025
135,0.0139,0.0179,0.0128,0.0048,0.0040,0.0101,0.0079,0.0033
136,0.0136,0.0151,0.0134,0.0019,0.0036,0.0055,0.0062,0.0015
137,0.0132,0.0137,0.0124,0.0013,0.0022,0.0075,0.0065,0.0009
138,0.0135,0.0107,0.0093,0.0031,0.0030,0.0055,0.0057,0.0025
139,0.0132,0.0137,0.0124,0.0013,0.0022,0.0075,0.0065,0.0009
140,0.0132,0.0137,0.0124,0.0013,0.0022,0.0075,0.0065,0.0009
141,0.0136,0.0161,0.0140,0.0024,0.0035,0.0087,0.0080,0.0020
142,0.0136,0.0132,0.0217,0.0039,0.0030,0.0060,0.0116,0.0026
143,0.0134,0.0174,0.0248,0.0025,0.0023,0.0094,0.0132,0.0017
144,0.0138,0.0127,0.0189,0.0086,0.0036,0.0067,0.0120,0.0061
145,0.0133,0.0195,0.0236,0.0020,0.0018,0.0097,0.0118,0.0015
146,0.0138,0.0170,0.0140,0.0050,0.0038,0.0094,0.0093,0.0036
147,0.0139,0.0163,0.0147,0.0020,0.0040,0.0067,0.0079,0.0015
148,0.0144,0.0180,0.0147,0.0041,0.0051,0.0109,0.0097,0.0033
149,0.0132,0.0164,0.0169,0.0034,0.0022,0.0077,0.0072,0.0024
150,0.0133,0.0147,0.0141,0.0036,0.0024,0.0070,0.0063,0.0026
151,0.0135,0.0143,0.0153,0.0038,0.0031,0.0072,0.0076,0.0029
152,0.0138,0.0139,0.0118,0.0023,0.0043,0.0080,0.0069,0.0020
153,0.0132,0.0139,0.0121,0.0015,0.0025,0.0078,0.0069,0.0012
154,0.0135,0.0127,0.0120,0.0032,0.0032,0.0082,0.0086,0.0026
155,0.0131,0.0134,0.0118,0.0030,0.0021,0.0079,0.0070,0.0020
156,0.0131,0.0143,0.0117,0.0027,0.0019,0.0084,0.0070,0.0019
157,0.0140,0.0192,0.0175,0.0046,0.0049,0.0118,0.0115,0.0034
158,0.0142,0.0179,0.0140,0.0064,0.0051,0.0090,0.0076,0.0048
159,0.0135,0.0137,0.0096,0.0023,0.0028,0.0071,0.0055,0.0018
160,0.0136,0.0182,0.0139,0.0042,0.0026,0.0099,0.0078,0.0030
161,0.0141,0.0154,0.0123,0.0035,0.0044,0.0095,0.0084,0.0028
162,0.0136,0.0161,0.0132,0.0031,0.0031,0.0084,0.0078,0.0021
163,0.0142,0.0279,0.0215,0.0045,0.0051,0.0166,0.0136,0.0033
164,0.0145,0.0157,0.0129,0.0044,0.0052,0.0092,0.0081,0.0035
165,0.0138,0.0259,0.0208,0.0052,0.0032,0.0147,0.0122,0.0037
166,0.0141,0.0205,0.0173,0.0136,0.0042,0.0113,0.0109,0.0090
167,0.0136,0.0211,0.0181,0.0182,0.0034,0.0126,0.0113,0.0130
168,0.0140,0.0166,0.0130,0.0099,0.0049,0.0087,0.0080,0.0067
169,0.0141,0.0173,0.0148,0.0028,0.0042,0.0084,0.0090,0.0021
170,0.0140,0.0166,0.0130,0.0099,0.0049,0.0087,0.0080,0.0067
171,0.0140,0.0166,0.0130,0.0099,0.0049,0.0087,0.0080,0.0067
172,0.0140,0.0166,0.0130,0.0099,0.0049,0.0087,0.0080,0.0067
173,0.0140,0.0166,0.0130,0.0099,0.0049,0.0087,0.0080,0.0067
174,0.0140,0.0166,0.0130,0.0099,0.0049,0.0087,0.0080,0.0067
175,0.0131,0.0094,0.0079,0.0014,0.0021,0.0048,0.0039,0.0010
176,0.0131,0.0094,0.0079,0.0014,0.0021,0.0048,0.0039,0.0010
177,0.0135,0.0095,0.0079,0.0022,0.0030,0.0046,0.0043,0.0017
178,0.0131,0.0103,0.0093,0.0012,0.0017,0.0057,0.0051,0.0008
179,0.0135,0.0142,0.0122,0.0027,0.0031,0.0082,0.0079,0.0021
180,0.0142,0.0173,0.0145,0.0032,0.0041,0.0075,0.0081,0.0024
181,0.0136,0.0111,0.0102,0.0021,0.0032,0.0068,0.0071,0.0016
182,0.0131,0.0132,0.0114,0.0014,0.0018,0.0077,0.0069,0.0010
183,0.0133,0.0131,0.0105,0.0015,0.0023,0.0069,0.0062,0.0011
184,0.0138,0.0113,0.0097,0.0023,0.0038,0.0072,0.0066,0.0017
185,0.0139,0.0171,0.0147,0.0043,0.0041,0.0108,0.0097,0.0031
186,0.0136,0.0150,0.0121,0.0018,0.0030,0.0078,0.0068,0.0013
187,0.0142,0.0169,0.0151,0.0036,0.0047,0.0104,0.0101,0.0026
188,0.0136,0.0154,0.0130,0.0029,0.0027,0.0081,0.0071,0.0022
189,0.0137,0.0199,0.0178,0.0043,0.0030,0.0110,0.0101,0.0029
190,0.0138,0.0144,0.0115,0.0034,0.0043,0.0081,0.0070,0.0026
191,0.0142,0.0166,0.0140,0.0036,0.0039,0.0077,0.0074,0.0027
192,0.0141,0.0215,0.0203,0.0120,0.0042,0.0137,0.0133,0.0067
193,0.0134,0.0178,0.0140,0.0092,0.0030,0.0087,0.0072,0.0060
194,0.0136,0.0210,0.0186,0.0125,0.0030,0.0142,0.0124,0.0069
195,0.0132,0.0148,0.0131,0.0050,0.0019,0.0074,0.0069,0.0033
196,0.0137,0.0181,0.0173,0.0049,0.0039,0.0106,0.0121,0.0034
197,0.0136,0.0169,0.0148,0.0103,0.0030,0.0117,0.0092,0.0069
198,0.0133,0.0131,0.0127,0.0051,0.0023,0.0074,0.0074,0.0036
199,0.0134,0.0141,0.0139,0.0034,0.0024,0.0084,0.0084,0.0024
200,0.0137,0.0111,0.0108,0.0048,0.0035,0.0059,0.0070,0.0037
201,0.0136,0.0147,0.0135,0.0022,0.0034,0.0094,0.0090,0.0017
202,0.0142,0.0193,0.0178,0.0039,0.0036,0.0100,0.0102,0.0029
203,0.0131,0.0132,0.0114,0.0014,0.0018,0.0077,0.0069,0.0010
204,0.0136,0.0143,0.0134,0.0032,0.0038,0.0084,0.0085,0.0023
205,0.0133,0.0198,0.0185,0.0053,0.0028,0.0081,0.0071,0.0037
206,0.0133,0.0196,0.0187,0.0057,0.0028,0.0070,0.0076,0.0040
207,0.0142,0.0295,0.0275,0.0080,0.0056,0.0173,0.0161,0.0051
208,0.0132,0.0218,0.0213,0.0056,0.0021,0.0126,0.0117,0.0033
209,0.0132,0.0224,0.0212,0.0065,0.0022,0.0136,0.0120,0.0039
210,0.0147,0.0242,0.0261,0.0098,0.0062,0.0166,0.0179,0.0065
211,0.0133,0.0288,0.0275,0.0112,0.0025,0.0165,0.0164,0.0059
212,0.0140,0.0420,0.0377,0.0197,0.0047,0.0237,0.0216,0.0125
213,0.0136,0.0190,0.0166,0.0039,0.0041,0.0093,0.0081,0.0029
214,0.0142,0.0220,0.0206,0.0128,0.0051,0.0135,0.0134,0.0078
215,0.0133,0.0131,0.0105,0.0015,0.0023,0.0069,0.0062,0.0011
216,0.0131,0.0094,0.0079,0.0014,0.0021,0.0048,0.0039,0.0010
217,0.0135,0.0095,0.0079,0.0022,0.0030,0.0046,0.0043,0.0017
218,0.0136,0.0117,0.0095,0.0021,0.0035,0.0062,0.0055,0.0017
219,0.0131,0.0094,0.0079,0.0014,0.0021,0.0048,0.0039,0.0010
220,0.0135,0.0095,0.0079,0.0022,0.0030,0.0046,0.0043,0.0017
221,0.0131,0.0094,0.0079,0.0014,0.0021,0.0048,0.0039,0.0010
222,0.0131,0.0094,0.0079,0.0014,0.0021,0.0048,0.0039,0.0010
223,0.0136,0.0117,0.0095,0.0021,0.0035,0.0062,0.0055,0.0017
224,0.0142,0.0186,0.0141,0.0042,0.0038,0.0084,0.0074,0.0031
225,0.0147,0.0200,0.0165,0.0100,0.0057,0.0122,0.0111,0.0068
226,0.0131,0.0094,0.0079,0.0014,0.0021,0.0048,0.0039,0.0010
227,0.0131,0.0094,0.0079,0.0014,0.0021,0.0048,0.0039,0.0010
228,0.0138,0.0113,0.0097,0.0023,0.0038,0.0072,0.0066,0.0017
229,0.0131,0.0094,0.0079,0.0014,0.0021,0.0048,0.0039,0.0010
230,0.0136,0.0117,0.0095,0.0021,0.0035,0.0062,0.0055,0.0017
231,0.0135,0.0095,0.0079,0.0022,0.0030,0.0046,0.0043,0.0017
232,0.0131,0.0094,0.0079,0.0014,0.0021,0.0048,0.0039,0.0010
233,0.0131,0.0094,0.0079,0.0014,0.0021,0.0048,0.0039,0.0010
234,0.0135,0.0095,0.0079,0.0022,0.0030,0.0046,0.0043,0.0017
235,0.0136,0.0117,0.0095,0.0021,0.0035,0.0062,0.0055,0.0017
236,0.0138,0.0213,0.0176,0.0114,0.0042,0.0118,0.0101,0.0075
237,0.0131,0.0094,0.0079,0.0014,0.0021,0.0048,0.0039,0.0010
238,0.0135,0.0095,0.0079,0.0022,0.0030,0.0046,0.0043,0.0017
239,0.0131,0.0094,0.0079,0.0014,0.0021,0.0048,0.0039,0.0010
240,0.0136,0.0138,0.0109,0.0017,0.0028,0.0071,0.0063,0.0013
241,0.0136,0.0117,0.0095,0.0021,0.0035,0.0062,0.0055,0.0017
242,0.0131,0.0094,0.0079,0.0014,0.0021,0.0048,0.0039,0.0010
243,0.0131,0.0094,0.0079,0.0014,0.0021,0.0048,0.0039,0.0010
244,0.0135,0.0095,0.0079,0.0022,0.0030,0.0046,0.0043,0.0017
245,0.0131,0.0094,0.0079,0.0014,0.0021,0.0048,0.0039,0.0010
246,0.0136,0.0117,0.0095,0.0021,0.0035,0.0062,0.0055,0.0017
247,0.0136,0.0230,0.0217,0.0115,0.0037,0.0124,0.0120,0.0072
248,0.0135,0.0095,0.0079,0.0022,0.0030,0.0046,0.0043,0.0017
249,0.0131,0.0094,0.0079,0.0014,0.0021,0.0048,0.0039,0.0010
250,0.0131,0.0094,0.0079,0.0014,0.0021,0.0048,0.0039,0.0010
251,0.0135,0.0095,0.0079,0.0022,0.0030,0.0046,0.0043,0.0017
252,0.0139,0.0152,0.0123,0.0040,0.0039,0.0083,0.0076,0.0028
253,0.0131,0.0094,0.0079,0.0014,0.0021,0.0048,0.0039,0.0010
254,0.0135,0.0095,0.0079,0.0022,0.0030,0.0046,0.0043,0.0017
255,0.0131,0.0094,0.0079,0.0014,0.0021,0.0048,0.0039,0.0010
256,0.0131,0.0094,0.0079,0.0014,0.0021,0.0048,0.0039,0.0010
257,0.0136,0.0117,0.0095,0.0021,0.0035,0.0062,0.0055,0.0017
258,0.0137,0.0171,0.0165,0.0077,0.0037,0.0080,0.0087,0.0048
259,0.0137,0.0119,0.0169,0.0029,0.0035,0.0056,0.0079,0.0018
260,0.0135,0.0151,0.0199,0.0020,0.0028,0.0078,0.0101,0.0011
261,0.0137,0.0119,0.0155,0.0064,0.0032,0.0071,0.0096,0.0048
262,0.0133,0.0166,0.0196,0.0024,0.0021,0.0077,0.0092,0.0018
263,0.0139,0.0171,0.0147,0.0043,0.0041,0.0108,0.0097,0.0031
264,0.0142,0.0169,0.0151,0.0036,0.0047,0.0104,0.0101,0.0026
265,0.0133,0.0141,0.0146,0.0034,0.0024,0.0062,0.0064,0.0024
266,0.0133,0.0128,0.0125,0.0036,0.0026,0.0059,0.0060,0.0026
267,0.0135,0.0130,0.0137,0.0031,0.0030,0.0073,0.0075,0.0024
268,0.0138,0.0098,0.0084,0.0028,0.0042,0.0054,0.0048,0.0023
269,0.0141,0.0242,0.0242,0.0081,0.0046,0.0139,0.0153,0.0048
270,0.0132,0.0096,0.0074,0.0021,0.0023,0.0044,0.0034,0.0016
271,0.0135,0.0104,0.0094,0.0021,0.0031,0.0064,0.0067,0.0016
272,0.0131,0.0109,0.0095,0.0014,0.0019,0.0063,0.0054,0.0010
273,0.0131,0.0132,0.0114,0.0014,0.0018,0.0077,0.0069,0.0010
274,0.0140,0.0176,0.0146,0.0041,0.0050,0.0109,0.0097,0.0030
275,0.0135,0.0141,0.0113,0.0017,0.0027,0.0076,0.0068,0.0013
276,0.0136,0.0154,0.0130,0.0029,0.0027,0.0081,0.0071,0.0022
277,0.0140,0.0135,0.0117,0.0027,0.0041,0.0085,0.0083,0.0020
278,0.0136,0.0150,0.0121,0.0018,0.0030,0.0078,0.0068,0.0013
279,0.0140,0.0227,0.0191,0.0036,0.0047,0.0130,0.0119,0.0027
280,0.0137,0.0160,0.0125,0.0060,0.0037,0.0085,0.0069,0.0042
281,0.0144,0.0148,0.0128,0.0038,0.0049,0.0088,0.0082,0.0026
282,0.0137,0.0199,0.0178,0.0043,0.0030,0.0110,0.0101,0.0029
283,0.0141,0.0215,0.0203,0.0120,0.0042,0.0137,0.0133,0.0067
284,0.0136,0.0208,0.0185,0.0146,0.0033,0.0128,0.0117,0.0105
285,0.0138,0.0169,0.0137,0.0107,0.0042,0.0101,0.0089,0.0073
286,0.0138,0.0169,0.0137,0.0107,0.0042,0.0101,0.0089,0.0073
287,0.0138,0.0169,0.0137,0.0107,0.0042,0.0101,0.0089,0.0073
288,0.0138,0.0169,0.0137,0.0107,0.0042,0.0101,0.0089,0.0073
289,0.0138,0.0169,0.0137,0.0107,0.0042,0.0101,0.0089,0.0073
290,0.0138,0.0169,0.0137,0.0107,0.0042,0.0101,0.0089,0.0073
291,0.0136,0.0136,0.0107,0.0045,0.0034,0.0075,0.0057,0.0035
292,0.0131,0.0081,0.0072,0.0020,0.0020,0.0037,0.0032,0.0014
293,0.0131,0.0081,0.0072,0.0020,0.0020,0.0037,0.0032,0.0014
294,0.0135,0.0087,0.0082,0.0022,0.0030,0.0048,0.0051,0.0017
295,0.0130,0.0089,0.0082,0.0018,0.0015,0.0048,0.0043,0.0013
296,0.0135,0.0177,0.0191,0.0033,0.0030,0.0115,0.0123,0.0028
297,0.0135,0.0107,0.0112,0.0030,0.0030,0.0071,0.0082,0.0024
298,0.0131,0.0120,0.0122,0.0020,0.0015,0.0076,0.0079,0.0015
299,0.0132,0.0177,0.0184,0.0024,0.0018,0.0111,0.0115,0.0019
300,0.0137,0.0097,0.0096,0.0028,0.0032,0.0060,0.0066,0.0023
301,0.0139,0.0150,0.0128,0.0034,0.0040,0.0094,0.0083,0.0029
302,0.0135,0.0133,0.0109,0.0038,0.0032,0.0069,0.0060,0.0028
303,0.0135,0.0119,0.0113,0.0019,0.0025,0.0063,0.0063,0.0015
304,0.0140,0.0183,0.0184,0.0037,0.0038,0.0125,0.0129,0.0027
305,0.0136,0.0146,0.0140,0.0027,0.0026,0.0080,0.0078,0.0019
306,0.0137,0.0173,0.0171,0.0043,0.0028,0.0093,0.0095,0.0028
307,0.0137,0.0172,0.0178,0.0044,0.0040,0.0118,0.0122,0.0036
308,0.0140,0.0229,0.0210,0.0132,0.0039,0.0154,0.0136,0.0086
309,0.0134,0.0156,0.0142,0.0069,0.0028,0.0082,0.0075,0.0044
310,0.0135,0.0209,0.0180,0.0144,0.0028,0.0144,0.0119,0.0099
311,0.0131,0.0135,0.0132,0.0045,0.0017,0.0072,0.0071,0.0029
312,0.0138,0.0166,0.0174,0.0045,0.0041,0.0101,0.0119,0.0029
313,0.0134,0.0135,0.0117,0.0038,0.0028,0.0071,0.0065,0.0024
314,0.0137,0.0196,0.0160,0.0144,0.0032,0.0137,0.0109,0.0102
315,0.0132,0.0133,0.0119,0.0076,0.0019,0.0085,0.0062,0.0051
316,0.0133,0.0118,0.0125,0.0061,0.0019,0.0059,0.0074,0.0042
317,0.0137,0.0106,0.0127,0.0044,0.0037,0.0066,0.0090,0.0033
318,0.0136,0.0131,0.0135,0.0025,0.0032,0.0085,0.0092,0.0021
319,0.0131,0.0120,0.0122,0.0020,0.0015,0.0076,0.0079,0.0015
320,0.0136,0.0135,0.0130,0.0024,0.0039,0.0077,0.0080,0.0018
321,0.0132,0.0197,0.0198,0.0031,0.0025,0.0086,0.0095,0.0023
322,0.0132,0.0199,0.0206,0.0040,0.0025,0.0086,0.0104,0.0027
323,0.0140,0.0213,0.0206,0.0065,0.0053,0.0133,0.0131,0.0044
324,0.0135,0.0159,0.0141,0.0023,0.0031,0.0094,0.0087,0.0020
325,0.0131,0.0189,0.0199,0.0060,0.0018,0.0106,0.0107,0.0038
326,0.0131,0.0178,0.0173,0.0064,0.0019,0.0105,0.0096,0.0040
327,0.0148,0.0214,0.0259,0.0102,0.0063,0.0147,0.0179,0.0069
328,0.0133,0.0212,0.0207,0.0076,0.0025,0.0133,0.0132,0.0044
329,0.0140,0.0364,0.0330,0.0192,0.0044,0.0236,0.0212,0.0127
330,0.0141,0.0190,0.0195,0.0100,0.0050,0.0125,0.0132,0.0062
331,0.0132,0.0177,0.0184,0.0024,0.0018,0.0111,0.0115,0.0019
332,0.0131,0.0081,0.0072,0.0020,0.0020,0.0037,0.0032,0.0014
333,0.0135,0.0087,0.0082,0.0022,0.0030,0.0048,0.0051,0.0017
334,0.0136,0.0104,0.0103,0.0021,0.0035,0.0059,0.0064,0.0017
335,0.0142,0.0234,0.0191,0.0045,0.0037,0.0127,0.0114,0.0034
336,0.0135,0.0130,0.0107,0.0021,0.0028,0.0053,0.0048,0.0017
337,0.0131,0.0081,0.0072,0.0020,0.0020,0.0037,0.0032,0.0014
338,0.0135,0.0087,0.0082,0.0022,0.0030,0.0048,0.0051,0.0017
339,0.0131,0.0081,0.0072,0.0020,0.0020,0.0037,0.0032,0.0014
340,0.0131,0.0081,0.0072,0.0020,0.0020,0.0037,0.0032,0.0014
341,0.0136,0.0104,0.0103,0.0021,0.0035,0.0059,0.0064,0.0017
342,0.0131,0.0081,0.0072,0.0020,0.0020,0.0037,0.0032,0.0014
343,0.0131,0.0081,0.0072,0.0020,0.0020,0.0037,0.0032,0.0014
344,0.0137,0.0097,0.0096,0.0028,0.0032,0.0060,0.0066,0.0023
345,0.0131,0.0081,0.0072,0.0020,0.0020,0.0037,0.0032,0.0014
346,0.0136,0.0104,0.0103,0.0021,0.0035,0.0059,0.0064,0.0017
347,0.0136,0.0104,0.0093,0.0043,0.0040,0.0041,0.0046,0.0032
348,0.0135,0.0087,0.0082,0.0022,0.0030,0.0048,0.0051,0.0017
349,0.0131,0.0081,0.0072,0.0020,0.0020,0.0037,0.0032,0.0014
350,0.0131,0.0081,0.0072,0.0020,0.0020,0.0037,0.0032,0.0014
351,0.0135,0.0087,0.0082,0.0022,0.0030,0.0048,0.0051,0.0017
352,0.0136,0.0104,0.0103,0.0021,0.0035,0.0059,0.0064,0.0017
353,0.0131,0.0081,0.0072,0.0020,0.0020,0.0037,0.0032,0.0014
354,0.0135,0.0087,0.0082,0.0022,0.0030,0.0048,0.0051,0.0017
355,0.0131,0.0081,0.0072,0.0020,0.0020,0.0037,0.0032,0.0014
356,0.0134,0.0135,0.0131,0.0022,0.0022,0.0077,0.0079,0.0018
357,0.0136,0.0104,0.0103,0.0021,0.0035,0.0059,0.0064,0.0017
358,0.0137,0.0124,0.0129,0.0061,0.0042,0.0049,0.0062,0.0042
359,0.0131,0.0081,0.0072,0.0020,0.0020,0.0037,0.0032,0.0014
360,0.0131,0.0081,0.0072,0.0020,0.0020,0.0037,0.0032,0.0014
361,0.0135,0.0087,0.0082,0.0022,0.0030,0.0048,0.0051,0.0017
362,0.0131,0.0081,0.0072,0.0020,0.0020,0.0037,0.0032,0.0014
363,0.0136,0.0104,0.0103,0.0021,0.0035,0.0059,0.0064,0.0017
364,0.0135,0.0087,0.0082,0.0022,0.0030,0.0048,0.0051,0.0017
365,0.0131,0.0081,0.0072,0.0020,0.0020,0.0037,0.0032,0.0014
366,0.0131,0.0081,0.0072,0.0020,0.0020,0.0037,0.0032,0.0014
367,0.0135,0.0087,0.0082,0.0022,0.0030,0.0048,0.0051,0.0017
368,0.0138,0.0147,0.0144,0.0027,0.0039,0.0087,0.0092,0.0023
369,0.0138,0.0148,0.0166,0.0064,0.0044,0.0058,0.0084,0.0045
370,0.0131,0.0081,0.0072,0.0020,0.0020,0.0037,0.0032,0.0014
371,0.0135,0.0087,0.0082,0.0022,0.0030,0.0048,0.0051,0.0017
372,0.0131,0.0081,0.0072,0.0020,0.0020,0.0037,0.0032,0.0014
373,0.0131,0.0081,0.0072,0.0020,0.0020,0.0037,0.0032,0.0014
374,0.0136,0.0104,0.0103,0.0021,0.0035,0.0059,0.0064,0.0017
375,0.0139,0.0112,0.0139,0.0028,0.0041,0.0065,0.0084,0.0016
376,0.0136,0.0120,0.0140,0.0024,0.0031,0.0070,0.0081,0.0016
377,0.0138,0.0139,0.0187,0.0038,0.0036,0.0090,0.0129,0.0029
378,0.0133,0.0125,0.0143,0.0022,0.0022,0.0063,0.0079,0.0016
379,0.0139,0.0150,0.0128,0.0034,0.0040,0.0094,0.0083,0.0029
380,0.0138,0.0440,0.0468,0.0141,0.0046,0.0273,0.0296,0.0091
381,0.0140,0.0183,0.0184,0.0037,0.0038,0.0125,0.0129,0.0027
382,0.0133,0.0119,0.0126,0.0023,0.0025,0.0066,0.0069,0.0018
383,0.0133,0.0108,0.0107,0.0024,0.0028,0.0061,0.0061,0.0019
384,0.0135,0.0116,0.0116,0.0026,0.0029,0.0078,0.0077,0.0020
385,0.0137,0.0093,0.0089,0.0022,0.0040,0.0054,0.0054,0.0019
386,0.0132,0.0086,0.0075,0.0021,0.0023,0.0042,0.0036,0.0015
387,0.0135,0.0100,0.0099,0.0026,0.0030,0.0065,0.0071,0.0021
388,0.0131,0.0088,0.0080,0.0017,0.0017,0.0047,0.0042,0.0013
389,0.0131,0.0120,0.0122,0.0020,0.0015,0.0076,0.0079,0.0015
390,0.0139,0.0135,0.0114,0.0044,0.0047,0.0084,0.0071,0.0036
391,0.0137,0.0218,0.0235,0.0064,0.0041,0.0102,0.0114,0.0040
392,0.0133,0.0150,0.0150,0.0025,0.0020,0.0094,0.0095,0.0019
393,0.0136,0.0146,0.0140,0.0027,0.0026,0.0080,0.0078,0.0019
394,0.0138,0.0150,0.0153,0.0027,0.0033,0.0103,0.0110,0.0021
395,0.0135,0.0119,0.0113,0.0019,0.0025,0.0063,0.0063,0.0015
396,0.0140,0.0196,0.0200,0.0025,0.0043,0.0117,0.0124,0.0019
397,0.0142,0.0145,0.0146,0.0039,0.0040,0.0092,0.0099,0.0028
398,0.0137,0.0173,0.0171,0.0043,0.0028,0.0093,0.0095,0.0028
399,0.0140,0.0229,0.0210,0.0132,0.0039,0.0154,0.0136,0.0086
400,0.0136,0.0196,0.0177,0.0118,0.0031,0.0118,0.0106,0.0072
401,0.0138,0.0179,0.0152,0.0110,0.0041,0.0120,0.0103,0.0075
402,0.0136,0.0261,0.0278,0.0082,0.0036,0.0112,0.0117,0.0046
403,0.0138,0.0179,0.0152,0.0110,0.0041,0.0120,0.0103,0.0075
404,0.0138,0.0179,0.0152,0.0110,0.0041,0.0120,0.0103,0.0075
405,0.0138,0.0179,0.0152,0.0110,0.0041,0.0120,0.0103,0.0075
406,0.0138,0.0179,0.0152,0.0110,0.0041,0.0120,0.0103,0.0075
407,0.0138,0.0179,0.0152,0.0110,0.0041,0.0120,0.0103,0.0075
408,0.0131,0.0079,0.0078,0.0017,0.0019,0.0041,0.0040,0.0012
409,0.0131,0.0079,0.0078,0.0017,0.0019,0.0041,0.0040,0.0012
410,0.0135,0.0090,0.0092,0.0025,0.0030,0.0057,0.0061,0.0021
411,0.0130,0.0078,0.0074,0.0018,0.0012,0.0039,0.0036,0.0013
412,0.0135,0.0167,0.0189,0.0037,0.0029,0.0111,0.0122,0.0031
413,0.0136,0.0364,0.0377,0.0134,0.0034,0.0180,0.0183,0.0072
414,0.0135,0.0102,0.0118,0.0032,0.0028,0.0070,0.0087,0.0026
415,0.0131,0.0103,0.0109,0.0020,0.0015,0.0067,0.0072,0.0016
416,0.0132,0.0136,0.0143,0.0024,0.0014,0.0088,0.0091,0.0019
417,0.0137,0.0089,0.0086,0.0026,0.0034,0.0052,0.0053,0.0021
418,0.0138,0.0129,0.0116,0.0030,0.0036,0.0084,0.0072,0.0027
419,0.0134,0.0104,0.0103,0.0016,0.0019,0.0057,0.0056,0.0013
420,0.0141,0.0153,0.0153,0.0037,0.0040,0.0105,0.0107,0.0027
421,0.0136,0.0128,0.0122,0.0029,0.0026,0.0068,0.0064,0.0023
422,0.0137,0.0159,0.0160,0.0053,0.0033,0.0091,0.0092,0.0040
423,0.0136,0.0150,0.0159,0.0049,0.0038,0.0106,0.0112,0.0039
424,0.0138,0.0445,0.0439,0.0201,0.0036,0.0231,0.0227,0.0108
425,0.0140,0.0233,0.0202,0.0159,0.0041,0.0159,0.0133,0.0111
426,0.0134,0.0140,0.0135,0.0058,0.0028,0.0079,0.0078,0.0033
427,0.0135,0.0213,0.0184,0.0171,0.0028,0.0150,0.0125,0.0122
428,0.0131,0.0115,0.0114,0.0042,0.0016,0.0062,0.0057,0.0029
429,0.0138,0.0140,0.0151,0.0044,0.0044,0.0088,0.0100,0.0031
430,0.0137,0.0225,0.0191,0.0170,0.0034,0.0157,0.0137,0.0119
431,0.0133,0.0148,0.0134,0.0074,0.0022,0.0098,0.0082,0.0051
432,0.0134,0.0128,0.0116,0.0068,0.0023,0.0080,0.0061,0.0046
433,0.0137,0.0097,0.0100,0.0062,0.0039,0.0054,0.0062,0.0047
434,0.0136,0.0119,0.0126,0.0026,0.0034,0.0072,0.0081,0.0021
435,0.0142,0.0606,0.0565,0.0256,0.0049,0.0287,0.0266,0.0128
436,0.0131,0.0103,0.0109,0.0020,0.0015,0.0067,0.0072,0.0016
437,0.0137,0.0134,0.0132,0.0019,0.0040,0.0084,0.0086,0.0013
438,0.0132,0.0199,0.0203,0.0031,0.0024,0.0091,0.0100,0.0024
439,0.0132,0.0203,0.0213,0.0048,0.0024,0.0094,0.0111,0.0035
440,0.0140,0.0180,0.0190,0.0059,0.0051,0.0110,0.0125,0.0042
441,0.0131,0.0175,0.0183,0.0078,0.0016,0.0093,0.0094,0.0052
442,0.0131,0.0160,0.0157,0.0079,0.0017,0.0093,0.0086,0.0050
443,0.0148,0.0184,0.0236,0.0113,0.0062,0.0117,0.0159,0.0079
444,0.0133,0.0167,0.0172,0.0060,0.0023,0.0104,0.0107,0.0037
445,0.0142,0.0430,0.0395,0.0205,0.0054,0.0285,0.0258,0.0139
446,0.0136,0.0209,0.0174,0.0039,0.0040,0.0101,0.0087,0.0026
447,0.0142,0.0488,0.0428,0.0307,0.0040,0.0216,0.0211,0.0167
448,0.0140,0.0150,0.0172,0.0081,0.0044,0.0102,0.0120,0.0047
449,0.0132,0.0136,0.0143,0.0024,0.0014,0.0088,0.0091,0.0019
450,0.0131,0.0079,0.0078,0.0017,0.0019,0.0041,0.0040,0.0012
451,0.0135,0.0090,0.0092,0.0025,0.0030,0.0057,0.0061,0.0021
452,0.0136,0.0120,0.0135,0.0022,0.0037,0.0075,0.0084,0.0019
453,0.0131,0.0079,0.0078,0.0017,0.0019,0.0041,0.0040,0.0012
454,0.0135,0.0090,0.0092,0.0025,0.0030,0.0057,0.0061,0.0021
455,0.0131,0.0079,0.0078,0.0017,0.0019,0.0041,0.0040,0.0012
456,0.0131,0.0079,0.0078,0.0017,0.0019,0.0041,0.0040,0.0012
457,0.0136,0.0120,0.0135,0.0022,0.0037,0.0075,0.0084,0.0019
458,0.0136,0.0151,0.0134,0.0019,0.0036,0.0055,0.0062,0.0015
459,0.0131,0.0079,0.0078,0.0017,0.0019,0.0041,0.0040,0.0012
460,0.0131,0.0079,0.0078,0.0017,0.0019,0.0041,0.0040,0.0012
461,0.0137,0.0089,0.0086,0.0026,0.0034,0.0052,0.0053,0.0021
462,0.0131,0.0079,0.0078,0.0017,0.0019,0.0041,0.0040,0.0012
463,0.0136,0.0120,0.0135,0.0022,0.0037,0.0075,0.0084,0.0019
464,0.0135,0.0090,0.0092,0.0025,0.0030,0.0057,0.0061,0.0021
465,0.0131,0.0079,0.0078,0.0017,0.0019,0.0041,0.0040,0.0012
466,0.0131,0.0079,0.0078,0.0017,0.0019,0.0041,0.0040,0.0012
467,0.0135,0.0090,0.0092,0.0025,0.0030,0.0057,0.0061,0.0021
468,0.0136,0.0120,0.0135,0.0022,0.0037,0.0075,0.0084,0.0019
469,0.0134,0.0104,0.0089,0.0026,0.0033,0.0046,0.0047,0.0021
470,0.0131,0.0079,0.0078,0.0017,0.0019,0.0041,0.0040,0.0012
471,0.0135,0.0090,0.0092,0.0025,0.0030,0.0057,0.0061,0.0021
472,0.0131,0.0079,0.0078,0.0017,0.0019,0.0041,0.0040,0.0012
473,0.0133,0.0111,0.0113,0.0021,0.0016,0.0067,0.0069,0.0017
474,0.0136,0.0120,0.0135,0.0022,0.0037,0.0075,0.0084,0.0019
475,0.0131,0.0079,0.0078,0.0017,0.0019,0.0041,0.0040,0.0012
476,0.0131,0.0079,0.0078,0.0017,0.0019,0.0041,0.0040,0.0012
477,0.0135,0.0090,0.0092,0.0025,0.0030,0.0057,0.0061,0.0021
478,0.0131,0.0079,0.0078,0.0017,0.0019,0.0041,0.0040,0.0012
479,0.0136,0.0120,0.0135,0.0022,0.0037,0.0075,0.0084,0.0019
480,0.0134,0.0104,0.0089,0.0026,0.0033,0.0046,0.0047,0.0021
481,0.0135,0.0090,0.0092,0.0025,0.0030,0.0057,0.0061,0.0021
482,0.0131,0.0079,0.0078,0.0017,0.0019,0.0041,0.0040,0.0012
483,0.0131,0.0079,0.0078,0.0017,0.0019,0.0041,0.0040,0.0012
484,0.0135,0.0090,0.0092,0.0025,0.0030,0.0057,0.0061,0.0021
485,0.0138,0.0125,0.0128,0.0023,0.0037,0.0076,0.0082,0.0018
486,0.0131,0.0079,0.0078,0.0017,0.0019,0.0041,0.0040,0.0012
487,0.0135,0.0090,0.0092,0.0025,0.0030,0.0057,0.0061,0.0021
488,0.0131,0.0079,0.0078,0.0017,0.0019,0.0041,0.0040,0.0012
489,0.0131,0.0079,0.0078,0.0017,0.0019,0.0041,0.0040,0.0012
490,0.0136,0.0120,0.0135,0.0022,0.0037,0.0075,0.0084,0.0019
491,0.0135,0.0147,0.0132,0.0023,0.0031,0.0063,0.0055,0.0017
492,0.0140,0.0142,0.0208,0.0031,0.0041,0.0082,0.0119,0.0020
493,0.0136,0.0120,0.0159,0.0025,0.0031,0.0078,0.0098,0.0016
494,0.0138,0.0179,0.0273,0.0037,0.0037,0.0114,0.0181,0.0028
495,0.0133,0.0109,0.0134,0.0016,0.0022,0.0066,0.0086,0.0012
496,0.0138,0.0129,0.0116,0.0030,0.0036,0.0084,0.0072,0.0027
497,0.0141,0.0153,0.0153,0.0037,0.0040,0.0105,0.0107,0.0027
498,0.0133,0.0101,0.0107,0.0016,0.0027,0.0059,0.0061,0.0011
499,0.0133,0.0093,0.0095,0.0018,0.0029,0.0054,0.0055,0.0013
500,0.0135,0.0121,0.0124,0.0024,0.0028,0.0081,0.0081,0.0017
501,0.0137,0.0081,0.0080,0.0021,0.0038,0.0045,0.0045,0.0016
502,0.0134,0.0104,0.0089,0.0026,0.0033,0.0046,0.0047,0.0021
503,0.0132,0.0088,0.0085,0.0015,0.0023,0.0050,0.0047,0.0012
504,0.0135,0.0101,0.0110,0.0028,0.0029,0.0070,0.0080,0.0023
505,0.0131,0.0082,0.0083,0.0018,0.0019,0.0045,0.0047,0.0013
506,0.0131,0.0103,0.0109,0.0020,0.0015,0.0067,0.0072,0.0016
507,0.0138,0.0110,0.0098,0.0047,0.0042,0.0068,0.0058,0.0038
508,0.0132,0.0128,0.0130,0.0025,0.0015,0.0083,0.0084,0.0020
509,0.0136,0.0128,0.0122,0.0029,0.0026,0.0068,0.0064,0.0023
510,0.0138,0.0112,0.0111,0.0026,0.0032,0.0076,0.0080,0.0019
511,0.0134,0.0104,0.0103,0.0016,0.0019,0.0057,0.0056,0.0013
512,0.0140,0.0190,0.0192,0.0029,0.0045,0.0120,0.0122,0.0025
513,0.0134,0.0104,0.0089,0.0026,0.0033,0.0046,0.0047,0.0021
514,0.0142,0.0122,0.0125,0.0040,0.0043,0.0075,0.0081,0.0030
515,0.0137,0.0159,0.0160,0.0053,0.0033,0.0091,0.0092,0.0040
516,0.0140,0.0233,0.0202,0.0159,0.0041,0.0159,0.0133,0.0111
517,0.0136,0.0198,0.0181,0.0131,0.0032,0.0125,0.0114,0.0091
518,0.0138,0.0163,0.0141,0.0093,0.0042,0.0110,0.0094,0.0065
519,0.0138,0.0163,0.0141,0.0093,0.0042,0.0110,0.0094,0.0065
520,0.0138,0.0163,0.0141,0.0093,0.0042,0.0110,0.0094,0.0065
521,0.0138,0.0163,0.0141,0.0093,0.0042,0.0110,0.0094,0.0065
522,0.0138,0.0163,0.0141,0.0093,0.0042,0.0110,0.0094,0.0065
523,0.0138,0.0163,0.0141,0.0093,0.0042,0.0110,0.0094,0.0065
524,0.0134,0.0104,0.0089,0.0026,0.0033,0.0046,0.0047,0.0021
525,0.0131,0.0080,0.0084,0.0014,0.0018,0.0043,0.0046,0.0010
526,0.0131,0.0080,0.0084,0.0014,0.0018,0.0043,0.0046,0.0010
527,0.0135,0.0094,0.0100,0.0025,0.0030,0.0061,0.0068,0.0020
528,0.0130,0.0080,0.0083,0.0016,0.0012,0.0042,0.0044,0.0012
529,0.0135,0.0113,0.0127,0.0037,0.0030,0.0077,0.0085,0.0031
530,0.0135,0.0091,0.0105,0.0032,0.0027,0.0058,0.0076,0.0026
531,0.0131,0.0088,0.0089,0.0020,0.0016,0.0049,0.0051,0.0016
532,0.0132,0.0098,0.0099,0.0025,0.0014,0.0062,0.0062,0.0020
533,0.0137,0.0095,0.0094,0.0025,0.0035,0.0063,0.0065,0.0021
534,0.0138,0.0124,0.0114,0.0029,0.0034,0.0080,0.0069,0.0026
535,0.0134,0.0104,0.0089,0.0026,0.0033,0.0046,0.0047,0.0021
536,0.0134,0.0102,0.0098,0.0015,0.0021,0.0057,0.0051,0.0012
537,0.0141,0.0135,0.0134,0.0037,0.0043,0.0088,0.0088,0.0027
538,0.0136,0.0122,0.0115,0.0033,0.0029,0.0064,0.0057,0.0026
539,0.0138,0.0139,0.0134,0.0058,0.0035,0.0074,0.0071,0.0044
540,0.0136,0.0132,0.0140,0.0052,0.0037,0.0094,0.0099,0.0041
541,0.0141,0.0244,0.0207,0.0177,0.0044,0.0169,0.0139,0.0124
542,0.0134,0.0122,0.0116,0.0060,0.0030,0.0060,0.0059,0.0037
543,0.0135,0.0243,0.0212,0.0200,0.0027,0.0175,0.0150,0.0142
544,0.0131,0.0114,0.0114,0.0048,0.0016,0.0064,0.0059,0.0035
545,0.0138,0.0116,0.0133,0.0036,0.0044,0.0068,0.0082,0.0028
546,0.0135,0.0147,0.0132,0.0023,0.0031,0.0063,0.0055,0.0017
547,0.0137,0.0237,0.0210,0.0179,0.0034,0.0166,0.0152,0.0124
548,0.0133,0.0161,0.0153,0.0075,0.0022,0.0109,0.0101,0.0052
549,0.0134,0.0138,0.0126,0.0067,0.0024,0.0089,0.0075,0.0046
550,0.0137,0.0102,0.0099,0.0066,0.0039,0.0063,0.0058,0.0050
551,0.0136,0.0114,0.0120,0.0025,0.0035,0.0065,0.0071,0.0021
552,0.0131,0.0088,0.0089,0.0020,0.0016,0.0049,0.0051,0.0016
553,0.0137,0.0142,0.0140,0.0018,0.0041,0.0095,0.0097,0.0012
554,0.0132,0.0194,0.0195,0.0040,0.0025,0.0082,0.0089,0.0030
555,0.0132,0.0200,0.0206,0.0059,0.0024,0.0090,0.0104,0.0042
556,0.0140,0.0162,0.0166,0.0051,0.0051,0.0087,0.0103,0.0036
557,0.0147,0.0204,0.0156,0.0124,0.0058,0.0118,0.0102,0.0092
558,0.0134,0.0104,0.0089,0.0026,0.0033,0.0046,0.0047,0.0021
559,0.0130,0.0174,0.0178,0.0086,0.0015,0.0090,0.0089,0.0058
560,0.0131,0.0159,0.0156,0.0084,0.0016,0.0093,0.0084,0.0054
561,0.0146,0.0176,0.0226,0.0122,0.0061,0.0104,0.0148,0.0085
562,0.0133,0.0167,0.0177,0.0065,0.0023,0.0109,0.0116,0.0043
563,0.0144,0.0467,0.0433,0.0222,0.0057,0.0312,0.0285,0.0152
564,0.0140,0.0159,0.0186,0.0083,0.0042,0.0110,0.0132,0.0051
565,0.0132,0.0098,0.0099,0.0025,0.0014,0.0062,0.0062,0.0020
566,0.0131,0.0080,0.0084,0.0014,0.0018,0.0043,0.0046,0.0010
567,0.0135,0.0094,0.0100,0.0025,0.0030,0.0061,0.0068,0.0020
568,0.0136,0.0097,0.0110,0.0022,0.0037,0.0060,0.0069,0.0019
569,0.0134,0.0104,0.0089,0.0026,0.0033,0.0046,0.0047,0.0021
570,0.0131,0.0080,0.0084,0.0014,0.0018,0.0043,0.0046,0.0010
571,0.0135,0.0094,0.0100,0.0025,0.0030,0.0061,0.0068,0.0020
572,0.0131,0.0080,0.0084,0.0014,0.0018,0.0043,0.0046,0.0010
573,0.0131,0.0080,0.0084,0.0014,0.0018,0.0043,0.0046,0.0010
574,0.0136,0.0097,0.0110,0.0022,0.0037,0.0060,0.0069,0.0019
575,0.0131,0.0080,0.0084,0.0014,0.0018,0.0043,0.0046,0.0010
576,0.0131,0.0080,0.0084,0.0014,0.0018,0.0043,0.0046,0.0010
577,0.0137,0.0095,0.0094,0.0025,0.0035,0.0063,0.0065,0.0021
578,0.0131,0.0080,0.0084,0.0014,0.0018,0.0043,0.0046,0.0010
579,0.0136,0.0097,0.0110,0.0022,0.0037,0.0060,0.0069,0.0019
580,0.0139,0.0163,0.0147,0.0020,0.0040,0.0067,0.0079,0.0015
581,0.0135,0.0094,0.0100,0.0025,0.0030,0.0061,0.0068,0.0020
582,0.0131,0.0080,0.0084,0.0014,0.0018,0.0043,0.0046,0.0010
583,0.0131,0.0080,0.0084,0.0014,0.0018,0.0043,0.0046,0.0010
584,0.0135,0.0094,0.0100,0.0025,0.0030,0.0061,0.0068,0.0020
585,0.0136,0.0097,0.0110,0.0022,0.0037,0.0060,0.0069,0.0019
586,0.0131,0.0080,0.0084,0.0014,0.0018,0.0043,0.0046,0.0010
587,0.0135,0.0094,0.0100,0.0025,0.0030,0.0061,0.0068,0.0020
588,0.0131,0.0080,0.0084,0.0014,0.0018,0.0043,0.0046,0.0010
589,0.0133,0.0094,0.0094,0.0021,0.0016,0.0051,0.0049,0.0017
590,0.0136,0.0097,0.0110,0.0022,0.0037,0.0060,0.0069,0.0019
591,0.0134,0.0104,0.0089,0.0026,0.0033,0.0046,0.0047,0.0021
592,0.0131,0.0080,0.0084,0.0014,0.0018,0.0043,0.0046,0.0010
593,0.0131,0.0080,0.0084,0.0014,0.0018,0.0043,0.0046,0.0010
594,0.0135,0.0094,0.0100,0.0025,0.0030,0.0061,0.0068,0.0020
595,0.0131,0.0080,0.0084,0.0014,0.0018,0.0043,0.0046,0.0010
596,0.0136,0.0097,0.0110,0.0022,0.0037,0.0060,0.0069,0.0019
597,0.0135,0.0094,0.0100,0.0025,0.0030,0.0061,0.0068,0.0020
598,0.0131,0.0080,0.0084,0.0014,0.0018,0.0043,0.0046,0.0010
599,0.0131,0.0080,0.0084,0.0014,0.0018,0.0043,0.0046,0.0010
600,0.0135,0.0094,0.0100,0.0025,0.0030,0.0061,0.0068,0.0020
601,0.0138,0.0120,0.0118,0.0023,0.0037,0.0071,0.0071,0.0017
602,0.0135,0.0147,0.0132,0.0023,0.0031,0.0063,0.0055,0.0017
603,0.0131,0.0080,0.0084,0.0014,0.0018,0.0043,0.0046,0.0010
604,0.0135,0.0094,0.0100,0.0025,0.0030,0.0061,0.0068,0.0020
605,0.0131,0.0080,0.0084,0.0014,0.0018,0.0043,0.0046,0.0010
606,0.0131,0.0080,0.0084,0.0014,0.0018,0.0043,0.0046,0.0010
607,0.0136,0.0097,0.0110,0.0022,0.0037,0.0060,0.0069,0.0019
608,0.0139,0.0152,0.0235,0.0032,0.0040,0.0087,0.0136,0.0020
609,0.0135,0.0134,0.0193,0.0024,0.0029,0.0085,0.0114,0.0016
610,0.0138,0.0204,0.0323,0.0039,0.0037,0.0130,0.0209,0.0030
611,0.0133,0.0122,0.0160,0.0015,0.0021,0.0074,0.0099,0.0011
612,0.0138,0.0124,0.0114,0.0029,0.0034,0.0080,0.0069,0.0026
613,0.0134,0.0104,0.0089,0.0026,0.0033,0.0046,0.0047,0.0021
614,0.0141,0.0135,0.0134,0.0037,0.0043,0.0088,0.0088,0.0027
615,0.0133,0.0101,0.0114,0.0016,0.0027,0.0059,0.0065,0.0012
616,0.0134,0.0089,0.0089,0.0018,0.0030,0.0048,0.0047,0.0013
617,0.0135,0.0130,0.0141,0.0023,0.0028,0.0088,0.0093,0.0017
618,0.0137,0.0074,0.0073,0.0023,0.0038,0.0037,0.0036,0.0019
619,0.0132,0.0093,0.0095,0.0012,0.0023,0.0056,0.0056,0.0009
620,0.0135,0.0104,0.0120,0.0026,0.0028,0.0074,0.0088,0.0022
621,0.0131,0.0079,0.0076,0.0017,0.0020,0.0039,0.0037,0.0013
622,0.0131,0.0088,0.0089,0.0020,0.0016,0.0049,0.0051,0.0016
623,0.0138,0.0124,0.0109,0.0047,0.0041,0.0085,0.0071,0.0038
624,0.0134,0.0104,0.0089,0.0026,0.0033,0.0046,0.0047,0.0021
625,0.0132,0.0103,0.0103,0.0026,0.0014,0.0066,0.0066,0.0021
626,0.0136,0.0122,0.0115,0.0033,0.0029,0.0064,0.0057,0.0026
627,0.0138,0.0094,0.0093,0.0026,0.0033,0.0055,0.0058,0.0019
628,0.0134,0.0102,0.0098,0.0015,0.0021,0.0057,0.0051,0.0012
629,0.0140,0.0163,0.0160,0.0032,0.0047,0.0104,0.0103,0.0027
630,0.0142,0.0117,0.0117,0.0040,0.0045,0.0067,0.0069,0.0031
631,0.0138,0.0139,0.0134,0.0058,0.0035,0.0074,0.0071,0.0044
632,0.0141,0.0244,0.0207,0.0177,0.0044,0.0169,0.0139,0.0124
633,0.0136,0.0223,0.0204,0.0161,0.0033,0.0157,0.0143,0.0116
634,0.0138,0.0164,0.0142,0.0092,0.0041,0.0113,0.0096,0.0066
635,0.0134,0.0104,0.0089,0.0026,0.0033,0.0046,0.0047,0.0021
636,0.0138,0.0164,0.0142,0.0092,0.0041,0.0113,0.0096,0.0066
637,0.0138,0.0164,0.0142,0.0092,0.0041,0.0113,0.0096,0.0066
638,0.0138,0.0164,0.0142,0.0092,0.0041,0.0113,0.0096,0.0066
639,0.0138,0.0164,0.0142,0.0092,0.0041,0.0113,0.0096,0.0066
640,0.0138,0.0164,0.0142,0.0092,0.0041,0.0113,0.0096,0.0066
641,0.0130,0.0115,0.0092,0.0015,0.0015,0.0060,0.0048,0.0010
642,0.0130,0.0115,0.0092,0.0015,0.0015,0.0060,0.0048,0.0010
643,0.0135,0.0113,0.0100,0.0030,0.0028,0.0052,0.0053,0.0023
644,0.0131,0.0113,0.0096,0.0027,0.0017,0.0063,0.0054,0.0019
645,0.0136,0.0162,0.0128,0.0028,0.0037,0.0074,0.0067,0.0023
646,0.0134,0.0104,0.0089,0.0026,0.0033,0.0046,0.0047,0.0021
647,0.0135,0.0118,0.0101,0.0035,0.0029,0.0073,0.0070,0.0027
648,0.0132,0.0133,0.0098,0.0032,0.0020,0.0067,0.0055,0.0021
649,0.0132,0.0143,0.0101,0.0028,0.0018,0.0065,0.0052,0.0020
650,0.0138,0.0135,0.0112,0.0045,0.0038,0.0081,0.0074,0.0036
651,0.0138,0.0181,0.0150,0.0049,0.0037,0.0098,0.0098,0.0034
652,0.0135,0.0177,0.0150,0.0035,0.0026,0.0093,0.0089,0.0025
653,0.0142,0.0183,0.0152,0.0054,0.0046,0.0109,0.0099,0.0044
654,0.0137,0.0174,0.0128,0.0045,0.0029,0.0083,0.0066,0.0033
655,0.0139,0.0233,0.0184,0.0056,0.0038,0.0129,0.0105,0.0040
656,0.0136,0.0167,0.0125,0.0032,0.0032,0.0080,0.0068,0.0025
657,0.0135,0.0147,0.0132,0.0023,0.0031,0.0063,0.0055,0.0017
658,0.0140,0.0194,0.0164,0.0130,0.0041,0.0104,0.0102,0.0090
659,0.0133,0.0207,0.0143,0.0127,0.0027,0.0097,0.0071,0.0076
660,0.0136,0.0185,0.0170,0.0120,0.0031,0.0113,0.0111,0.0085
661,0.0132,0.0157,0.0123,0.0063,0.0021,0.0066,0.0056,0.0037
662,0.0139,0.0188,0.0156,0.0060,0.0046,0.0101,0.0105,0.0038
663,0.0137,0.0161,0.0152,0.0082,0.0032,0.0108,0.0104,0.0051
664,0.0134,0.0148,0.0131,0.0033,0.0027,0.0082,0.0075,0.0022
665,0.0134,0.0148,0.0129,0.0041,0.0025,0.0082,0.0072,0.0029
666,0.0138,0.0120,0.0111,0.0079,0.0039,0.0062,0.0065,0.0056
667,0.0136,0.0158,0.0133,0.0038,0.0037,0.0092,0.0088,0.0028
668,0.0139,0.0217,0.0155,0.0131,0.0044,0.0115,0.0086,0.0084
669,0.0134,0.0104,0.0089,0.0026,0.0033,0.0046,0.0047,0.0021
670,0.0132,0.0133,0.0098,0.0032,0.0020,0.0067,0.0055,0.0021
671,0.0135,0.0166,0.0156,0.0032,0.0031,0.0102,0.0100,0.0023
672,0.0131,0.0217,0.0198,0.0046,0.0019,0.0105,0.0097,0.0032
673,0.0131,0.0208,0.0194,0.0042,0.0017,0.0076,0.0079,0.0030
674,0.0150,0.0407,0.0401,0.0101,0.0071,0.0224,0.0223,0.0059
675,0.0131,0.0235,0.0221,0.0055,0.0018,0.0126,0.0106,0.0033
676,0.0132,0.0264,0.0253,0.0071,0.0023,0.0146,0.0130,0.0039
677,0.0139,0.0251,0.0262,0.0096,0.0045,0.0170,0.0176,0.0062
678,0.0138,0.0408,0.0406,0.0165,0.0039,0.0212,0.0216,0.0079
679,0.0150,0.0677,0.0624,0.0248,0.0065,0.0369,0.0334,0.0127
680,0.0134,0.0104,0.0089,0.0026,0.0033,0.0046,0.0047,0.0021
681,0.0144,0.0232,0.0219,0.0176,0.0050,0.0121,0.0123,0.0094
682,0.0132,0.0143,0.0101,0.0028,0.0018,0.0065,0.0052,0.0020
683,0.0130,0.0115,0.0092,0.0015,0.0015,0.0060,0.0048,0.0010
684,0.0135,0.0113,0.0100,0.0030,0.0028,0.0052,0.0053,0.0023
685,0.0138,0.0154,0.0128,0.0025,0.0046,0.0077,0.0074,0.0021
686,0.0130,0.0115,0.0092,0.0015,0.0015,0.0060,0.0048,0.0010
687,0.0135,0.0113,0.0100,0.0030,0.0028,0.0052,0.0053,0.0023
688,0.0130,0.0115,0.0092,0.0015,0.0015,0.0060,0.0048,0.0010
689,0.0130,0.0115,0.0092,0.0015,0.0015,0.0060,0.0048,0.0010
690,0.0138,0.0154,0.0128,0.0025,0.0046,0.0077,0.0074,0.0021
691,0.0134,0.0104,0.0089,0.0026,0.0033,0.0046,0.0047,0.0021
692,0.0130,0.0115,0.0092,0.0015,0.0015,0.0060,0.0048,0.0010
693,0.0130,0.0115,0.0092,0.0015,0.0015,0.0060,0.0048,0.0010
694,0.0138,0.0135,0.0112,0.0045,0.0038,0.0081,0.0074,0.0036
695,0.0130,0.0115,0.0092,0.0015,0.0015,0.0060,0.0048,0.0010
696,0.0138,0.0154,0.0128,0.0025,0.0046,0.0077,0.0074,0.0021
697,0.0135,0.0113,0.0100,0.0030,0.0028,0.0052,0.0053,0.0023
698,0.0130,0.0115,0.0092,0.0015,0.0015,0.0060,0.0048,0.0010
699,0.0130,0.0115,0.0092,0.0015,0.0015,0.0060,0.0048,0.0010
700,0.0135,0.0113,0.0100,0.0030,0.0028,0.0052,0.0053,0.0023
701,0.0138,0.0154,0.0128,0.0025,0.0046,0.0077,0.0074,0.0021
702,0.0140,0.0169,0.0152,0.0023,0.0041,0.0081,0.0090,0.0017
703,0.0130,0.0115,0.0092,0.0015,0.0015,0.0060,0.0048,0.0010
704,0.0135,0.0113,0.0100,0.0030,0.0028,0.0052,0.0053,0.0023
705,0.0130,0.0115,0.0092,0.0015,0.0015,0.0060,0.0048,0.0010
706,0.0134,0.0165,0.0130,0.0030,0.0024,0.0080,0.0075,0.0022
707,0.0138,0.0154,0.0128,0.0025,0.0046,0.0077,0.0074,0.0021
708,0.0130,0.0115,0.0092,0.0015,0.0015,0.0060,0.0048,0.0010
709,0.0130,0.0115,0.0092,0.0015,0.0015,0.0060,0.0048,0.0010
710,0.0135,0.0113,0.0100,0.0030,0.0028,0.0052,0.0053,0.0023
711,0.0130,0.0115,0.0092,0.0015,0.0015,0.0060,0.0048,0.0010
712,0.0138,0.0154,0.0128,0.0025,0.0046,0.0077,0.0074,0.0021
713,0.0135,0.0147,0.0132,0.0023,0.0031,0.0063,0.0055,0.0017
714,0.0135,0.0113,0.0100,0.0030,0.0028,0.0052,0.0053,0.0023
715,0.0130,0.0115,0.0092,0.0015,0.0015,0.0060,0.0048,0.0010
716,0.0130,0.0115,0.0092,0.0015,0.0015,0.0060,0.0048,0.0010
717,0.0135,0.0113,0.0100,0.0030,0.0028,0.0052,0.0053,0.0023
718,0.0140,0.0179,0.0126,0.0048,0.0045,0.0088,0.0073,0.0033
719,0.0130,0.0115,0.0092,0.0015,0.0015,0.0060,0.0048,0.0010
720,0.0135,0.0113,0.0100,0.0030,0.0028,0.0052,0.0053,0.0023
721,0.0130,0.0115,0.0092,0.0015,0.0015,0.0060,0.0048,0.0010
722,0.0130,0.0115,0.0092,0.0015,0.0015,0.0060,0.0048,0.0010
723,0.0138,0.0154,0.0128,0.0025,0.0046,0.0077,0.0074,0.0021
724,0.0134,0.0104,0.0089,0.0026,0.0033,0.0046,0.0047,0.0021
725,0.0136,0.0152,0.0249,0.0034,0.0027,0.0064,0.0123,0.0023
726,0.0134,0.0198,0.0288,0.0023,0.0021,0.0104,0.0147,0.0013
727,0.0138,0.0141,0.0206,0.0079,0.0036,0.0071,0.0121,0.0057
728,0.0133,0.0224,0.0285,0.0024,0.0018,0.0107,0.0137,0.0017
729,0.0138,0.0181,0.0150,0.0049,0.0037,0.0098,0.0098,0.0034
730,0.0142,0.0183,0.0152,0.0054,0.0046,0.0109,0.0099,0.0044
731,0.0132,0.0190,0.0210,0.0037,0.0019,0.0087,0.0086,0.0027
732,0.0132,0.0168,0.0175,0.0039,0.0020,0.0074,0.0073,0.0029
733,0.0136,0.0165,0.0189,0.0038,0.0036,0.0077,0.0084,0.0028
734,0.0137,0.0119,0.0091,0.0022,0.0034,0.0062,0.0052,0.0018
735,0.0134,0.0104,0.0089,0.0026,0.0033,0.0046,0.0047,0.0021
736,0.0131,0.0128,0.0103,0.0017,0.0018,0.0067,0.0056,0.0012
737,0.0135,0.0116,0.0100,0.0032,0.0028,0.0070,0.0070,0.0025
738,0.0132,0.0122,0.0098,0.0034,0.0022,0.0069,0.0057,0.0022
739,0.0132,0.0133,0.0098,0.0032,0.0020,0.0067,0.0055,0.0021
740,0.0138,0.0211,0.0191,0.0044,0.0040,0.0122,0.0119,0.0031
741,0.0133,0.0147,0.0105,0.0028,0.0022,0.0067,0.0056,0.0020
742,0.0137,0.0174,0.0128,0.0045,0.0029,0.0083,0.0066,0.0033
743,0.0139,0.0146,0.0111,0.0046,0.0039,0.0086,0.0073,0.0038
744,0.0135,0.0177,0.0150,0.0035,0.0026,0.0093,0.0089,0.0025
745,0.0144,0.0271,0.0205,0.0044,0.0056,0.0158,0.0127,0.0032
746,0.0134,0.0104,0.0089,0.0026,0.0033,0.0046,0.0047,0.0021
747,0.0143,0.0161,0.0137,0.0056,0.0047,0.0093,0.0087,0.0045
748,0.0139,0.0233,0.0184,0.0056,0.0038,0.0129,0.0105,0.0040
749,0.0140,0.0194,0.0164,0.0130,0.0041,0.0104,0.0102,0.0090
750,0.0136,0.0213,0.0162,0.0192,0.0031,0.0130,0.0094,0.0132
751,0.0139,0.0159,0.0131,0.0074,0.0046,0.0081,0.0088,0.0049
752,0.0139,0.0159,0.0131,0.0074,0.0046,0.0081,0.0088,0.0049
753,0.0139,0.0159,0.0131,0.0074,0.0046,0.0081,0.0088,0.0049
754,0.0139,0.0159,0.0131,0.0074,0.0046,0.0081,0.0088,0.0049
755,0.0139,0.0159,0.0131,0.0074,0.0046,0.0081,0.0088,0.0049
756,0.0139,0.0159,0.0131,0.0074,0.0046,0.0081,0.0088,0.0049
757,0.0134,0.0104,0.0089,0.0026,0.0033,0.0046,0.0047,0.0021
758,0.0130,0.0092,0.0073,0.0014,0.0014,0.0043,0.0034,0.0010
759,0.0130,0.0092,0.0073,0.0014,0.0014,0.0043,0.0034,0.0010
760,0.0135,0.0104,0.0090,0.0023,0.0028,0.0056,0.0052,0.0017
761,0.0131,0.0108,0.0095,0.0015,0.0016,0.0058,0.0053,0.0011
762,0.0136,0.0147,0.0130,0.0024,0.0036,0.0073,0.0075,0.0019
763,0.0135,0.0108,0.0094,0.0021,0.0027,0.0064,0.0062,0.0016
764,0.0132,0.0122,0.0100,0.0017,0.0020,0.0062,0.0056,0.0013
765,0.0132,0.0136,0.0110,0.0015,0.0018,0.0060,0.0056,0.0012
766,0.0138,0.0117,0.0096,0.0030,0.0036,0.0067,0.0061,0.0025
767,0.0138,0.0179,0.0151,0.0042,0.0037,0.0108,0.0097,0.0029
768,0.0135,0.0147,0.0132,0.0023,0.0031,0.0063,0.0055,0.0017
769,0.0135,0.0161,0.0129,0.0021,0.0025,0.0080,0.0071,0.0017
770,0.0141,0.0178,0.0158,0.0047,0.0042,0.0108,0.0106,0.0037
771,0.0137,0.0153,0.0123,0.0033,0.0028,0.0072,0.0063,0.0025
772,0.0139,0.0190,0.0168,0.0047,0.0035,0.0099,0.0092,0.0032
773,0.0136,0.0149,0.0121,0.0029,0.0032,0.0072,0.0067,0.0022
774,0.0140,0.0196,0.0188,0.0102,0.0039,0.0117,0.0118,0.0065
775,0.0133,0.0200,0.0154,0.0111,0.0026,0.0095,0.0078,0.0067
776,0.0136,0.0180,0.0162,0.0104,0.0031,0.0111,0.0100,0.0066
777,0.0131,0.0157,0.0136,0.0058,0.0017,0.0072,0.0069,0.0035
778,0.0138,0.0189,0.0174,0.0061,0.0040,0.0105,0.0119,0.0038
779,0.0137,0.0215,0.0179,0.0119,0.0040,0.0110,0.0098,0.0075
780,0.0134,0.0104,0.0089,0.0026,0.0033,0.0046,0.0047,0.0021
781,0.0137,0.0171,0.0152,0.0084,0.0033,0.0118,0.0104,0.0058
782,0.0133,0.0136,0.0117,0.0039,0.0022,0.0076,0.0065,0.0028
783,0.0134,0.0133,0.0118,0.0027,0.0023,0.0071,0.0064,0.0019
784,0.0138,0.0117,0.0109,0.0048,0.0040,0.0067,0.0066,0.0036
785,0.0137,0.0139,0.0122,0.0025,0.0039,0.0079,0.0076,0.0019
786,0.0132,0.0122,0.0100,0.0017,0.0020,0.0062,0.0056,0.0013
787,0.0135,0.0152,0.0145,0.0032,0.0031,0.0086,0.0089,0.0023
788,0.0131,0.0197,0.0186,0.0045,0.0017,0.0076,0.0076,0.0032
789,0.0131,0.0199,0.0192,0.0047,0.0016,0.0075,0.0090,0.0033
790,0.0148,0.0349,0.0344,0.0094,0.0069,0.0200,0.0199,0.0057
791,0.0134,0.0104,0.0089,0.0026,0.0033,0.0046,0.0047,0.0021
792,0.0131,0.0229,0.0219,0.0054,0.0016,0.0131,0.0114,0.0033
793,0.0132,0.0241,0.0231,0.0066,0.0023,0.0140,0.0124,0.0037
794,0.0140,0.0243,0.0259,0.0094,0.0047,0.0167,0.0180,0.0062
795,0.0138,0.0358,0.0355,0.0148,0.0037,0.0195,0.0196,0.0075
796,0.0145,0.0519,0.0481,0.0208,0.0058,0.0277,0.0253,0.0115
797,0.0144,0.0213,0.0196,0.0168,0.0050,0.0119,0.0117,0.0091
798,0.0132,0.0136,0.0110,0.0015,0.0018,0.0060,0.0056,0.0012
799,0.0130,0.0092,0.0073,0.0014,0.0014,0.0043,0.0034,0.0010
800,0.0135,0.0104,0.0090,0.0023,0.0028,0.0056,0.0052,0.0017
801,0.0138,0.0125,0.0102,0.0021,0.0046,0.0058,0.0054,0.0017
802,0.0134,0.0104,0.0089,0.0026,0.0033,0.0046,0.0047,0.0021
803,0.0130,0.0092,0.0073,0.0014,0.0014,0.0043,0.0034,0.0010
804,0.0135,0.0104,0.0090,0.0023,0.0028,0.0056,0.0052,0.0017
805,0.0130,0.0092,0.0073,0.0014,0.0014,0.0043,0.0034,0.0010
806,0.0130,0.0092,0.0073,0.0014,0.0014,0.0043,0.0034,0.0010
807,0.0138,0.0125,0.0102,0.0021,0.0046,0.0058,0.0054,0.0017
808,0.0130,0.0092,0.0073,0.0014,0.0014,0.0043,0.0034,0.0010
809,0.0130,0.0092,0.0073,0.0014,0.0014,0.0043,0.0034,0.0010
810,0.0138,0.0117,0.0096,0.0030,0.0036,0.0067,0.0061,0.0025
811,0.0130,0.0092,0.0073,0.0014,0.0014,0.0043,0.0034,0.0010
812,0.0138,0.0125,0.0102,0.0021,0.0046,0.0058,0.0054,0.0017
813,0.0134,0.0104,0.0089,0.0026,0.0033,0.0046,0.0047,0.0021
814,0.0135,0.0104,0.0090,0.0023,0.0028,0.0056,0.0052,0.0017
815,0.0130,0.0092,0.0073,0.0014,0.0014,0.0043,0.0034,0.0010
816,0.0130,0.0092,0.0073,0.0014,0.0014,0.0043,0.0034,0.0010
817,0.0135,0.0104,0.0090,0.0023,0.0028,0.0056,0.0052,0.0017
818,0.0138,0.0125,0.0102,0.0021,0.0046,0.0058,0.0054,0.0017
819,0.0130,0.0092,0.0073,0.0014,0.0014,0.0043,0.0034,0.0010
820,0.0135,0.0104,0.0090,0.0023,0.0028,0.0056,0.0052,0.0017
821,0.0130,0.0092,0.0073,0.0014,0.0014,0.0043,0.0034,0.0010
822,0.0134,0.0150,0.0121,0.0018,0.0023,0.0072,0.0067,0.0014
823,0.0138,0.0125,0.0102,0.0021,0.0046,0.0058,0.0054,0.0017
824,0.0141,0.0169,0.0129,0.0069,0.0045,0.0075,0.0068,0.0052
825,0.0130,0.0092,0.0073,0.0014,0.0014,0.0043,0.0034,0.0010
826,0.0130,0.0092,0.0073,0.0014,0.0014,0.0043,0.0034,0.0010
827,0.0135,0.0104,0.0090,0.0023,0.0028,0.0056,0.0052,0.0017
828,0.0130,0.0092,0.0073,0.0014,0.0014,0.0043,0.0034,0.0010
829,0.0138,0.0125,0.0102,0.0021,0.0046,0.0058,0.0054,0.0017
830,0.0135,0.0104,0.0090,0.0023,0.0028,0.0056,0.0052,0.0017
831,0.0130,0.0092,0.0073,0.0014,0.0014,0.0043,0.0034,0.0010
832,0.0130,0.0092,0.0073,0.0014,0.0014,0.0043,0.0034,0.0010
833,0.0135,0.0104,0.0090,0.0023,0.0028,0.0056,0.0052,0.0017
834,0.0139,0.0158,0.0124,0.0039,0.0041,0.0080,0.0074,0.0027
835,0.0134,0.0104,0.0089,0.0026,0.0033,0.0046,0.0047,0.0021
836,0.0130,0.0092,0.0073,0.0014,0.0014,0.0043,0.0034,0.0010
837,0.0135,0.0104,0.0090,0.0023,0.0028,0.0056,0.0052,0.0017
838,0.0130,0.0092,0.0073,0.0014,0.0014,0.0043,0.0034,0.0010
839,0.0130,0.0092,0.0073,0.0014,0.0014,0.0043,0.0034,0.0010
840,0.0138,0.0125,0.0102,0.0021,0.0046,0.0058,0.0054,0.0017
841,0.0136,0.0137,0.0202,0.0027,0.0031,0.0061,0.0089,0.0015
842,0.0134,0.0176,0.0243,0.0022,0.0024,0.0090,0.0120,0.0013
843,0.0137,0.0129,0.0166,0.0059,0.0031,0.0075,0.0099,0.0045
844,0.0133,0.0199,0.0248,0.0028,0.0018,0.0091,0.0114,0.0019
845,0.0138,0.0179,0.0151,0.0042,0.0037,0.0108,0.0097,0.0029
846,0.0134,0.0104,0.0089,0.0026,0.0033,0.0046,0.0047,0.0021
847,0.0141,0.0178,0.0158,0.0047,0.0042,0.0108,0.0106,0.0037
848,0.0132,0.0169,0.0187,0.0037,0.0019,0.0071,0.0075,0.0026
849,0.0132,0.0148,0.0157,0.0038,0.0020,0.0066,0.0070,0.0028
850,0.0136,0.0148,0.0168,0.0032,0.0034,0.0076,0.0080,0.0024
851,0.0137,0.0097,0.0080,0.0026,0.0033,0.0047,0.0044,0.0021
852,0.0131,0.0102,0.0082,0.0021,0.0017,0.0045,0.0039,0.0015
853,0.0135,0.0104,0.0089,0.0022,0.0027,0.0057,0.0056,0.0016
854,0.0132,0.0106,0.0086,0.0018,0.0023,0.0059,0.0047,0.0014
855,0.0132,0.0122,0.0100,0.0017,0.0020,0.0062,0.0056,0.0013
856,0.0138,0.0181,0.0148,0.0038,0.0040,0.0105,0.0092,0.0027
857,0.0134,0.0104,0.0089,0.0026,0.0033,0.0046,0.0047,0.0021
858,0.0133,0.0146,0.0119,0.0015,0.0021,0.0071,0.0067,0.0012
859,0.0137,0.0153,0.0123,0.0033,0.0028,0.0072,0.0063,0.0025
860,0.0139,0.0138,0.0118,0.0036,0.0037,0.0082,0.0081,0.0029
861,0.0135,0.0161,0.0129,0.0021,0.0025,0.0080,0.0071,0.0017
862,0.0142,0.0227,0.0188,0.0034,0.0052,0.0127,0.0114,0.0026
863,0.0143,0.0150,0.0128,0.0048,0.0044,0.0085,0.0081,0.0038
864,0.0139,0.0190,0.0168,0.0047,0.0035,0.0099,0.0092,0.0032
865,0.0140,0.0196,0.0188,0.0102,0.0039,0.0117,0.0118,0.0065
866,0.0136,0.0206,0.0166,0.0152,0.0031,0.0123,0.0099,0.0109
867,0.0137,0.0162,0.0134,0.0080,0.0039,0.0091,0.0089,0.0053
868,0.0134,0.0104,0.0089,0.0026,0.0033,0.0046,0.0047,0.0021
869,0.0137,0.0162,0.0134,0.0080,0.0039,0.0091,0.0089,0.0053
870,0.0137,0.0162,0.0134,0.0080,0.0039,0.0091,0.0089,0.0053
871,0.0137,0.0162,0.0134,0.0080,0.0039,0.0091,0.0089,0.0053
872,0.0137,0.0162,0.0134,0.0080,0.0039,0.0091,0.0089,0.0053
873,0.0137,0.0162,0.0134,0.0080,0.0039,0.0091,0.0089,0.0053
874,0.0130,0.0082,0.0071,0.0016,0.0013,0.0038,0.0031,0.0012
875,0.0130,0.0082,0.0071,0.0016,0.0013,0.0038,0.0031,0.0012
876,0.0135,0.0089,0.0084,0.0021,0.0027,0.0046,0.0048,0.0017
877,0.0131,0.0097,0.0087,0.0014,0.0017,0.0057,0.0049,0.0011
878,0.0136,0.0195,0.0216,0.0027,0.0037,0.0118,0.0129,0.0023
879,0.0135,0.0147,0.0132,0.0023,0.0031,0.0063,0.0055,0.0017
880,0.0135,0.0100,0.0100,0.0025,0.0027,0.0064,0.0072,0.0020
881,0.0132,0.0128,0.0134,0.0013,0.0023,0.0077,0.0083,0.0009
882,0.0132,0.0197,0.0208,0.0014,0.0018,0.0117,0.0123,0.0011
883,0.0138,0.0106,0.0104,0.0026,0.0039,0.0065,0.0072,0.0020
884,0.0138,0.0143,0.0122,0.0029,0.0036,0.0087,0.0078,0.0025
885,0.0134,0.0128,0.0125,0.0017,0.0022,0.0066,0.0070,0.0012
886,0.0141,0.0213,0.0214,0.0049,0.0042,0.0150,0.0154,0.0039
887,0.0137,0.0148,0.0143,0.0033,0.0030,0.0077,0.0076,0.0025
888,0.0139,0.0178,0.0177,0.0052,0.0036,0.0094,0.0097,0.0038
889,0.0136,0.0189,0.0202,0.0036,0.0032,0.0123,0.0130,0.0030
890,0.0138,0.0166,0.0137,0.0080,0.0042,0.0066,0.0063,0.0050
891,0.0150,0.0174,0.0268,0.0048,0.0062,0.0079,0.0130,0.0033
892,0.0139,0.0184,0.0168,0.0093,0.0037,0.0115,0.0104,0.0056
893,0.0133,0.0188,0.0170,0.0087,0.0024,0.0104,0.0096,0.0055
894,0.0136,0.0168,0.0151,0.0107,0.0032,0.0103,0.0086,0.0072
895,0.0131,0.0151,0.0151,0.0050,0.0016,0.0078,0.0083,0.0032
896,0.0139,0.0191,0.0194,0.0068,0.0046,0.0115,0.0132,0.0046
897,0.0137,0.0178,0.0152,0.0121,0.0037,0.0123,0.0104,0.0086
898,0.0133,0.0126,0.0109,0.0058,0.0024,0.0077,0.0057,0.0039
899,0.0134,0.0116,0.0115,0.0048,0.0025,0.0056,0.0062,0.0032
900,0.0138,0.0100,0.0109,0.0039,0.0041,0.0053,0.0073,0.0030
901,0.0137,0.0128,0.0131,0.0021,0.0042,0.0077,0.0088,0.0015
902,0.0147,0.0221,0.0323,0.0035,0.0056,0.0111,0.0168,0.0024
903,0.0132,0.0128,0.0134,0.0013,0.0023,0.0077,0.0083,0.0009
904,0.0135,0.0140,0.0138,0.0023,0.0032,0.0082,0.0087,0.0018
905,0.0130,0.0196,0.0196,0.0025,0.0015,0.0088,0.0096,0.0018
906,0.0130,0.0197,0.0202,0.0032,0.0014,0.0086,0.0104,0.0020
907,0.0147,0.0246,0.0255,0.0082,0.0066,0.0154,0.0164,0.0053
908,0.0131,0.0186,0.0184,0.0058,0.0018,0.0100,0.0092,0.0037
909,0.0133,0.0190,0.0182,0.0060,0.0027,0.0110,0.0096,0.0035
910,0.0140,0.0204,0.0241,0.0095,0.0047,0.0139,0.0168,0.0062
911,0.0138,0.0261,0.0260,0.0104,0.0039,0.0168,0.0165,0.0061
912,0.0140,0.0311,0.0278,0.0144,0.0045,0.0177,0.0157,0.0093
913,0.0146,0.0245,0.0339,0.0030,0.0051,0.0125,0.0173,0.0023
914,0.0145,0.0163,0.0155,0.0141,0.0054,0.0102,0.0101,0.0091
915,0.0132,0.0197,0.0208,0.0014,0.0018,0.0117,0.0123,0.0011
916,0.0130,0.0082,0.0071,0.0016,0.0013,0.0038,0.0031,0.0012
917,0.0135,0.0089,0.0084,0.0021,0.0027,0.0046,0.0048,0.0017
918,0.0138,0.0116,0.0120,0.0019,0.0046,0.0063,0.0073,0.0014
919,0.0130,0.0082,0.0071,0.0016,0.0013,0.0038,0.0031,0.0012
920,0.0135,0.0089,0.0084,0.0021,0.0027,0.0046,0.0048,0.0017
921,0.0130,0.0082,0.0071,0.0016,0.0013,0.0038,0.0031,0.0012
922,0.0130,0.0082,0.0071,0.0016,0.0013,0.0038,0.0031,0.0012
923,0.0138,0.0116,0.0120,0.0019,0.0046,0.0063,0.0073,0.0014
924,0.0145,0.0259,0.0337,0.0030,0.0049,0.0134,0.0167,0.0024
925,0.0130,0.0082,0.0071,0.0016,0.0013,0.0038,0.0031,0.0012
926,0.0130,0.0082,0.0071,0.0016,0.0013,0.0038,0.0031,0.0012
927,0.0138,0.0106,0.0104,0.0026,0.0039,0.0065,0.0072,0.0020
928,0.0130,0.0082,0.0071,0.0016,0.0013,0.0038,0.0031,0.0012
929,0.0138,0.0116,0.0120,0.0019,0.0046,0.0063,0.0073,0.0014
930,0.0135,0.0089,0.0084,0.0021,0.0027,0.0046,0.0048,0.0017
931,0.0130,0.0082,0.0071,0.0016,0.0013,0.0038,0.0031,0.0012
932,0.0130,0.0082,0.0071,0.0016,0.0013,0.0038,0.0031,0.0012
933,0.0135,0.0089,0.0084,0.0021,0.0027,0.0046,0.0048,0.0017
934,0.0138,0.0116,0.0120,0.0019,0.0046,0.0063,0.0073,0.0014
935,0.0142,0.0179,0.0140,0.0064,0.0051,0.0090,0.0076,0.0048
936,0.0130,0.0082,0.0071,0.0016,0.0013,0.0038,0.0031,0.0012
937,0.0135,0.0089,0.0084,0.0021,0.0027,0.0046,0.0048,0.0017
938,0.0130,0.0082,0.0071,0.0016,0.0013,0.0038,0.0031,0.0012
939,0.0133,0.0152,0.0152,0.0016,0.0019,0.0086,0.0092,0.0012
940,0.0138,0.0116,0.0120,0.0019,0.0046,0.0063,0.0073,0.0014
941,0.0130,0.0082,0.0071,0.0016,0.0013,0.0038,0.0031,0.0012
942,0.0130,0.0082,0.0071,0.0016,0.0013,0.0038,0.0031,0.0012
943,0.0135,0.0089,0.0084,0.0021,0.0027,0.0046,0.0048,0.0017
944,0.0130,0.0082,0.0071,0.0016,0.0013,0.0038,0.0031,0.0012
945,0.0138,0.0116,0.0120,0.0019,0.0046,0.0063,0.0073,0.0014
946,0.0142,0.0173,0.0145,0.0032,0.0041,0.0075,0.0081,0.0024
947,0.0135,0.0089,0.0084,0.0021,0.0027,0.0046,0.0048,0.0017
948,0.0130,0.0082,0.0071,0.0016,0.0013,0.0038,0.0031,0.0012
949,0.0130,0.0082,0.0071,0.0016,0.0013,0.0038,0.0031,0.0012
950,0.0135,0.0089,0.0084,0.0021,0.0027,0.0046,0.0048,0.0017
951,0.0139,0.0148,0.0145,0.0024,0.0041,0.0084,0.0091,0.0019
952,0.0130,0.0082,0.0071,0.0016,0.0013,0.0038,0.0031,0.0012
953,0.0135,0.0089,0.0084,0.0021,0.0027,0.0046,0.0048,0.0017
954,0.0130,0.0082,0.0071,0.0016,0.0013,0.0038,0.0031,0.0012
955,0.0130,0.0082,0.0071,0.0016,0.0013,0.0038,0.0031,0.0012
956,0.0138,0.0116,0.0120,0.0019,0.0046,0.0063,0.0073,0.0014
957,0.0143,0.0238,0.0280,0.0036,0.0047,0.0128,0.0143,0.0030
958,0.0137,0.0116,0.0144,0.0032,0.0036,0.0064,0.0081,0.0020
959,0.0135,0.0139,0.0168,0.0028,0.0026,0.0078,0.0089,0.0018
960,0.0137,0.0135,0.0174,0.0038,0.0032,0.0087,0.0118,0.0028
961,0.0133,0.0152,0.0182,0.0025,0.0020,0.0072,0.0091,0.0017
962,0.0138,0.0143,0.0122,0.0029,0.0036,0.0087,0.0078,0.0025
963,0.0141,0.0213,0.0214,0.0049,0.0042,0.0150,0.0154,0.0039
964,0.0132,0.0132,0.0145,0.0024,0.0020,0.0068,0.0071,0.0019
965,0.0132,0.0117,0.0122,0.0025,0.0022,0.0062,0.0064,0.0020
966,0.0136,0.0116,0.0122,0.0027,0.0034,0.0074,0.0074,0.0020
967,0.0136,0.0099,0.0095,0.0021,0.0032,0.0058,0.0057,0.0016
968,0.0141,0.0208,0.0240,0.0039,0.0045,0.0108,0.0123,0.0033
969,0.0131,0.0089,0.0077,0.0018,0.0016,0.0041,0.0035,0.0014
970,0.0135,0.0098,0.0094,0.0023,0.0026,0.0061,0.0064,0.0019
971,0.0132,0.0091,0.0081,0.0013,0.0025,0.0047,0.0042,0.0009
972,0.0132,0.0128,0.0134,0.0013,0.0023,0.0077,0.0083,0.0009
973,0.0137,0.0133,0.0114,0.0037,0.0037,0.0075,0.0065,0.0030
974,0.0132,0.0174,0.0177,0.0015,0.0017,0.0106,0.0109,0.0012
975,0.0137,0.0148,0.0143,0.0033,0.0030,0.0077,0.0076,0.0025
976,0.0139,0.0176,0.0180,0.0034,0.0038,0.0119,0.0124,0.0027
977,0.0134,0.0128,0.0125,0.0017,0.0022,0.0066,0.0070,0.0012
978,0.0141,0.0206,0.0210,0.0026,0.0051,0.0124,0.0129,0.0022
979,0.0140,0.0176,0.0199,0.0039,0.0043,0.0091,0.0107,0.0033
980,0.0142,0.0157,0.0160,0.0050,0.0044,0.0101,0.0110,0.0039
981,0.0139,0.0178,0.0177,0.0052,0.0036,0.0094,0.0097,0.0038
982,0.0139,0.0184,0.0168,0.0093,0.0037,0.0115,0.0104,0.0056
983,0.0136,0.0199,0.0176,0.0110,0.0030,0.0130,0.0110,0.0079
984,0.0137,0.0156,0.0138,0.0076,0.0039,0.0099,0.0092,0.0051
985,0.0137,0.0156,0.0138,0.0076,0.0039,0.0099,0.0092,0.0051
986,0.0137,0.0156,0.0138,0.0076,0.0039,0.0099,0.0092,0.0051
987,0.0137,0.0156,0.0138,0.0076,0.0039,0.0099,0.0092,0.0051
988,0.0137,0.0156,0.0138,0.0076,0.0039,0.0099,0.0092,0.0051
989,0.0137,0.0156,0.0138,0.0076,0.0039,0.0099,0.0092,0.0051
990,0.0136,0.0115,0.0104,0.0029,0.0039,0.0059,0.0058,0.0025
991,0.0130,0.0079,0.0076,0.0013,0.0012,0.0039,0.0038,0.0010
992,0.0130,0.0079,0.0076,0.0013,0.0012,0.0039,0.0038,0.0010
993,0.0135,0.0088,0.0087,0.0023,0.0026,0.0054,0.0056,0.0019
994,0.0131,0.0080,0.0076,0.0013,0.0019,0.0040,0.0038,0.0010
995,0.0136,0.0195,0.0221,0.0031,0.0037,0.0120,0.0133,0.0026
996,0.0135,0.0105,0.0117,0.0026,0.0028,0.0073,0.0086,0.0021
997,0.0132,0.0119,0.0129,0.0012,0.0025,0.0076,0.0082,0.0009
998,0.0132,0.0169,0.0179,0.0014,0.0021,0.0104,0.0107,0.0011
999,0.0139,0.0097,0.0096,0.0025,0.0043,0.0061,0.0064,0.0019
1000,0.0138,0.0117,0.0111,0.0025,0.0039,0.0071,0.0068,0.0022
1001,0.0143,0.0230,0.0213,0.0077,0.0053,0.0125,0.0131,0.0046
1002,0.0136,0.0113,0.0106,0.0031,0.0036,0.0042,0.0046,0.0026
1003,0.0135,0.0111,0.0115,0.0018,0.0027,0.0063,0.0067,0.0014
1004,0.0142,0.0185,0.0185,0.0051,0.0048,0.0134,0.0136,0.0041
1005,0.0138,0.0130,0.0127,0.0040,0.0035,0.0068,0.0068,0.0032
1006,0.0140,0.0174,0.0175,0.0065,0.0041,0.0101,0.0101,0.0049
1007,0.0136,0.0174,0.0190,0.0041,0.0034,0.0118,0.0126,0.0033
1008,0.0140,0.0176,0.0154,0.0108,0.0040,0.0111,0.0093,0.0074
1009,0.0133,0.0175,0.0167,0.0067,0.0024,0.0103,0.0100,0.0043
1010,0.0136,0.0164,0.0148,0.0127,0.0033,0.0100,0.0082,0.0092
1011,0.0131,0.0124,0.0123,0.0035,0.0015,0.0069,0.0068,0.0024
1012,0.0139,0.0166,0.0168,0.0071,0.0049,0.0105,0.0116,0.0050
1013,0.0133,0.0128,0.0115,0.0024,0.0026,0.0073,0.0074,0.0019
1014,0.0137,0.0190,0.0170,0.0144,0.0038,0.0130,0.0119,0.0101
1015,0.0134,0.0124,0.0114,0.0052,0.0028,0.0076,0.0065,0.0036
1016,0.0135,0.0119,0.0110,0.0050,0.0029,0.0069,0.0055,0.0034
1017,0.0138,0.0097,0.0097,0.0054,0.0042,0.0055,0.0056,0.0041
1018,0.0138,0.0121,0.0129,0.0021,0.0044,0.0075,0.0086,0.0015
1019,0.0132,0.0119,0.0129,0.0012,0.0025,0.0076,0.0082,0.0009
1020,0.0135,0.0140,0.0139,0.0018,0.0033,0.0090,0.0093,0.0013
1021,0.0130,0.0193,0.0193,0.0032,0.0014,0.0085,0.0092,0.0025
1022,0.0130,0.0193,0.0197,0.0047,0.0014,0.0083,0.0097,0.0034
1023,0.0146,0.0194,0.0216,0.0074,0.0066,0.0122,0.0145,0.0051
1024,0.0134,0.0125,0.0102,0.0024,0.0026,0.0063,0.0057,0.0020
1025,0.0131,0.0170,0.0166,0.0072,0.0020,0.0086,0.0077,0.0046
1026,0.0134,0.0162,0.0152,0.0065,0.0030,0.0090,0.0075,0.0039
1027,0.0139,0.0179,0.0219,0.0102,0.0045,0.0107,0.0142,0.0069
1028,0.0139,0.0180,0.0185,0.0063,0.0043,0.0115,0.0114,0.0037
1029,0.0139,0.0251,0.0211,0.0113,0.0038,0.0166,0.0137,0.0081
1030,0.0147,0.0125,0.0129,0.0103,0.0062,0.0081,0.0087,0.0071
1031,0.0132,0.0169,0.0179,0.0014,0.0021,0.0104,0.0107,0.0011
1032,0.0130,0.0079,0.0076,0.0013,0.0012,0.0039,0.0038,0.0010
1033,0.0135,0.0088,0.0087,0.0023,0.0026,0.0054,0.0056,0.0019
1034,0.0139,0.0141,0.0162,0.0020,0.0047,0.0087,0.0101,0.0015
1035,0.0135,0.0130,0.0107,0.0021,0.0028,0.0053,0.0048,0.0017
1036,0.0130,0.0079,0.0076,0.0013,0.0012,0.0039,0.0038,0.0010
1037,0.0135,0.0088,0.0087,0.0023,0.0026,0.0054,0.0056,0.0019
1038,0.0130,0.0079,0.0076,0.0013,0.0012,0.0039,0.0038,0.0010
1039,0.0130,0.0079,0.0076,0.0013,0.0012,0.0039,0.0038,0.0010
1040,0.0139,0.0141,0.0162,0.0020,0.0047,0.0087,0.0101,0.0015
1041,0.0130,0.0079,0.0076,0.0013,0.0012,0.0039,0.0038,0.0010
1042,0.0130,0.0079,0.0076,0.0013,0.0012,0.0039,0.0038,0.0010
1043,0.0139,0.0097,0.0096,0.0025,0.0043,0.0061,0.0064,0.0019
1044,0.0130,0.0079,0.0076,0.0013,0.0012,0.0039,0.0038,0.0010
1045,0.0139,0.0141,0.0162,0.0020,0.0047,0.0087,0.0101,0.0015
1046,0.0141,0.0200,0.0161,0.0052,0.0052,0.0101,0.0081,0.0035
1047,0.0135,0.0088,0.0087,0.0023,0.0026,0.0054,0.0056,0.0019
1048,0.0130,0.0079,0.0076,0.0013,0.0012,0.0039,0.0038,0.0010
1049,0.0130,0.0079,0.0076,0.0013,0.0012,0.0039,0.0038,0.0010
1050,0.0135,0.0088,0.0087,0.0023,0.0026,0.0054,0.0056,0.0019
1051,0.0139,0.0141,0.0162,0.0020,0.0047,0.0087,0.0101,0.0015
1052,0.0130,0.0079,0.0076,0.0013,0.0012,0.0039,0.0038,0.0010
1053,0.0135,0.0088,0.0087,0.0023,0.0026,0.0054,0.0056,0.0019
1054,0.0130,0.0079,0.0076,0.0013,0.0012,0.0039,0.0038,0.0010
1055,0.0134,0.0132,0.0138,0.0016,0.0023,0.0084,0.0088,0.0011
1056,0.0139,0.0141,0.0162,0.0020,0.0047,0.0087,0.0101,0.0015
1057,0.0139,0.0163,0.0147,0.0020,0.0040,0.0067,0.0079,0.0015
1058,0.0130,0.0079,0.0076,0.0013,0.0012,0.0039,0.0038,0.0010
1059,0.0130,0.0079,0.0076,0.0013,0.0012,0.0039,0.0038,0.0010
1060,0.0135,0.0088,0.0087,0.0023,0.0026,0.0054,0.0056,0.0019
1061,0.0130,0.0079,0.0076,0.0013,0.0012,0.0039,0.0038,0.0010
1062,0.0139,0.0141,0.0162,0.0020,0.0047,0.0087,0.0101,0.0015
1063,0.0135,0.0088,0.0087,0.0023,0.0026,0.0054,0.0056,0.0019
1064,0.0130,0.0079,0.0076,0.0013,0.0012,0.0039,0.0038,0.0010
1065,0.0130,0.0079,0.0076,0.0013,0.0012,0.0039,0.0038,0.0010
1066,0.0135,0.0088,0.0087,0.0023,0.0026,0.0054,0.0056,0.0019
1067,0.0139,0.0129,0.0136,0.0023,0.0045,0.0078,0.0087,0.0017
1068,0.0142,0.0166,0.0140,0.0036,0.0039,0.0077,0.0074,0.0027
1069,0.0130,0.0079,0.0076,0.0013,0.0012,0.0039,0.0038,0.0010
1070,0.0135,0.0088,0.0087,0.0023,0.0026,0.0054,0.0056,0.0019
1071,0.0130,0.0079,0.0076,0.0013,0.0012,0.0039,0.0038,0.0010
1072,0.0130,0.0079,0.0076,0.0013,0.0012,0.0039,0.0038,0.0010
1073,0.0139,0.0141,0.0162,0.0020,0.0047,0.0087,0.0101,0.0015
1074,0.0137,0.0126,0.0175,0.0036,0.0035,0.0071,0.0098,0.0024
1075,0.0134,0.0120,0.0146,0.0028,0.0025,0.0077,0.0091,0.0018
1076,0.0137,0.0161,0.0243,0.0038,0.0032,0.0100,0.0156,0.0030
1077,0.0133,0.0113,0.0134,0.0018,0.0019,0.0064,0.0083,0.0013
1078,0.0138,0.0117,0.0111,0.0025,0.0039,0.0071,0.0068,0.0022
1079,0.0140,0.0169,0.0152,0.0023,0.0041,0.0081,0.0090,0.0017
1080,0.0142,0.0185,0.0185,0.0051,0.0048,0.0134,0.0136,0.0041
1081,0.0132,0.0102,0.0107,0.0017,0.0020,0.0057,0.0057,0.0013
1082,0.0132,0.0098,0.0102,0.0019,0.0022,0.0055,0.0057,0.0015
1083,0.0135,0.0107,0.0108,0.0025,0.0033,0.0070,0.0070,0.0019
1084,0.0137,0.0079,0.0077,0.0022,0.0032,0.0041,0.0041,0.0018
1085,0.0131,0.0090,0.0085,0.0013,0.0016,0.0052,0.0047,0.0010
1086,0.0135,0.0100,0.0104,0.0025,0.0026,0.0070,0.0076,0.0020
1087,0.0133,0.0092,0.0094,0.0012,0.0029,0.0054,0.0058,0.0008
1088,0.0132,0.0119,0.0129,0.0012,0.0025,0.0076,0.0082,0.0009
1089,0.0137,0.0103,0.0099,0.0038,0.0035,0.0060,0.0059,0.0031
1090,0.0141,0.0173,0.0148,0.0028,0.0042,0.0084,0.0090,0.0021
1091,0.0133,0.0158,0.0163,0.0015,0.0021,0.0101,0.0103,0.0012
1092,0.0138,0.0130,0.0127,0.0040,0.0035,0.0068,0.0068,0.0032
1093,0.0139,0.0142,0.0141,0.0034,0.0041,0.0100,0.0101,0.0028
1094,0.0135,0.0111,0.0115,0.0018,0.0027,0.0063,0.0067,0.0014
1095,0.0142,0.0210,0.0212,0.0033,0.0054,0.0133,0.0132,0.0028
1096,0.0144,0.0136,0.0139,0.0054,0.0050,0.0089,0.0095,0.0044
1097,0.0140,0.0174,0.0175,0.0065,0.0041,0.0101,0.0101,0.0049
1098,0.0140,0.0176,0.0154,0.0108,0.0040,0.0111,0.0093,0.0074
1099,0.0136,0.0170,0.0158,0.0094,0.0028,0.0098,0.0088,0.0057
1100,0.0137,0.0133,0.0124,0.0057,0.0040,0.0083,0.0078,0.0041
1101,0.0141,0.0237,0.0200,0.0070,0.0040,0.0127,0.0117,0.0051
1102,0.0137,0.0133,0.0124,0.0057,0.0040,0.0083,0.0078,0.0041
1103,0.0137,0.0133,0.0124,0.0057,0.0040,0.0083,0.0078,0.0041
1104,0.0137,0.0133,0.0124,0.0057,0.0040,0.0083,0.0078,0.0041
1105,0.0137,0.0133,0.0124,0.0057,0.0040,0.0083,0.0078,0.0041
1106,0.0137,0.0133,0.0124,0.0057,0.0040,0.0083,0.0078,0.0041
1107,0.0130,0.0080,0.0082,0.0012,0.0011,0.0044,0.0045,0.0008
1108,0.0130,0.0080,0.0082,0.0012,0.0011,0.0044,0.0045,0.0008
1109,0.0135,0.0092,0.0093,0.0023,0.0026,0.0059,0.0062,0.0019
1110,0.0131,0.0085,0.0089,0.0012,0.0020,0.0047,0.0050,0.0009
1111,0.0136,0.0137,0.0157,0.0030,0.0037,0.0088,0.0097,0.0026
1112,0.0134,0.0116,0.0099,0.0027,0.0033,0.0051,0.0051,0.0021
1113,0.0139,0.0159,0.0125,0.0051,0.0042,0.0077,0.0065,0.0032
1114,0.0142,0.0166,0.0140,0.0036,0.0039,0.0077,0.0074,0.0027
1115,0.0135,0.0095,0.0104,0.0026,0.0028,0.0063,0.0075,0.0021
1116,0.0132,0.0095,0.0099,0.0012,0.0025,0.0059,0.0062,0.0009
1117,0.0132,0.0127,0.0131,0.0014,0.0021,0.0080,0.0080,0.0011
1118,0.0139,0.0090,0.0087,0.0025,0.0043,0.0051,0.0051,0.0019
1119,0.0138,0.0111,0.0108,0.0025,0.0040,0.0068,0.0065,0.0022
1120,0.0135,0.0103,0.0104,0.0018,0.0029,0.0056,0.0057,0.0015
1121,0.0143,0.0164,0.0162,0.0051,0.0049,0.0119,0.0118,0.0041
1122,0.0139,0.0119,0.0115,0.0043,0.0037,0.0059,0.0057,0.0034
1123,0.0141,0.0156,0.0151,0.0069,0.0044,0.0088,0.0084,0.0051
1124,0.0136,0.0153,0.0168,0.0043,0.0034,0.0108,0.0114,0.0034
1125,0.0142,0.0193,0.0178,0.0039,0.0036,0.0100,0.0102,0.0029
1126,0.0140,0.0182,0.0157,0.0123,0.0043,0.0118,0.0098,0.0086
1127,0.0133,0.0145,0.0139,0.0051,0.0026,0.0084,0.0082,0.0030
1128,0.0136,0.0184,0.0164,0.0154,0.0032,0.0125,0.0106,0.0111
1129,0.0131,0.0110,0.0107,0.0030,0.0015,0.0055,0.0050,0.0020
1130,0.0139,0.0136,0.0140,0.0064,0.0048,0.0088,0.0095,0.0048
1131,0.0138,0.0195,0.0181,0.0151,0.0039,0.0135,0.0129,0.0105
1132,0.0134,0.0127,0.0123,0.0051,0.0028,0.0080,0.0075,0.0036
1133,0.0135,0.0124,0.0116,0.0049,0.0030,0.0074,0.0064,0.0033
1134,0.0138,0.0101,0.0099,0.0058,0.0042,0.0061,0.0059,0.0044
1135,0.0138,0.0112,0.0120,0.0020,0.0044,0.0067,0.0077,0.0014
1136,0.0147,0.0200,0.0165,0.0100,0.0057,0.0122,0.0111,0.0068
1137,0.0132,0.0095,0.0099,0.0012,0.0025,0.0059,0.0062,0.0009
1138,0.0135,0.0148,0.0148,0.0018,0.0034,0.0103,0.0106,0.0012
1139,0.0130,0.0187,0.0185,0.0039,0.0015,0.0073,0.0078,0.0029
1140,0.0130,0.0191,0.0192,0.0056,0.0013,0.0079,0.0091,0.0039
1141,0.0146,0.0171,0.0186,0.0064,0.0066,0.0098,0.0124,0.0046
1142,0.0131,0.0167,0.0160,0.0075,0.0022,0.0082,0.0069,0.0048
1143,0.0134,0.0159,0.0148,0.0067,0.0032,0.0092,0.0075,0.0040
1144,0.0138,0.0175,0.0213,0.0109,0.0042,0.0103,0.0134,0.0074
1145,0.0140,0.0167,0.0173,0.0054,0.0045,0.0102,0.0102,0.0031
1146,0.0138,0.0259,0.0218,0.0122,0.0038,0.0177,0.0148,0.0088
1147,0.0138,0.0213,0.0176,0.0114,0.0042,0.0118,0.0101,0.0075
1148,0.0148,0.0132,0.0142,0.0084,0.0065,0.0088,0.0098,0.0052
1149,0.0132,0.0127,0.0131,0.0014,0.0021,0.0080,0.0080,0.0011
1150,0.0130,0.0080,0.0082,0.0012,0.0011,0.0044,0.0045,0.0008
1151,0.0135,0.0092,0.0093,0.0023,0.0026,0.0059,0.0062,0.0019
1152,0.0139,0.0118,0.0136,0.0020,0.0047,0.0073,0.0085,0.0015
1153,0.0130,0.0080,0.0082,0.0012,0.0011,0.0044,0.0045,0.0008
1154,0.0135,0.0092,0.0093,0.0023,0.0026,0.0059,0.0062,0.0019
1155,0.0130,0.0080,0.0082,0.0012,0.0011,0.0044,0.0045,0.0008
1156,0.0130,0.0080,0.0082,0.0012,0.0011,0.0044,0.0045,0.0008
1157,0.0139,0.0118,0.0136,0.0020,0.0047,0.0073,0.0085,0.0015
1158,0.0140,0.0150,0.0120,0.0073,0.0048,0.0073,0.0064,0.0053
1159,0.0130,0.0080,0.0082,0.0012,0.0011,0.0044,0.0045,0.0008
1160,0.0130,0.0080,0.0082,0.0012,0.0011,0.0044,0.0045,0.0008
1161,0.0139,0.0090,0.0087,0.0025,0.0043,0.0051,0.0051,0.0019
1162,0.0130,0.0080,0.0082,0.0012,0.0011,0.0044,0.0045,0.0008
1163,0.0139,0.0118,0.0136,0.0020,0.0047,0.0073,0.0085,0.0015
1164,0.0135,0.0092,0.0093,0.0023,0.0026,0.0059,0.0062,0.0019
1165,0.0130,0.0080,0.0082,0.0012,0.0011,0.0044,0.0045,0.0008
1166,0.0130,0.0080,0.0082,0.0012,0.0011,0.0044,0.0045,0.0008
1167,0.0135,0.0092,0.0093,0.0023,0.0026,0.0059,0.0062,0.0019
1168,0.0139,0.0118,0.0136,0.0020,0.0047,0.0073,0.0085,0.0015
1169,0.0140,0.0150,0.0120,0.0073,0.0048,0.0073,0.0064,0.0053
1170,0.0130,0.0080,0.0082,0.0012,0.0011,0.0044,0.0045,0.0008
1171,0.0135,0.0092,0.0093,0.0023,0.0026,0.0059,0.0062,0.0019
1172,0.0130,0.0080,0.0082,0.0012,0.0011,0.0044,0.0045,0.0008
1173,0.0134,0.0104,0.0106,0.0015,0.0024,0.0061,0.0063,0.0011
1174,0.0139,0.0118,0.0136,0.0020,0.0047,0.0073,0.0085,0.0015
1175,0.0130,0.0080,0.0082,0.0012,0.0011,0.0044,0.0045,0.0008
1176,0.0130,0.0080,0.0082,0.0012,0.0011,0.0044,0.0045,0.0008
1177,0.0135,0.0092,0.0093,0.0023,0.0026,0.0059,0.0062,0.0019
1178,0.0130,0.0080,0.0082,0.0012,0.0011,0.0044,0.0045,0.0008
1179,0.0139,0.0118,0.0136,0.0020,0.0047,0.0073,0.0085,0.0015
1180,0.0140,0.0150,0.0120,0.0073,0.0048,0.0073,0.0064,0.0053
1181,0.0135,0.0092,0.0093,0.0023,0.0026,0.0059,0.0062,0.0019
1182,0.0130,0.0080,0.0082,0.0012,0.0011,0.0044,0.0045,0.0008
1183,0.0130,0.0080,0.0082,0.0012,0.0011,0.0044,0.0045,0.0008
1184,0.0135,0.0092,0.0093,0.0023,0.0026,0.0059,0.0062,0.0019
1185,0.0140,0.0117,0.0120,0.0023,0.0047,0.0069,0.0074,0.0018
1186,0.0130,0.0080,0.0082,0.0012,0.0011,0.0044,0.0045,0.0008
1187,0.0135,0.0092,0.0093,0.0023,0.0026,0.0059,0.0062,0.0019
1188,0.0130,0.0080,0.0082,0.0012,0.0011,0.0044,0.0045,0.0008
1189,0.0130,0.0080,0.0082,0.0012,0.0011,0.0044,0.0045,0.0008
1190,0.0139,0.0118,0.0136,0.0020,0.0047,0.0073,0.0085,0.0015
1191,0.0140,0.0150,0.0120,0.0073,0.0048,0.0073,0.0064,0.0053
1192,0.0137,0.0130,0.0197,0.0036,0.0034,0.0072,0.0107,0.0024
1193,0.0134,0.0121,0.0163,0.0027,0.0023,0.0079,0.0099,0.0018
1194,0.0137,0.0182,0.0288,0.0039,0.0032,0.0114,0.0184,0.0031
1195,0.0133,0.0110,0.0139,0.0016,0.0019,0.0066,0.0088,0.0011
1196,0.0138,0.0111,0.0108,0.0025,0.0040,0.0068,0.0065,0.0022
1197,0.0143,0.0164,0.0162,0.0051,0.0049,0.0119,0.0118,0.0041
1198,0.0132,0.0096,0.0102,0.0017,0.0020,0.0054,0.0056,0.0012
1199,0.0132,0.0095,0.0095,0.0019,0.0023,0.0053,0.0051,0.0014
1200,0.0135,0.0116,0.0123,0.0024,0.0033,0.0076,0.0078,0.0019
1201,0.0137,0.0075,0.0075,0.0024,0.0033,0.0037,0.0038,0.0021
1202,0.0140,0.0150,0.0120,0.0073,0.0048,0.0073,0.0064,0.0053
1203,0.0131,0.0096,0.0097,0.0012,0.0016,0.0060,0.0057,0.0008
1204,0.0135,0.0104,0.0112,0.0023,0.0027,0.0075,0.0083,0.0019
1205,0.0133,0.0085,0.0086,0.0012,0.0029,0.0047,0.0049,0.0008
1206,0.0132,0.0095,0.0099,0.0012,0.0025,0.0059,0.0062,0.0009
1207,0.0137,0.0099,0.0090,0.0037,0.0036,0.0063,0.0053,0.0031
1208,0.0133,0.0134,0.0136,0.0016,0.0021,0.0088,0.0088,0.0012
1209,0.0139,0.0119,0.0115,0.0043,0.0037,0.0059,0.0057,0.0034
1210,0.0139,0.0106,0.0100,0.0033,0.0041,0.0069,0.0066,0.0027
1211,0.0135,0.0103,0.0104,0.0018,0.0029,0.0056,0.0057,0.0015
1212,0.0143,0.0184,0.0179,0.0035,0.0057,0.0119,0.0113,0.0029
1213,0.0140,0.0150,0.0120,0.0073,0.0048,0.0073,0.0064,0.0053
1214,0.0144,0.0120,0.0120,0.0054,0.0052,0.0070,0.0073,0.0044
1215,0.0141,0.0156,0.0151,0.0069,0.0044,0.0088,0.0084,0.0051
1216,0.0140,0.0182,0.0157,0.0123,0.0043,0.0118,0.0098,0.0086
1217,0.0136,0.0170,0.0159,0.0111,0.0028,0.0098,0.0090,0.0080
1218,0.0137,0.0128,0.0119,0.0053,0.0039,0.0082,0.0076,0.0039
1219,0.0137,0.0128,0.0119,0.0053,0.0039,0.0082,0.0076,0.0039
1220,0.0137,0.0128,0.0119,0.0053,0.0039,0.0082,0.0076,0.0039
1221,0.0137,0.0128,0.0119,0.0053,0.0039,0.0082,0.0076,0.0039
1222,0.0137,0.0128,0.0119,0.0053,0.0039,0.0082,0.0076,0.0039
1223,0.0137,0.0128,0.0119,0.0053,0.0039,0.0082,0.0076,0.0039
1224,0.0137,0.0157,0.0130,0.0044,0.0038,0.0082,0.0072,0.0029
1225,0.0135,0.0088,0.0082,0.0027,0.0034,0.0041,0.0043,0.0023
1226,0.0135,0.0088,0.0082,0.0027,0.0034,0.0041,0.0043,0.0023
1227,0.0135,0.0088,0.0082,0.0027,0.0034,0.0041,0.0043,0.0023
1228,0.0133,0.0109,0.0099,0.0025,0.0025,0.0066,0.0064,0.0021
1229,0.0134,0.0196,0.0219,0.0034,0.0029,0.0128,0.0140,0.0028
1230,0.0134,0.0094,0.0086,0.0024,0.0024,0.0046,0.0045,0.0020
1231,0.0134,0.0125,0.0139,0.0022,0.0026,0.0067,0.0081,0.0019
1232,0.0136,0.0197,0.0216,0.0022,0.0031,0.0112,0.0126,0.0018
1233,0.0137,0.0198,0.0216,0.0021,0.0033,0.0116,0.0135,0.0017
1234,0.0141,0.0142,0.0129,0.0048,0.0048,0.0075,0.0071,0.0040
1235,0.0135,0.0151,0.0125,0.0048,0.0033,0.0076,0.0070,0.0036
1236,0.0139,0.0148,0.0161,0.0021,0.0036,0.0076,0.0103,0.0018
1237,0.0141,0.0139,0.0143,0.0023,0.0036,0.0068,0.0082,0.0019
1238,0.0141,0.0153,0.0152,0.0028,0.0035,0.0078,0.0083,0.0021
1239,0.0142,0.0182,0.0184,0.0038,0.0033,0.0096,0.0105,0.0030
1240,0.0136,0.0210,0.0226,0.0045,0.0038,0.0136,0.0143,0.0035
1241,0.0147,0.0186,0.0148,0.0095,0.0059,0.0115,0.0094,0.0065
1242,0.0138,0.0211,0.0209,0.0088,0.0043,0.0126,0.0125,0.0061
1243,0.0136,0.0246,0.0255,0.0104,0.0036,0.0143,0.0146,0.0068
1244,0.0136,0.0177,0.0190,0.0069,0.0034,0.0097,0.0106,0.0045
1245,0.0141,0.0253,0.0267,0.0089,0.0041,0.0158,0.0174,0.0059
1246,0.0134,0.0145,0.0125,0.0053,0.0029,0.0075,0.0070,0.0039
1247,0.0135,0.0129,0.0113,0.0060,0.0030,0.0066,0.0055,0.0043
1248,0.0135,0.0115,0.0102,0.0056,0.0028,0.0064,0.0051,0.0042
1249,0.0134,0.0108,0.0112,0.0049,0.0027,0.0052,0.0068,0.0038
1250,0.0134,0.0114,0.0121,0.0044,0.0025,0.0060,0.0075,0.0034
1251,0.0135,0.0128,0.0132,0.0024,0.0030,0.0073,0.0082,0.0020
1252,0.0134,0.0125,0.0139,0.0022,0.0026,0.0067,0.0081,0.0019
1253,0.0137,0.0092,0.0089,0.0036,0.0041,0.0045,0.0050,0.0025
1254,0.0137,0.0109,0.0123,0.0049,0.0042,0.0056,0.0071,0.0030
1255,0.0138,0.0133,0.0162,0.0054,0.0043,0.0064,0.0092,0.0031
1256,0.0137,0.0322,0.0367,0.0127,0.0043,0.0217,0.0250,0.0085
1257,0.0135,0.0171,0.0152,0.0033,0.0032,0.0095,0.0091,0.0028
1258,0.0136,0.0161,0.0183,0.0062,0.0037,0.0074,0.0094,0.0043
1259,0.0135,0.0205,0.0220,0.0071,0.0033,0.0109,0.0109,0.0044
1260,0.0136,0.0284,0.0291,0.0105,0.0032,0.0168,0.0163,0.0061
1261,0.0137,0.0333,0.0323,0.0152,0.0035,0.0199,0.0191,0.0090
1262,0.0142,0.0378,0.0351,0.0178,0.0049,0.0162,0.0148,0.0098
1263,0.0142,0.0312,0.0285,0.0218,0.0042,0.0136,0.0157,0.0133
1264,0.0136,0.0197,0.0216,0.0022,0.0031,0.0112,0.0126,0.0018
1265,0.0135,0.0088,0.0082,0.0027,0.0034,0.0041,0.0043,0.0023
1266,0.0135,0.0088,0.0082,0.0027,0.0034,0.0041,0.0043,0.0023
1267,0.0135,0.0117,0.0126,0.0022,0.0031,0.0057,0.0067,0.0018
1268,0.0135,0.0149,0.0119,0.0029,0.0029,0.0062,0.0055,0.0025
1269,0.0135,0.0088,0.0082,0.0027,0.0034,0.0041,0.0043,0.0023
1270,0.0135,0.0088,0.0082,0.0027,0.0034,0.0041,0.0043,0.0023
1271,0.0135,0.0088,0.0082,0.0027,0.0034,0.0041,0.0043,0.0023
1272,0.0135,0.0088,0.0082,0.0027,0.0034,0.0041,0.0043,0.0023
1273,0.0135,0.0117,0.0126,0.0022,0.0031,0.0057,0.0067,0.0018
1274,0.0135,0.0088,0.0082,0.0027,0.0034,0.0041,0.0043,0.0023
1275,0.0135,0.0088,0.0082,0.0027,0.0034,0.0041,0.0043,0.0023
1276,0.0137,0.0198,0.0216,0.0021,0.0033,0.0116,0.0135,0.0017
1277,0.0135,0.0088,0.0082,0.0027,0.0034,0.0041,0.0043,0.0023
1278,0.0135,0.0117,0.0126,0.0022,0.0031,0.0057,0.0067,0.0018
1279,0.0137,0.0126,0.0109,0.0041,0.0040,0.0055,0.0055,0.0031
1280,0.0135,0.0088,0.0082,0.0027,0.0034,0.0041,0.0043,0.0023
1281,0.0135,0.0088,0.0082,0.0027,0.0034,0.0041,0.0043,0.0023
1282,0.0135,0.0088,0.0082,0.0027,0.0034,0.0041,0.0043,0.0023
1283,0.0135,0.0088,0.0082,0.0027,0.0034,0.0041,0.0043,0.0023
1284,0.0135,0.0117,0.0126,0.0022,0.0031,0.0057,0.0067,0.0018
1285,0.0135,0.0088,0.0082,0.0027,0.0034,0.0041,0.0043,0.0023
1286,0.0135,0.0088,0.0082,0.0027,0.0034,0.0041,0.0043,0.0023
1287,0.0135,0.0088,0.0082,0.0027,0.0034,0.0041,0.0043,0.0023
1288,0.0138,0.0180,0.0198,0.0021,0.0035,0.0107,0.0132,0.0017
1289,0.0135,0.0117,0.0126,0.0022,0.0031,0.0057,0.0067,0.0018
1290,0.0138,0.0151,0.0150,0.0062,0.0044,0.0073,0.0079,0.0043
1291,0.0135,0.0088,0.0082,0.0027,0.0034,0.0041,0.0043,0.0023
1292,0.0135,0.0088,0.0082,0.0027,0.0034,0.0041,0.0043,0.0023
1293,0.0135,0.0088,0.0082,0.0027,0.0034,0.0041,0.0043,0.0023
1294,0.0135,0.0088,0.0082,0.0027,0.0034,0.0041,0.0043,0.0023
1295,0.0135,0.0117,0.0126,0.0022,0.0031,0.0057,0.0067,0.0018
1296,0.0135,0.0088,0.0082,0.0027,0.0034,0.0041,0.0043,0.0023
1297,0.0135,0.0088,0.0082,0.0027,0.0034,0.0041,0.0043,0.0023
1298,0.0135,0.0088,0.0082,0.0027,0.0034,0.0041,0.0043,0.0023
1299,0.0135,0.0088,0.0082,0.0027,0.0034,0.0041,0.0043,0.0023
1300,0.0140,0.0160,0.0161,0.0051,0.0042,0.0083,0.0092,0.0040
1301,0.0138,0.0168,0.0181,0.0062,0.0045,0.0062,0.0078,0.0043
1302,0.0135,0.0088,0.0082,0.0027,0.0034,0.0041,0.0043,0.0023
1303,0.0135,0.0088,0.0082,0.0027,0.0034,0.0041,0.0043,0.0023
1304,0.0135,0.0088,0.0082,0.0027,0.0034,0.0041,0.0043,0.0023
1305,0.0135,0.0088,0.0082,0.0027,0.0034,0.0041,0.0043,0.0023
1306,0.0135,0.0117,0.0126,0.0022,0.0031,0.0057,0.0067,0.0018
1307,0.0151,0.0133,0.0167,0.0046,0.0064,0.0066,0.0081,0.0030
1308,0.0147,0.0168,0.0218,0.0035,0.0056,0.0081,0.0108,0.0026
1309,0.0146,0.0191,0.0245,0.0030,0.0051,0.0095,0.0119,0.0024
1310,0.0145,0.0199,0.0247,0.0027,0.0048,0.0105,0.0122,0.0022
1311,0.0141,0.0142,0.0129,0.0048,0.0048,0.0075,0.0071,0.0040
1312,0.0139,0.0505,0.0529,0.0148,0.0048,0.0301,0.0324,0.0094
1313,0.0141,0.0139,0.0143,0.0023,0.0036,0.0068,0.0082,0.0019
1314,0.0143,0.0186,0.0213,0.0028,0.0047,0.0102,0.0112,0.0024
1315,0.0142,0.0166,0.0189,0.0031,0.0046,0.0091,0.0104,0.0026
1316,0.0140,0.0141,0.0161,0.0032,0.0045,0.0076,0.0090,0.0027
1317,0.0136,0.0108,0.0103,0.0024,0.0039,0.0067,0.0065,0.0020
1318,0.0136,0.0093,0.0095,0.0029,0.0037,0.0039,0.0045,0.0024
1319,0.0133,0.0109,0.0099,0.0025,0.0025,0.0066,0.0064,0.0021
1320,0.0134,0.0094,0.0086,0.0024,0.0024,0.0046,0.0045,0.0020
1321,0.0134,0.0125,0.0139,0.0022,0.0026,0.0067,0.0081,0.0019
1322,0.0139,0.0139,0.0132,0.0047,0.0048,0.0064,0.0059,0.0036
1323,0.0133,0.0127,0.0113,0.0031,0.0026,0.0065,0.0069,0.0027
1324,0.0137,0.0236,0.0252,0.0065,0.0042,0.0097,0.0110,0.0040
1325,0.0137,0.0198,0.0216,0.0021,0.0033,0.0116,0.0135,0.0017
1326,0.0141,0.0153,0.0152,0.0028,0.0035,0.0078,0.0083,0.0021
1327,0.0138,0.0180,0.0198,0.0021,0.0035,0.0107,0.0132,0.0017
1328,0.0139,0.0148,0.0161,0.0021,0.0036,0.0076,0.0103,0.0018
1329,0.0140,0.0215,0.0222,0.0057,0.0037,0.0124,0.0131,0.0036
1330,0.0141,0.0153,0.0152,0.0028,0.0035,0.0078,0.0083,0.0021
1331,0.0142,0.0182,0.0184,0.0038,0.0033,0.0096,0.0105,0.0030
1332,0.0147,0.0186,0.0148,0.0095,0.0059,0.0115,0.0094,0.0065
1333,0.0138,0.0211,0.0209,0.0088,0.0043,0.0126,0.0125,0.0061
1334,0.0138,0.0146,0.0137,0.0069,0.0041,0.0079,0.0074,0.0051
1335,0.0136,0.0294,0.0314,0.0089,0.0037,0.0121,0.0128,0.0049
1336,0.0138,0.0146,0.0137,0.0069,0.0041,0.0079,0.0074,0.0051
1337,0.0138,0.0146,0.0137,0.0069,0.0041,0.0079,0.0074,0.0051
1338,0.0138,0.0146,0.0137,0.0069,0.0041,0.0079,0.0074,0.0051
1339,0.0138,0.0146,0.0137,0.0069,0.0041,0.0079,0.0074,0.0051
1340,0.0138,0.0146,0.0137,0.0069,0.0041,0.0079,0.0074,0.0051
1341,0.0135,0.0078,0.0083,0.0025,0.0034,0.0037,0.0047,0.0020
1342,0.0135,0.0078,0.0083,0.0025,0.0034,0.0037,0.0047,0.0020
1343,0.0135,0.0078,0.0083,0.0025,0.0034,0.0037,0.0047,0.0020
1344,0.0133,0.0080,0.0083,0.0025,0.0024,0.0040,0.0046,0.0020
1345,0.0134,0.0198,0.0224,0.0037,0.0029,0.0133,0.0144,0.0030
1346,0.0136,0.0400,0.0417,0.0145,0.0034,0.0186,0.0194,0.0075
1347,0.0134,0.0079,0.0085,0.0024,0.0027,0.0037,0.0049,0.0020
1348,0.0134,0.0116,0.0130,0.0022,0.0026,0.0068,0.0079,0.0019
1349,0.0136,0.0181,0.0197,0.0022,0.0029,0.0106,0.0117,0.0018
1350,0.0137,0.0184,0.0201,0.0020,0.0030,0.0113,0.0129,0.0016
1351,0.0140,0.0112,0.0114,0.0042,0.0043,0.0060,0.0063,0.0036
1352,0.0139,0.0125,0.0146,0.0019,0.0031,0.0074,0.0099,0.0014
1353,0.0140,0.0122,0.0134,0.0023,0.0033,0.0061,0.0080,0.0019
1354,0.0141,0.0134,0.0135,0.0033,0.0034,0.0068,0.0073,0.0028
1355,0.0142,0.0169,0.0172,0.0052,0.0036,0.0094,0.0101,0.0042
1356,0.0136,0.0199,0.0217,0.0047,0.0037,0.0134,0.0140,0.0037
1357,0.0137,0.0503,0.0499,0.0221,0.0035,0.0248,0.0248,0.0113
1358,0.0149,0.0184,0.0143,0.0112,0.0063,0.0115,0.0087,0.0082
1359,0.0139,0.0192,0.0201,0.0068,0.0045,0.0119,0.0123,0.0050
1360,0.0136,0.0212,0.0219,0.0081,0.0037,0.0128,0.0129,0.0056
1361,0.0136,0.0144,0.0149,0.0052,0.0033,0.0082,0.0084,0.0034
1362,0.0141,0.0235,0.0243,0.0091,0.0042,0.0152,0.0161,0.0063
1363,0.0135,0.0112,0.0104,0.0054,0.0027,0.0058,0.0055,0.0039
1364,0.0135,0.0105,0.0099,0.0049,0.0028,0.0059,0.0051,0.0037
1365,0.0134,0.0105,0.0100,0.0050,0.0028,0.0061,0.0056,0.0038
1366,0.0133,0.0106,0.0107,0.0047,0.0024,0.0055,0.0059,0.0035
1367,0.0135,0.0120,0.0130,0.0024,0.0031,0.0075,0.0085,0.0020
1368,0.0144,0.0763,0.0708,0.0302,0.0056,0.0378,0.0347,0.0151
1369,0.0134,0.0116,0.0130,0.0022,0.0026,0.0068,0.0079,0.0019
1370,0.0137,0.0076,0.0076,0.0035,0.0041,0.0031,0.0038,0.0024
1371,0.0137,0.0103,0.0119,0.0052,0.0042,0.0054,0.0067,0.0034
1372,0.0138,0.0119,0.0148,0.0060,0.0042,0.0056,0.0081,0.0042
1373,0.0137,0.0273,0.0333,0.0117,0.0043,0.0189,0.0234,0.0082
1374,0.0136,0.0127,0.0151,0.0069,0.0035,0.0062,0.0082,0.0049
1375,0.0135,0.0148,0.0163,0.0067,0.0030,0.0084,0.0087,0.0046
1376,0.0136,0.0188,0.0192,0.0080,0.0031,0.0116,0.0113,0.0046
1377,0.0137,0.0216,0.0206,0.0104,0.0035,0.0137,0.0131,0.0063
1378,0.0143,0.0267,0.0242,0.0131,0.0054,0.0148,0.0128,0.0087
1379,0.0142,0.0591,0.0515,0.0343,0.0041,0.0274,0.0262,0.0178
1380,0.0141,0.0212,0.0219,0.0131,0.0040,0.0111,0.0147,0.0083
1381,0.0136,0.0181,0.0197,0.0022,0.0029,0.0106,0.0117,0.0018
1382,0.0135,0.0078,0.0083,0.0025,0.0034,0.0037,0.0047,0.0020
1383,0.0135,0.0078,0.0083,0.0025,0.0034,0.0037,0.0047,0.0020
1384,0.0135,0.0130,0.0153,0.0023,0.0031,0.0081,0.0092,0.0020
1385,0.0135,0.0078,0.0083,0.0025,0.0034,0.0037,0.0047,0.0020
1386,0.0135,0.0078,0.0083,0.0025,0.0034,0.0037,0.0047,0.0020
1387,0.0135,0.0078,0.0083,0.0025,0.0034,0.0037,0.0047,0.0020
1388,0.0135,0.0078,0.0083,0.0025,0.0034,0.0037,0.0047,0.0020
1389,0.0135,0.0130,0.0153,0.0023,0.0031,0.0081,0.0092,0.0020
1390,0.0137,0.0162,0.0129,0.0024,0.0037,0.0061,0.0055,0.0020
1391,0.0135,0.0078,0.0083,0.0025,0.0034,0.0037,0.0047,0.0020
1392,0.0135,0.0078,0.0083,0.0025,0.0034,0.0037,0.0047,0.0020
1393,0.0137,0.0184,0.0201,0.0020,0.0030,0.0113,0.0129,0.0016
1394,0.0135,0.0078,0.0083,0.0025,0.0034,0.0037,0.0047,0.0020
1395,0.0135,0.0130,0.0153,0.0023,0.0031,0.0081,0.0092,0.0020
1396,0.0135,0.0078,0.0083,0.0025,0.0034,0.0037,0.0047,0.0020
1397,0.0135,0.0078,0.0083,0.0025,0.0034,0.0037,0.0047,0.0020
1398,0.0135,0.0078,0.0083,0.0025,0.0034,0.0037,0.0047,0.0020
1399,0.0135,0.0078,0.0083,0.0025,0.0034,0.0037,0.0047,0.0020
1400,0.0135,0.0130,0.0153,0.0023,0.0031,0.0081,0.0092,0.0020
1401,0.0134,0.0116,0.0099,0.0027,0.0033,0.0051,0.0051,0.0021
1402,0.0135,0.0078,0.0083,0.0025,0.0034,0.0037,0.0047,0.0020
1403,0.0135,0.0078,0.0083,0.0025,0.0034,0.0037,0.0047,0.0020
1404,0.0135,0.0078,0.0083,0.0025,0.0034,0.0037,0.0047,0.0020
1405,0.0138,0.0162,0.0183,0.0019,0.0030,0.0105,0.0126,0.0015
1406,0.0135,0.0130,0.0153,0.0023,0.0031,0.0081,0.0092,0.0020
1407,0.0135,0.0078,0.0083,0.0025,0.0034,0.0037,0.0047,0.0020
1408,0.0135,0.0078,0.0083,0.0025,0.0034,0.0037,0.0047,0.0020
1409,0.0135,0.0078,0.0083,0.0025,0.0034,0.0037,0.0047,0.0020
1410,0.0135,0.0078,0.0083,0.0025,0.0034,0.0037,0.0047,0.0020
1411,0.0135,0.0130,0.0153,0.0023,0.0031,0.0081,0.0092,0.0020
1412,0.0134,0.0116,0.0099,0.0027,0.0033,0.0051,0.0051,0.0021
1413,0.0135,0.0078,0.0083,0.0025,0.0034,0.0037,0.0047,0.0020
1414,0.0135,0.0078,0.0083,0.0025,0.0034,0.0037,0.0047,0.0020
1415,0.0135,0.0078,0.0083,0.0025,0.0034,0.0037,0.0047,0.0020
1416,0.0135,0.0078,0.0083,0.0025,0.0034,0.0037,0.0047,0.0020
1417,0.0140,0.0143,0.0154,0.0046,0.0038,0.0082,0.0092,0.0034
1418,0.0135,0.0078,0.0083,0.0025,0.0034,0.0037,0.0047,0.0020
1419,0.0135,0.0078,0.0083,0.0025,0.0034,0.0037,0.0047,0.0020
1420,0.0135,0.0078,0.0083,0.0025,0.0034,0.0037,0.0047,0.0020
1421,0.0135,0.0078,0.0083,0.0025,0.0034,0.0037,0.0047,0.0020
1422,0.0135,0.0130,0.0153,0.0023,0.0031,0.0081,0.0092,0.0020
1423,0.0135,0.0169,0.0153,0.0025,0.0031,0.0071,0.0067,0.0020
1424,0.0150,0.0124,0.0155,0.0047,0.0063,0.0070,0.0087,0.0032
1425,0.0147,0.0128,0.0155,0.0035,0.0055,0.0070,0.0092,0.0026
1426,0.0145,0.0139,0.0169,0.0028,0.0049,0.0076,0.0096,0.0022
1427,0.0145,0.0138,0.0161,0.0024,0.0047,0.0077,0.0089,0.0019
1428,0.0140,0.0112,0.0114,0.0042,0.0043,0.0060,0.0063,0.0036
1429,0.0140,0.0122,0.0134,0.0023,0.0033,0.0061,0.0080,0.0019
1430,0.0143,0.0146,0.0156,0.0026,0.0048,0.0086,0.0093,0.0021
1431,0.0142,0.0141,0.0154,0.0028,0.0048,0.0085,0.0094,0.0022
1432,0.0140,0.0121,0.0134,0.0030,0.0046,0.0072,0.0082,0.0023
1433,0.0136,0.0085,0.0085,0.0024,0.0038,0.0048,0.0048,0.0020
1434,0.0134,0.0195,0.0171,0.0031,0.0029,0.0086,0.0078,0.0022
1435,0.0134,0.0116,0.0099,0.0027,0.0033,0.0051,0.0051,0.0021
1436,0.0136,0.0089,0.0093,0.0026,0.0039,0.0048,0.0054,0.0021
1437,0.0133,0.0080,0.0083,0.0025,0.0024,0.0040,0.0046,0.0020
1438,0.0134,0.0079,0.0085,0.0024,0.0027,0.0037,0.0049,0.0020
1439,0.0134,0.0116,0.0130,0.0022,0.0026,0.0068,0.0079,0.0019
1440,0.0139,0.0114,0.0120,0.0045,0.0044,0.0057,0.0060,0.0035
1441,0.0137,0.0184,0.0201,0.0020,0.0030,0.0113,0.0129,0.0016
1442,0.0141,0.0134,0.0135,0.0033,0.0034,0.0068,0.0073,0.0028
1443,0.0138,0.0162,0.0183,0.0019,0.0030,0.0105,0.0126,0.0015
1444,0.0139,0.0125,0.0146,0.0019,0.0031,0.0074,0.0099,0.0014
1445,0.0140,0.0215,0.0219,0.0058,0.0038,0.0132,0.0132,0.0040
1446,0.0134,0.0116,0.0099,0.0027,0.0033,0.0051,0.0051,0.0021
1447,0.0141,0.0134,0.0135,0.0033,0.0034,0.0068,0.0073,0.0028
1448,0.0142,0.0169,0.0172,0.0052,0.0036,0.0094,0.0101,0.0042
1449,0.0149,0.0184,0.0143,0.0112,0.0063,0.0115,0.0087,0.0082
1450,0.0139,0.0192,0.0201,0.0068,0.0045,0.0119,0.0123,0.0050
1451,0.0138,0.0130,0.0136,0.0054,0.0039,0.0074,0.0078,0.0042
1452,0.0138,0.0130,0.0136,0.0054,0.0039,0.0074,0.0078,0.0042
1453,0.0138,0.0130,0.0136,0.0054,0.0039,0.0074,0.0078,0.0042
1454,0.0138,0.0130,0.0136,0.0054,0.0039,0.0074,0.0078,0.0042
1455,0.0138,0.0130,0.0136,0.0054,0.0039,0.0074,0.0078,0.0042
1456,0.0138,0.0130,0.0136,0.0054,0.0039,0.0074,0.0078,0.0042
1457,0.0134,0.0116,0.0099,0.0027,0.0033,0.0051,0.0051,0.0021
1458,0.0135,0.0077,0.0084,0.0024,0.0034,0.0039,0.0050,0.0019
1459,0.0135,0.0077,0.0084,0.0024,0.0034,0.0039,0.0050,0.0019
1460,0.0135,0.0077,0.0084,0.0024,0.0034,0.0039,0.0050,0.0019
1461,0.0133,0.0081,0.0091,0.0024,0.0023,0.0042,0.0055,0.0019
1462,0.0134,0.0146,0.0162,0.0036,0.0029,0.0101,0.0108,0.0029
1463,0.0134,0.0078,0.0083,0.0023,0.0027,0.0037,0.0046,0.0019
1464,0.0134,0.0095,0.0103,0.0022,0.0026,0.0053,0.0061,0.0019
1465,0.0136,0.0133,0.0142,0.0022,0.0029,0.0080,0.0087,0.0019
1466,0.0137,0.0151,0.0164,0.0021,0.0030,0.0096,0.0109,0.0016
1467,0.0140,0.0104,0.0108,0.0040,0.0042,0.0057,0.0060,0.0035
1468,0.0134,0.0116,0.0099,0.0027,0.0033,0.0051,0.0051,0.0021
1469,0.0139,0.0116,0.0134,0.0019,0.0032,0.0068,0.0089,0.0014
1470,0.0140,0.0108,0.0119,0.0024,0.0034,0.0054,0.0069,0.0020
1471,0.0141,0.0125,0.0125,0.0036,0.0036,0.0062,0.0065,0.0030
1472,0.0142,0.0156,0.0153,0.0056,0.0039,0.0086,0.0088,0.0044
1473,0.0136,0.0170,0.0184,0.0048,0.0037,0.0120,0.0124,0.0037
1474,0.0150,0.0195,0.0149,0.0129,0.0065,0.0129,0.0096,0.0095
1475,0.0139,0.0147,0.0155,0.0048,0.0046,0.0091,0.0096,0.0034
1476,0.0136,0.0162,0.0165,0.0057,0.0037,0.0099,0.0098,0.0041
1477,0.0136,0.0117,0.0115,0.0044,0.0033,0.0063,0.0061,0.0028
1478,0.0141,0.0191,0.0198,0.0079,0.0042,0.0124,0.0129,0.0056
1479,0.0135,0.0169,0.0153,0.0025,0.0031,0.0071,0.0067,0.0020
1480,0.0135,0.0107,0.0101,0.0054,0.0027,0.0056,0.0055,0.0038
1481,0.0135,0.0105,0.0096,0.0051,0.0029,0.0063,0.0056,0.0038
1482,0.0135,0.0103,0.0095,0.0049,0.0029,0.0062,0.0057,0.0037
1483,0.0134,0.0102,0.0103,0.0045,0.0025,0.0052,0.0055,0.0033
1484,0.0135,0.0116,0.0125,0.0023,0.0032,0.0073,0.0082,0.0020
1485,0.0134,0.0095,0.0103,0.0022,0.0026,0.0053,0.0061,0.0019
1486,0.0137,0.0074,0.0074,0.0036,0.0042,0.0031,0.0037,0.0026
1487,0.0137,0.0091,0.0106,0.0055,0.0042,0.0041,0.0052,0.0038
1488,0.0138,0.0116,0.0144,0.0066,0.0042,0.0054,0.0077,0.0047
1489,0.0137,0.0241,0.0299,0.0105,0.0043,0.0161,0.0208,0.0074
1490,0.0134,0.0116,0.0099,0.0027,0.0033,0.0051,0.0051,0.0021
1491,0.0135,0.0117,0.0139,0.0071,0.0034,0.0056,0.0075,0.0050
1492,0.0135,0.0127,0.0139,0.0066,0.0030,0.0066,0.0071,0.0045
1493,0.0136,0.0151,0.0149,0.0071,0.0032,0.0083,0.0081,0.0044
1494,0.0138,0.0170,0.0158,0.0085,0.0036,0.0097,0.0093,0.0049
1495,0.0144,0.0246,0.0221,0.0129,0.0057,0.0152,0.0132,0.0091
1496,0.0141,0.0204,0.0228,0.0106,0.0039,0.0115,0.0154,0.0062
1497,0.0136,0.0133,0.0142,0.0022,0.0029,0.0080,0.0087,0.0019
1498,0.0135,0.0077,0.0084,0.0024,0.0034,0.0039,0.0050,0.0019
1499,0.0135,0.0077,0.0084,0.0024,0.0034,0.0039,0.0050,0.0019
1500,0.0135,0.0116,0.0135,0.0024,0.0031,0.0072,0.0082,0.0020
1501,0.0134,0.0116,0.0099,0.0027,0.0033,0.0051,0.0051,0.0021
1502,0.0135,0.0077,0.0084,0.0024,0.0034,0.0039,0.0050,0.0019
1503,0.0135,0.0077,0.0084,0.0024,0.0034,0.0039,0.0050,0.0019
1504,0.0135,0.0077,0.0084,0.0024,0.0034,0.0039,0.0050,0.0019
1505,0.0135,0.0077,0.0084,0.0024,0.0034,0.0039,0.0050,0.0019
1506,0.0135,0.0116,0.0135,0.0024,0.0031,0.0072,0.0082,0.0020
1507,0.0135,0.0077,0.0084,0.0024,0.0034,0.0039,0.0050,0.0019
1508,0.0135,0.0077,0.0084,0.0024,0.0034,0.0039,0.0050,0.0019
1509,0.0137,0.0151,0.0164,0.0021,0.0030,0.0096,0.0109,0.0016
1510,0.0135,0.0077,0.0084,0.0024,0.0034,0.0039,0.0050,0.0019
1511,0.0135,0.0116,0.0135,0.0024,0.0031,0.0072,0.0082,0.0020
1512,0.0139,0.0181,0.0147,0.0024,0.0042,0.0076,0.0076,0.0018
1513,0.0135,0.0077,0.0084,0.0024,0.0034,0.0039,0.0050,0.0019
1514,0.0135,0.0077,0.0084,0.0024,0.0034,0.0039,0.0050,0.0019
1515,0.0135,0.0077,0.0084,0.0024,0.0034,0.0039,0.0050,0.0019
1516,0.0135,0.0077,0.0084,0.0024,0.0034,0.0039,0.0050,0.0019
1517,0.0135,0.0116,0.0135,0.0024,0.0031,0.0072,0.0082,0.0020
1518,0.0135,0.0077,0.0084,0.0024,0.0034,0.0039,0.0050,0.0019
1519,0.0135,0.0077,0.0084,0.0024,0.0034,0.0039,0.0050,0.0019
1520,0.0135,0.0077,0.0084,0.0024,0.0034,0.0039,0.0050,0.0019
1521,0.0138,0.0125,0.0143,0.0019,0.0031,0.0080,0.0099,0.0015
1522,0.0135,0.0116,0.0135,0.0024,0.0031,0.0072,0.0082,0.0020
1523,0.0134,0.0116,0.0099,0.0027,0.0033,0.0051,0.0051,0.0021
1524,0.0135,0.0077,0.0084,0.0024,0.0034,0.0039,0.0050,0.0019
1525,0.0135,0.0077,0.0084,0.0024,0.0034,0.0039,0.0050,0.0019
1526,0.0135,0.0077,0.0084,0.0024,0.0034,0.0039,0.0050,0.0019
1527,0.0135,0.0077,0.0084,0.0024,0.0034,0.0039,0.0050,0.0019
1528,0.0135,0.0116,0.0135,0.0024,0.0031,0.0072,0.0082,0.0020
1529,0.0135,0.0077,0.0084,0.0024,0.0034,0.0039,0.0050,0.0019
1530,0.0135,0.0077,0.0084,0.0024,0.0034,0.0039,0.0050,0.0019
1531,0.0135,0.0077,0.0084,0.0024,0.0034,0.0039,0.0050,0.0019
1532,0.0135,0.0077,0.0084,0.0024,0.0034,0.0039,0.0050,0.0019
1533,0.0140,0.0122,0.0127,0.0046,0.0039,0.0068,0.0074,0.0033
1534,0.0135,0.0169,0.0153,0.0025,0.0031,0.0071,0.0067,0.0020
1535,0.0135,0.0077,0.0084,0.0024,0.0034,0.0039,0.0050,0.0019
1536,0.0135,0.0077,0.0084,0.0024,0.0034,0.0039,0.0050,0.0019
1537,0.0135,0.0077,0.0084,0.0024,0.0034,0.0039,0.0050,0.0019
1538,0.0135,0.0077,0.0084,0.0024,0.0034,0.0039,0.0050,0.0019
1539,0.0135,0.0116,0.0135,0.0024,0.0031,0.0072,0.0082,0.0020
1540,0.0150,0.0123,0.0169,0.0048,0.0062,0.0068,0.0091,0.0032
1541,0.0147,0.0116,0.0149,0.0034,0.0053,0.0068,0.0093,0.0025
1542,0.0145,0.0120,0.0149,0.0027,0.0048,0.0070,0.0091,0.0021
1543,0.0145,0.0121,0.0141,0.0024,0.0046,0.0073,0.0085,0.0018
1544,0.0140,0.0104,0.0108,0.0040,0.0042,0.0057,0.0060,0.0035
1545,0.0134,0.0136,0.0112,0.0033,0.0027,0.0064,0.0062,0.0028
1546,0.0134,0.0116,0.0099,0.0027,0.0033,0.0051,0.0051,0.0021
1547,0.0140,0.0108,0.0119,0.0024,0.0034,0.0054,0.0069,0.0020
1548,0.0143,0.0134,0.0139,0.0026,0.0049,0.0081,0.0086,0.0021
1549,0.0142,0.0136,0.0145,0.0028,0.0049,0.0085,0.0092,0.0022
1550,0.0140,0.0131,0.0141,0.0029,0.0047,0.0087,0.0095,0.0022
1551,0.0136,0.0080,0.0084,0.0025,0.0038,0.0044,0.0047,0.0022
1552,0.0136,0.0095,0.0101,0.0025,0.0039,0.0054,0.0061,0.0019
1553,0.0133,0.0081,0.0091,0.0024,0.0023,0.0042,0.0055,0.0019
1554,0.0134,0.0078,0.0083,0.0023,0.0027,0.0037,0.0046,0.0019
1555,0.0134,0.0095,0.0103,0.0022,0.0026,0.0053,0.0061,0.0019
1556,0.0139,0.0098,0.0098,0.0043,0.0044,0.0054,0.0047,0.0034
1557,0.0134,0.0116,0.0099,0.0027,0.0033,0.0051,0.0051,0.0021
1558,0.0137,0.0151,0.0164,0.0021,0.0030,0.0096,0.0109,0.0016
1559,0.0141,0.0125,0.0125,0.0036,0.0036,0.0062,0.0065,0.0030
1560,0.0138,0.0125,0.0143,0.0019,0.0031,0.0080,0.0099,0.0015
1561,0.0139,0.0116,0.0134,0.0019,0.0032,0.0068,0.0089,0.0014
1562,0.0140,0.0182,0.0177,0.0058,0.0040,0.0111,0.0107,0.0041
1563,0.0141,0.0125,0.0125,0.0036,0.0036,0.0062,0.0065,0.0030
1564,0.0142,0.0156,0.0153,0.0056,0.0039,0.0086,0.0088,0.0044
1565,0.0150,0.0195,0.0149,0.0129,0.0065,0.0129,0.0096,0.0095
1566,0.0139,0.0147,0.0155,0.0048,0.0046,0.0091,0.0096,0.0034
1567,0.0138,0.0119,0.0121,0.0052,0.0040,0.0071,0.0066,0.0041
1568,0.0134,0.0116,0.0099,0.0027,0.0033,0.0051,0.0051,0.0021
1569,0.0138,0.0119,0.0121,0.0052,0.0040,0.0071,0.0066,0.0041
1570,0.0138,0.0119,0.0121,0.0052,0.0040,0.0071,0.0066,0.0041
1571,0.0138,0.0119,0.0121,0.0052,0.0040,0.0071,0.0066,0.0041
1572,0.0138,0.0119,0.0121,0.0052,0.0040,0.0071,0.0066,0.0041
1573,0.0138,0.0119,0.0121,0.0052,0.0040,0.0071,0.0066,0.0041
1574,0.0134,0.0125,0.0111,0.0015,0.0033,0.0068,0.0061,0.0012
1575,0.0134,0.0125,0.0111,0.0015,0.0033,0.0068,0.0061,0.0012
1576,0.0135,0.0115,0.0109,0.0034,0.0035,0.0057,0.0065,0.0027
1577,0.0133,0.0112,0.0099,0.0024,0.0026,0.0063,0.0059,0.0018
1578,0.0134,0.0154,0.0120,0.0030,0.0032,0.0081,0.0070,0.0023
1579,0.0134,0.0116,0.0099,0.0027,0.0033,0.0051,0.0051,0.0021
1580,0.0136,0.0123,0.0114,0.0035,0.0038,0.0074,0.0077,0.0028
1581,0.0133,0.0131,0.0103,0.0025,0.0028,0.0071,0.0061,0.0020
1582,0.0136,0.0134,0.0096,0.0021,0.0036,0.0065,0.0053,0.0016
1583,0.0140,0.0132,0.0114,0.0033,0.0042,0.0079,0.0076,0.0027
1584,0.0139,0.0167,0.0131,0.0056,0.0042,0.0083,0.0079,0.0039
1585,0.0140,0.0163,0.0133,0.0028,0.0038,0.0082,0.0078,0.0018
1586,0.0146,0.0185,0.0160,0.0037,0.0050,0.0113,0.0106,0.0032
1587,0.0138,0.0183,0.0141,0.0037,0.0031,0.0093,0.0078,0.0027
1588,0.0138,0.0250,0.0205,0.0045,0.0030,0.0141,0.0122,0.0033
1589,0.0138,0.0158,0.0116,0.0036,0.0046,0.0083,0.0068,0.0026
1590,0.0135,0.0169,0.0153,0.0025,0.0031,0.0071,0.0067,0.0020
1591,0.0147,0.0208,0.0164,0.0134,0.0053,0.0120,0.0108,0.0090
1592,0.0138,0.0186,0.0128,0.0104,0.0040,0.0092,0.0064,0.0070
1593,0.0137,0.0208,0.0185,0.0129,0.0040,0.0141,0.0130,0.0083
1594,0.0135,0.0144,0.0113,0.0053,0.0034,0.0063,0.0057,0.0034
1595,0.0139,0.0186,0.0162,0.0048,0.0043,0.0105,0.0111,0.0030
1596,0.0137,0.0155,0.0154,0.0086,0.0034,0.0093,0.0087,0.0053
1597,0.0136,0.0138,0.0124,0.0036,0.0033,0.0080,0.0077,0.0023
1598,0.0136,0.0147,0.0130,0.0037,0.0031,0.0085,0.0079,0.0028
1599,0.0136,0.0128,0.0132,0.0083,0.0030,0.0073,0.0090,0.0060
1600,0.0135,0.0157,0.0139,0.0031,0.0032,0.0099,0.0093,0.0026
1601,0.0134,0.0116,0.0099,0.0027,0.0033,0.0051,0.0051,0.0021
1602,0.0133,0.0131,0.0103,0.0025,0.0028,0.0071,0.0061,0.0020
1603,0.0137,0.0147,0.0137,0.0030,0.0042,0.0093,0.0095,0.0024
1604,0.0138,0.0177,0.0150,0.0052,0.0043,0.0100,0.0092,0.0037
1605,0.0138,0.0149,0.0118,0.0049,0.0044,0.0071,0.0064,0.0037
1606,0.0137,0.0377,0.0369,0.0099,0.0040,0.0218,0.0222,0.0063
1607,0.0136,0.0173,0.0155,0.0048,0.0039,0.0084,0.0083,0.0030
1608,0.0134,0.0209,0.0195,0.0062,0.0032,0.0099,0.0090,0.0038
1609,0.0154,0.0240,0.0254,0.0094,0.0074,0.0163,0.0170,0.0062
1610,0.0133,0.0339,0.0322,0.0141,0.0025,0.0158,0.0161,0.0065
1611,0.0140,0.0546,0.0483,0.0213,0.0047,0.0287,0.0241,0.0120
1612,0.0134,0.0116,0.0099,0.0027,0.0033,0.0051,0.0051,0.0021
1613,0.0141,0.0248,0.0223,0.0160,0.0048,0.0145,0.0139,0.0094
1614,0.0136,0.0134,0.0096,0.0021,0.0036,0.0065,0.0053,0.0016
1615,0.0134,0.0125,0.0111,0.0015,0.0033,0.0068,0.0061,0.0012
1616,0.0135,0.0115,0.0109,0.0034,0.0035,0.0057,0.0065,0.0027
1617,0.0134,0.0152,0.0130,0.0023,0.0025,0.0077,0.0070,0.0020
1618,0.0134,0.0125,0.0111,0.0015,0.0033,0.0068,0.0061,0.0012
1619,0.0135,0.0115,0.0109,0.0034,0.0035,0.0057,0.0065,0.0027
1620,0.0134,0.0125,0.0111,0.0015,0.0033,0.0068,0.0061,0.0012
1621,0.0134,0.0125,0.0111,0.0015,0.0033,0.0068,0.0061,0.0012
1622,0.0134,0.0152,0.0130,0.0023,0.0025,0.0077,0.0070,0.0020
1623,0.0134,0.0116,0.0099,0.0027,0.0033,0.0051,0.0051,0.0021
1624,0.0134,0.0125,0.0111,0.0015,0.0033,0.0068,0.0061,0.0012
1625,0.0134,0.0125,0.0111,0.0015,0.0033,0.0068,0.0061,0.0012
1626,0.0140,0.0132,0.0114,0.0033,0.0042,0.0079,0.0076,0.0027
1627,0.0134,0.0125,0.0111,0.0015,0.0033,0.0068,0.0061,0.0012
1628,0.0134,0.0152,0.0130,0.0023,0.0025,0.0077,0.0070,0.0020
1629,0.0135,0.0115,0.0109,0.0034,0.0035,0.0057,0.0065,0.0027
1630,0.0134,0.0125,0.0111,0.0015,0.0033,0.0068,0.0061,0.0012
1631,0.0134,0.0125,0.0111,0.0015,0.0033,0.0068,0.0061,0.0012
1632,0.0135,0.0115,0.0109,0.0034,0.0035,0.0057,0.0065,0.0027
1633,0.0134,0.0152,0.0130,0.0023,0.0025,0.0077,0.0070,0.0020
1634,0.0141,0.0193,0.0163,0.0027,0.0044,0.0091,0.0095,0.0020
1635,0.0134,0.0125,0.0111,0.0015,0.0033,0.0068,0.0061,0.0012
1636,0.0135,0.0115,0.0109,0.0034,0.0035,0.0057,0.0065,0.0027
1637,0.0134,0.0125,0.0111,0.0015,0.0033,0.0068,0.0061,0.0012
1638,0.0140,0.0153,0.0119,0.0023,0.0041,0.0074,0.0068,0.0017
1639,0.0134,0.0152,0.0130,0.0023,0.0025,0.0077,0.0070,0.0020
1640,0.0134,0.0125,0.0111,0.0015,0.0033,0.0068,0.0061,0.0012
1641,0.0134,0.0125,0.0111,0.0015,0.0033,0.0068,0.0061,0.0012
1642,0.0135,0.0115,0.0109,0.0034,0.0035,0.0057,0.0065,0.0027
1643,0.0134,0.0125,0.0111,0.0015,0.0033,0.0068,0.0061,0.0012
1644,0.0134,0.0152,0.0130,0.0023,0.0025,0.0077,0.0070,0.0020
1645,0.0135,0.0169,0.0153,0.0025,0.0031,0.0071,0.0067,0.0020
1646,0.0135,0.0115,0.0109,0.0034,0.0035,0.0057,0.0065,0.0027
1647,0.0134,0.0125,0.0111,0.0015,0.0033,0.0068,0.0061,0.0012
1648,0.0134,0.0125,0.0111,0.0015,0.0033,0.0068,0.0061,0.0012
1649,0.0135,0.0115,0.0109,0.0034,0.0035,0.0057,0.0065,0.0027
1650,0.0138,0.0182,0.0129,0.0055,0.0034,0.0095,0.0074,0.0038
1651,0.0134,0.0125,0.0111,0.0015,0.0033,0.0068,0.0061,0.0012
1652,0.0135,0.0115,0.0109,0.0034,0.0035,0.0057,0.0065,0.0027
1653,0.0134,0.0125,0.0111,0.0015,0.0033,0.0068,0.0061,0.0012
1654,0.0134,0.0125,0.0111,0.0015,0.0033,0.0068,0.0061,0.0012
1655,0.0134,0.0152,0.0130,0.0023,0.0025,0.0077,0.0070,0.0020
1656,0.0135,0.0149,0.0119,0.0029,0.0029,0.0062,0.0055,0.0025
1657,0.0134,0.0116,0.0099,0.0027,0.0033,0.0051,0.0051,0.0021
1658,0.0139,0.0147,0.0249,0.0045,0.0042,0.0070,0.0135,0.0030
1659,0.0136,0.0193,0.0285,0.0031,0.0036,0.0106,0.0157,0.0022
1660,0.0136,0.0146,0.0215,0.0095,0.0035,0.0078,0.0132,0.0069
1661,0.0134,0.0218,0.0273,0.0021,0.0031,0.0110,0.0141,0.0016
1662,0.0139,0.0167,0.0131,0.0056,0.0042,0.0083,0.0079,0.0039
1663,0.0146,0.0185,0.0160,0.0037,0.0050,0.0113,0.0106,0.0032
1664,0.0135,0.0190,0.0204,0.0031,0.0034,0.0098,0.0100,0.0024
1665,0.0135,0.0168,0.0171,0.0034,0.0035,0.0087,0.0086,0.0027
1666,0.0135,0.0161,0.0186,0.0046,0.0031,0.0074,0.0086,0.0036
1667,0.0137,0.0129,0.0108,0.0023,0.0043,0.0073,0.0062,0.0020
1668,0.0134,0.0116,0.0099,0.0027,0.0033,0.0051,0.0051,0.0021
1669,0.0135,0.0135,0.0120,0.0018,0.0034,0.0071,0.0069,0.0015
1670,0.0136,0.0124,0.0120,0.0034,0.0037,0.0075,0.0084,0.0027
1671,0.0132,0.0125,0.0109,0.0028,0.0024,0.0072,0.0066,0.0022
1672,0.0133,0.0131,0.0103,0.0025,0.0028,0.0071,0.0061,0.0020
1673,0.0142,0.0191,0.0168,0.0048,0.0054,0.0109,0.0103,0.0033
1674,0.0139,0.0141,0.0102,0.0021,0.0041,0.0069,0.0059,0.0016
1675,0.0138,0.0183,0.0141,0.0037,0.0031,0.0093,0.0078,0.0027
1676,0.0142,0.0138,0.0109,0.0031,0.0046,0.0081,0.0073,0.0027
1677,0.0140,0.0163,0.0133,0.0028,0.0038,0.0082,0.0078,0.0018
1678,0.0139,0.0285,0.0223,0.0053,0.0039,0.0164,0.0135,0.0035
1679,0.0134,0.0116,0.0099,0.0027,0.0033,0.0051,0.0051,0.0021
1680,0.0146,0.0160,0.0135,0.0039,0.0051,0.0091,0.0084,0.0033
1681,0.0138,0.0250,0.0205,0.0045,0.0030,0.0141,0.0122,0.0033
1682,0.0147,0.0208,0.0164,0.0134,0.0053,0.0120,0.0108,0.0090
1683,0.0138,0.0216,0.0182,0.0179,0.0040,0.0127,0.0119,0.0129
1684,0.0141,0.0154,0.0111,0.0094,0.0051,0.0074,0.0062,0.0066
1685,0.0141,0.0154,0.0111,0.0094,0.0051,0.0074,0.0062,0.0066
1686,0.0141,0.0154,0.0111,0.0094,0.0051,0.0074,0.0062,0.0066
1687,0.0141,0.0154,0.0111,0.0094,0.0051,0.0074,0.0062,0.0066
1688,0.0141,0.0154,0.0111,0.0094,0.0051,0.0074,0.0062,0.0066
1689,0.0141,0.0154,0.0111,0.0094,0.0051,0.0074,0.0062,0.0066
1690,0.0134,0.0116,0.0099,0.0027,0.0033,0.0051,0.0051,0.0021
1691,0.0134,0.0093,0.0076,0.0016,0.0032,0.0044,0.0039,0.0013
1692,0.0134,0.0093,0.0076,0.0016,0.0032,0.0044,0.0039,0.0013
1693,0.0135,0.0098,0.0086,0.0025,0.0035,0.0042,0.0046,0.0020
1694,0.0132,0.0104,0.0094,0.0014,0.0025,0.0055,0.0052,0.0010
1695,0.0135,0.0141,0.0121,0.0029,0.0033,0.0078,0.0077,0.0023
1696,0.0136,0.0108,0.0102,0.0022,0.0038,0.0063,0.0067,0.0017
1697,0.0133,0.0119,0.0099,0.0015,0.0027,0.0064,0.0059,0.0011
1698,0.0136,0.0123,0.0098,0.0017,0.0035,0.0055,0.0054,0.0013
1699,0.0139,0.0111,0.0094,0.0022,0.0039,0.0064,0.0061,0.0017
1700,0.0140,0.0166,0.0136,0.0051,0.0045,0.0095,0.0082,0.0036
1701,0.0135,0.0169,0.0153,0.0025,0.0031,0.0071,0.0067,0.0020
1702,0.0139,0.0153,0.0125,0.0021,0.0037,0.0077,0.0071,0.0014
1703,0.0144,0.0182,0.0169,0.0034,0.0046,0.0112,0.0114,0.0026
1704,0.0138,0.0156,0.0133,0.0028,0.0032,0.0077,0.0072,0.0020
1705,0.0138,0.0198,0.0183,0.0038,0.0029,0.0107,0.0105,0.0025
1706,0.0138,0.0143,0.0114,0.0037,0.0046,0.0073,0.0064,0.0028
1707,0.0146,0.0218,0.0192,0.0120,0.0052,0.0143,0.0130,0.0068
1708,0.0137,0.0177,0.0137,0.0087,0.0038,0.0088,0.0070,0.0060
1709,0.0137,0.0205,0.0176,0.0122,0.0037,0.0141,0.0120,0.0068
1710,0.0134,0.0142,0.0125,0.0048,0.0029,0.0066,0.0069,0.0031
1711,0.0136,0.0181,0.0174,0.0049,0.0036,0.0104,0.0119,0.0031
1712,0.0134,0.0116,0.0099,0.0027,0.0033,0.0051,0.0051,0.0021
1713,0.0137,0.0167,0.0156,0.0092,0.0031,0.0112,0.0091,0.0064
1714,0.0134,0.0124,0.0111,0.0050,0.0029,0.0068,0.0064,0.0037
1715,0.0135,0.0129,0.0124,0.0033,0.0029,0.0074,0.0077,0.0025
1716,0.0136,0.0118,0.0122,0.0053,0.0030,0.0062,0.0080,0.0041
1717,0.0134,0.0136,0.0123,0.0021,0.0030,0.0086,0.0080,0.0017
1718,0.0133,0.0119,0.0099,0.0015,0.0027,0.0064,0.0059,0.0011
1719,0.0138,0.0125,0.0117,0.0031,0.0044,0.0074,0.0078,0.0024
1720,0.0137,0.0135,0.0111,0.0052,0.0041,0.0064,0.0055,0.0037
1721,0.0137,0.0129,0.0109,0.0055,0.0043,0.0053,0.0058,0.0041
1722,0.0136,0.0321,0.0316,0.0092,0.0038,0.0191,0.0194,0.0059
1723,0.0134,0.0116,0.0099,0.0027,0.0033,0.0051,0.0051,0.0021
1724,0.0135,0.0172,0.0166,0.0046,0.0036,0.0094,0.0099,0.0029
1725,0.0134,0.0190,0.0181,0.0058,0.0031,0.0098,0.0090,0.0036
1726,0.0155,0.0237,0.0257,0.0094,0.0075,0.0164,0.0179,0.0062
1727,0.0134,0.0292,0.0276,0.0124,0.0027,0.0141,0.0144,0.0059
1728,0.0139,0.0412,0.0366,0.0190,0.0041,0.0211,0.0185,0.0116
1729,0.0142,0.0238,0.0214,0.0152,0.0050,0.0146,0.0138,0.0091
1730,0.0136,0.0123,0.0098,0.0017,0.0035,0.0055,0.0054,0.0013
1731,0.0134,0.0093,0.0076,0.0016,0.0032,0.0044,0.0039,0.0013
1732,0.0135,0.0098,0.0086,0.0025,0.0035,0.0042,0.0046,0.0020
1733,0.0134,0.0113,0.0090,0.0022,0.0025,0.0054,0.0047,0.0017
1734,0.0134,0.0116,0.0099,0.0027,0.0033,0.0051,0.0051,0.0021
1735,0.0134,0.0093,0.0076,0.0016,0.0032,0.0044,0.0039,0.0013
1736,0.0135,0.0098,0.0086,0.0025,0.0035,0.0042,0.0046,0.0020
1737,0.0134,0.0093,0.0076,0.0016,0.0032,0.0044,0.0039,0.0013
1738,0.0134,0.0093,0.0076,0.0016,0.0032,0.0044,0.0039,0.0013
1739,0.0134,0.0113,0.0090,0.0022,0.0025,0.0054,0.0047,0.0017
1740,0.0134,0.0093,0.0076,0.0016,0.0032,0.0044,0.0039,0.0013
1741,0.0134,0.0093,0.0076,0.0016,0.0032,0.0044,0.0039,0.0013
1742,0.0139,0.0111,0.0094,0.0022,0.0039,0.0064,0.0061,0.0017
1743,0.0134,0.0093,0.0076,0.0016,0.0032,0.0044,0.0039,0.0013
1744,0.0134,0.0113,0.0090,0.0022,0.0025,0.0054,0.0047,0.0017
1745,0.0134,0.0116,0.0099,0.0027,0.0033,0.0051,0.0051,0.0021
1746,0.0135,0.0098,0.0086,0.0025,0.0035,0.0042,0.0046,0.0020
1747,0.0134,0.0093,0.0076,0.0016,0.0032,0.0044,0.0039,0.0013
1748,0.0134,0.0093,0.0076,0.0016,0.0032,0.0044,0.0039,0.0013
1749,0.0135,0.0098,0.0086,0.0025,0.0035,0.0042,0.0046,0.0020
1750,0.0134,0.0113,0.0090,0.0022,0.0025,0.0054,0.0047,0.0017
1751,0.0134,0.0093,0.0076,0.0016,0.0032,0.0044,0.0039,0.0013
1752,0.0135,0.0098,0.0086,0.0025,0.0035,0.0042,0.0046,0.0020
1753,0.0134,0.0093,0.0076,0.0016,0.0032,0.0044,0.0039,0.0013
1754,0.0139,0.0140,0.0115,0.0019,0.0040,0.0069,0.0067,0.0015
1755,0.0134,0.0113,0.0090,0.0022,0.0025,0.0054,0.0047,0.0017
1756,0.0141,0.0205,0.0145,0.0073,0.0043,0.0092,0.0074,0.0051
1757,0.0134,0.0093,0.0076,0.0016,0.0032,0.0044,0.0039,0.0013
1758,0.0134,0.0093,0.0076,0.0016,0.0032,0.0044,0.0039,0.0013
1759,0.0135,0.0098,0.0086,0.0025,0.0035,0.0042,0.0046,0.0020
1760,0.0134,0.0093,0.0076,0.0016,0.0032,0.0044,0.0039,0.0013
1761,0.0134,0.0113,0.0090,0.0022,0.0025,0.0054,0.0047,0.0017
1762,0.0135,0.0098,0.0086,0.0025,0.0035,0.0042,0.0046,0.0020
1763,0.0134,0.0093,0.0076,0.0016,0.0032,0.0044,0.0039,0.0013
1764,0.0134,0.0093,0.0076,0.0016,0.0032,0.0044,0.0039,0.0013
1765,0.0135,0.0098,0.0086,0.0025,0.0035,0.0042,0.0046,0.0020
1766,0.0138,0.0152,0.0120,0.0050,0.0037,0.0074,0.0068,0.0035
1767,0.0137,0.0162,0.0129,0.0024,0.0037,0.0061,0.0055,0.0020
1768,0.0134,0.0116,0.0099,0.0027,0.0033,0.0051,0.0051,0.0021
1769,0.0134,0.0093,0.0076,0.0016,0.0032,0.0044,0.0039,0.0013
1770,0.0135,0.0098,0.0086,0.0025,0.0035,0.0042,0.0046,0.0020
1771,0.0134,0.0093,0.0076,0.0016,0.0032,0.0044,0.0039,0.0013
1772,0.0134,0.0093,0.0076,0.0016,0.0032,0.0044,0.0039,0.0013
1773,0.0134,0.0113,0.0090,0.0022,0.0025,0.0054,0.0047,0.0017
1774,0.0140,0.0125,0.0190,0.0035,0.0047,0.0052,0.0095,0.0022
1775,0.0137,0.0165,0.0230,0.0024,0.0040,0.0088,0.0124,0.0015
1776,0.0136,0.0131,0.0167,0.0074,0.0037,0.0070,0.0093,0.0056
1777,0.0135,0.0188,0.0230,0.0023,0.0033,0.0091,0.0115,0.0017
1778,0.0140,0.0166,0.0136,0.0051,0.0045,0.0095,0.0082,0.0036
1779,0.0134,0.0116,0.0099,0.0027,0.0033,0.0051,0.0051,0.0021
1780,0.0144,0.0182,0.0169,0.0034,0.0046,0.0112,0.0114,0.0026
1781,0.0135,0.0164,0.0176,0.0031,0.0035,0.0076,0.0077,0.0024
1782,0.0135,0.0145,0.0147,0.0034,0.0036,0.0068,0.0070,0.0026
1783,0.0135,0.0139,0.0158,0.0039,0.0029,0.0065,0.0073,0.0031
1784,0.0137,0.0097,0.0082,0.0028,0.0042,0.0052,0.0045,0.0023
1785,0.0134,0.0095,0.0075,0.0022,0.0034,0.0038,0.0034,0.0018
1786,0.0136,0.0105,0.0101,0.0023,0.0036,0.0061,0.0070,0.0018
1787,0.0132,0.0108,0.0094,0.0015,0.0023,0.0060,0.0055,0.0012
1788,0.0133,0.0119,0.0099,0.0015,0.0027,0.0064,0.0059,0.0011
1789,0.0142,0.0170,0.0136,0.0046,0.0054,0.0097,0.0082,0.0032
1790,0.0134,0.0116,0.0099,0.0027,0.0033,0.0051,0.0051,0.0021
1791,0.0138,0.0138,0.0114,0.0019,0.0040,0.0069,0.0069,0.0015
1792,0.0138,0.0156,0.0133,0.0028,0.0032,0.0077,0.0072,0.0020
1793,0.0141,0.0126,0.0111,0.0025,0.0044,0.0074,0.0076,0.0020
1794,0.0139,0.0153,0.0125,0.0021,0.0037,0.0077,0.0071,0.0014
1795,0.0138,0.0223,0.0189,0.0046,0.0035,0.0122,0.0112,0.0032
1796,0.0145,0.0151,0.0135,0.0035,0.0048,0.0086,0.0086,0.0027
1797,0.0138,0.0198,0.0183,0.0038,0.0029,0.0107,0.0105,0.0025
1798,0.0146,0.0218,0.0192,0.0120,0.0052,0.0143,0.0130,0.0068
1799,0.0137,0.0215,0.0183,0.0148,0.0039,0.0132,0.0116,0.0105
1800,0.0138,0.0153,0.0116,0.0103,0.0044,0.0083,0.0069,0.0071
1801,0.0134,0.0116,0.0099,0.0027,0.0033,0.0051,0.0051,0.0021
1802,0.0138,0.0153,0.0116,0.0103,0.0044,0.0083,0.0069,0.0071
1803,0.0138,0.0153,0.0116,0.0103,0.0044,0.0083,0.0069,0.0071
1804,0.0138,0.0153,0.0116,0.0103,0.0044,0.0083,0.0069,0.0071
1805,0.0138,0.0153,0.0116,0.0103,0.0044,0.0083,0.0069,0.0071
1806,0.0138,0.0153,0.0116,0.0103,0.0044,0.0083,0.0069,0.0071
1807,0.0133,0.0081,0.0074,0.0021,0.0032,0.0037,0.0036,0.0016
1808,0.0133,0.0081,0.0074,0.0021,0.0032,0.0037,0.0036,0.0016
1809,0.0135,0.0089,0.0089,0.0022,0.0036,0.0047,0.0056,0.0018
1810,0.0132,0.0093,0.0085,0.0020,0.0024,0.0052,0.0048,0.0016
1811,0.0134,0.0173,0.0188,0.0036,0.0032,0.0111,0.0119,0.0030
1812,0.0135,0.0169,0.0153,0.0025,0.0031,0.0071,0.0067,0.0020
1813,0.0136,0.0105,0.0113,0.0030,0.0036,0.0066,0.0080,0.0025
1814,0.0133,0.0109,0.0112,0.0023,0.0024,0.0063,0.0072,0.0019
1815,0.0134,0.0164,0.0174,0.0026,0.0030,0.0097,0.0106,0.0020
1816,0.0138,0.0090,0.0088,0.0028,0.0033,0.0049,0.0056,0.0023
1817,0.0140,0.0146,0.0123,0.0042,0.0044,0.0084,0.0073,0.0035
1818,0.0137,0.0122,0.0122,0.0021,0.0032,0.0063,0.0070,0.0016
1819,0.0141,0.0201,0.0208,0.0035,0.0036,0.0141,0.0151,0.0027
1820,0.0138,0.0147,0.0143,0.0023,0.0030,0.0077,0.0078,0.0018
1821,0.0138,0.0172,0.0173,0.0035,0.0028,0.0090,0.0097,0.0024
1822,0.0137,0.0166,0.0172,0.0047,0.0044,0.0109,0.0113,0.0038
1823,0.0149,0.0199,0.0330,0.0055,0.0058,0.0097,0.0168,0.0041
1824,0.0146,0.0226,0.0190,0.0135,0.0051,0.0156,0.0128,0.0092
1825,0.0137,0.0153,0.0142,0.0063,0.0037,0.0084,0.0078,0.0042
1826,0.0136,0.0208,0.0172,0.0145,0.0034,0.0145,0.0116,0.0103
1827,0.0133,0.0132,0.0133,0.0043,0.0025,0.0067,0.0074,0.0029
1828,0.0135,0.0172,0.0181,0.0047,0.0032,0.0103,0.0121,0.0028
1829,0.0136,0.0182,0.0160,0.0131,0.0030,0.0124,0.0099,0.0095
1830,0.0133,0.0123,0.0105,0.0073,0.0022,0.0078,0.0056,0.0050
1831,0.0134,0.0109,0.0117,0.0058,0.0022,0.0053,0.0073,0.0041
1832,0.0136,0.0113,0.0137,0.0043,0.0032,0.0070,0.0097,0.0033
1833,0.0134,0.0118,0.0121,0.0026,0.0027,0.0073,0.0079,0.0022
1834,0.0147,0.0249,0.0380,0.0040,0.0053,0.0128,0.0201,0.0031
1835,0.0133,0.0109,0.0112,0.0023,0.0024,0.0063,0.0072,0.0019
1836,0.0138,0.0111,0.0108,0.0024,0.0045,0.0064,0.0070,0.0020
1837,0.0136,0.0131,0.0125,0.0030,0.0039,0.0066,0.0073,0.0023
1838,0.0136,0.0130,0.0135,0.0036,0.0040,0.0067,0.0087,0.0026
1839,0.0135,0.0232,0.0246,0.0076,0.0035,0.0149,0.0162,0.0052
1840,0.0134,0.0134,0.0144,0.0049,0.0033,0.0074,0.0089,0.0034
1841,0.0133,0.0138,0.0133,0.0054,0.0028,0.0072,0.0068,0.0036
1842,0.0155,0.0211,0.0250,0.0096,0.0076,0.0144,0.0175,0.0064
1843,0.0134,0.0207,0.0194,0.0085,0.0027,0.0117,0.0113,0.0045
1844,0.0142,0.0340,0.0308,0.0175,0.0052,0.0214,0.0186,0.0118
1845,0.0145,0.0277,0.0393,0.0031,0.0049,0.0141,0.0202,0.0023
1846,0.0141,0.0196,0.0186,0.0128,0.0048,0.0128,0.0127,0.0080
1847,0.0134,0.0164,0.0174,0.0026,0.0030,0.0097,0.0106,0.0020
1848,0.0133,0.0081,0.0074,0.0021,0.0032,0.0037,0.0036,0.0016
1849,0.0135,0.0089,0.0089,0.0022,0.0036,0.0047,0.0056,0.0018
1850,0.0134,0.0099,0.0098,0.0023,0.0024,0.0050,0.0055,0.0020
1851,0.0133,0.0081,0.0074,0.0021,0.0032,0.0037,0.0036,0.0016
1852,0.0135,0.0089,0.0089,0.0022,0.0036,0.0047,0.0056,0.0018
1853,0.0133,0.0081,0.0074,0.0021,0.0032,0.0037,0.0036,0.0016
1854,0.0133,0.0081,0.0074,0.0021,0.0032,0.0037,0.0036,0.0016
1855,0.0134,0.0099,0.0098,0.0023,0.0024,0.0050,0.0055,0.0020
1856,0.0145,0.0289,0.0384,0.0030,0.0048,0.0150,0.0192,0.0022
1857,0.0133,0.0081,0.0074,0.0021,0.0032,0.0037,0.0036,0.0016
1858,0.0133,0.0081,0.0074,0.0021,0.0032,0.0037,0.0036,0.0016
1859,0.0138,0.0090,0.0088,0.0028,0.0033,0.0049,0.0056,0.0023
1860,0.0133,0.0081,0.0074,0.0021,0.0032,0.0037,0.0036,0.0016
1861,0.0134,0.0099,0.0098,0.0023,0.0024,0.0050,0.0055,0.0020
1862,0.0135,0.0089,0.0089,0.0022,0.0036,0.0047,0.0056,0.0018
1863,0.0133,0.0081,0.0074,0.0021,0.0032,0.0037,0.0036,0.0016
1864,0.0133,0.0081,0.0074,0.0021,0.0032,0.0037,0.0036,0.0016
1865,0.0135,0.0089,0.0089,0.0022,0.0036,0.0047,0.0056,0.0018
1866,0.0134,0.0099,0.0098,0.0023,0.0024,0.0050,0.0055,0.0020
1867,0.0141,0.0197,0.0150,0.0068,0.0049,0.0085,0.0078,0.0046
1868,0.0133,0.0081,0.0074,0.0021,0.0032,0.0037,0.0036,0.0016
1869,0.0135,0.0089,0.0089,0.0022,0.0036,0.0047,0.0056,0.0018
1870,0.0133,0.0081,0.0074,0.0021,0.0032,0.0037,0.0036,0.0016
1871,0.0137,0.0140,0.0142,0.0024,0.0033,0.0078,0.0089,0.0019
1872,0.0134,0.0099,0.0098,0.0023,0.0024,0.0050,0.0055,0.0020
1873,0.0133,0.0081,0.0074,0.0021,0.0032,0.0037,0.0036,0.0016
1874,0.0133,0.0081,0.0074,0.0021,0.0032,0.0037,0.0036,0.0016
1875,0.0135,0.0089,0.0089,0.0022,0.0036,0.0047,0.0056,0.0018
1876,0.0133,0.0081,0.0074,0.0021,0.0032,0.0037,0.0036,0.0016
1877,0.0134,0.0099,0.0098,0.0023,0.0024,0.0050,0.0055,0.0020
1878,0.0139,0.0181,0.0147,0.0024,0.0042,0.0076,0.0076,0.0018
1879,0.0142,0.0187,0.0145,0.0038,0.0042,0.0075,0.0077,0.0027
1880,0.0135,0.0089,0.0089,0.0022,0.0036,0.0047,0.0056,0.0018
1881,0.0133,0.0081,0.0074,0.0021,0.0032,0.0037,0.0036,0.0016
1882,0.0133,0.0081,0.0074,0.0021,0.0032,0.0037,0.0036,0.0016
1883,0.0135,0.0089,0.0089,0.0022,0.0036,0.0047,0.0056,0.0018
1884,0.0138,0.0148,0.0145,0.0037,0.0037,0.0080,0.0086,0.0030
1885,0.0133,0.0081,0.0074,0.0021,0.0032,0.0037,0.0036,0.0016
1886,0.0135,0.0089,0.0089,0.0022,0.0036,0.0047,0.0056,0.0018
1887,0.0133,0.0081,0.0074,0.0021,0.0032,0.0037,0.0036,0.0016
1888,0.0133,0.0081,0.0074,0.0021,0.0032,0.0037,0.0036,0.0016
1889,0.0134,0.0099,0.0098,0.0023,0.0024,0.0050,0.0055,0.0020
1890,0.0143,0.0263,0.0312,0.0037,0.0046,0.0146,0.0165,0.0031
1891,0.0142,0.0106,0.0130,0.0030,0.0052,0.0057,0.0076,0.0016
1892,0.0138,0.0125,0.0150,0.0024,0.0042,0.0067,0.0083,0.0016
1893,0.0137,0.0135,0.0165,0.0047,0.0040,0.0085,0.0109,0.0037
1894,0.0135,0.0138,0.0162,0.0021,0.0034,0.0064,0.0083,0.0016
1895,0.0140,0.0146,0.0123,0.0042,0.0044,0.0084,0.0073,0.0035
1896,0.0141,0.0201,0.0208,0.0035,0.0036,0.0141,0.0151,0.0027
1897,0.0136,0.0128,0.0134,0.0022,0.0036,0.0068,0.0071,0.0018
1898,0.0136,0.0116,0.0118,0.0023,0.0039,0.0064,0.0066,0.0019
1899,0.0135,0.0107,0.0111,0.0032,0.0029,0.0064,0.0065,0.0027
1900,0.0137,0.0096,0.0092,0.0022,0.0041,0.0057,0.0056,0.0019
1901,0.0141,0.0235,0.0269,0.0040,0.0044,0.0128,0.0143,0.0034
1902,0.0134,0.0084,0.0077,0.0022,0.0034,0.0038,0.0039,0.0018
1903,0.0136,0.0102,0.0107,0.0025,0.0036,0.0065,0.0076,0.0021
1904,0.0132,0.0088,0.0080,0.0020,0.0021,0.0047,0.0044,0.0016
1905,0.0133,0.0109,0.0112,0.0023,0.0024,0.0063,0.0072,0.0019
1906,0.0141,0.0126,0.0106,0.0048,0.0051,0.0070,0.0057,0.0038
1907,0.0136,0.0154,0.0158,0.0026,0.0033,0.0093,0.0101,0.0020
1908,0.0138,0.0147,0.0143,0.0023,0.0030,0.0077,0.0078,0.0018
1909,0.0139,0.0147,0.0153,0.0026,0.0036,0.0097,0.0106,0.0022
1910,0.0137,0.0122,0.0122,0.0021,0.0032,0.0063,0.0070,0.0016
1911,0.0138,0.0197,0.0203,0.0033,0.0033,0.0113,0.0121,0.0023
1912,0.0139,0.0197,0.0219,0.0040,0.0042,0.0101,0.0114,0.0034
1913,0.0142,0.0153,0.0162,0.0036,0.0038,0.0098,0.0112,0.0028
1914,0.0138,0.0172,0.0173,0.0035,0.0028,0.0090,0.0097,0.0024
1915,0.0146,0.0226,0.0190,0.0135,0.0051,0.0156,0.0128,0.0092
1916,0.0137,0.0206,0.0176,0.0126,0.0039,0.0122,0.0106,0.0072
1917,0.0137,0.0156,0.0126,0.0105,0.0039,0.0099,0.0079,0.0073
1918,0.0137,0.0156,0.0126,0.0105,0.0039,0.0099,0.0079,0.0073
1919,0.0137,0.0156,0.0126,0.0105,0.0039,0.0099,0.0079,0.0073
1920,0.0137,0.0156,0.0126,0.0105,0.0039,0.0099,0.0079,0.0073
1921,0.0137,0.0156,0.0126,0.0105,0.0039,0.0099,0.0079,0.0073
1922,0.0137,0.0156,0.0126,0.0105,0.0039,0.0099,0.0079,0.0073
1923,0.0136,0.0131,0.0116,0.0026,0.0039,0.0064,0.0058,0.0022
1924,0.0133,0.0078,0.0078,0.0018,0.0031,0.0038,0.0042,0.0015
1925,0.0133,0.0078,0.0078,0.0018,0.0031,0.0038,0.0042,0.0015
1926,0.0136,0.0091,0.0095,0.0025,0.0036,0.0054,0.0062,0.0021
1927,0.0132,0.0078,0.0075,0.0020,0.0022,0.0039,0.0037,0.0016
1928,0.0134,0.0160,0.0182,0.0040,0.0031,0.0107,0.0117,0.0033
1929,0.0136,0.0105,0.0125,0.0032,0.0035,0.0069,0.0090,0.0027
1930,0.0132,0.0094,0.0101,0.0023,0.0022,0.0056,0.0065,0.0019
1931,0.0134,0.0131,0.0141,0.0026,0.0027,0.0080,0.0088,0.0021
1932,0.0138,0.0085,0.0084,0.0026,0.0030,0.0048,0.0050,0.0022
1933,0.0138,0.0118,0.0107,0.0037,0.0040,0.0071,0.0059,0.0032
1934,0.0136,0.0137,0.0129,0.0030,0.0036,0.0058,0.0062,0.0024
1935,0.0136,0.0105,0.0108,0.0017,0.0026,0.0055,0.0060,0.0013
1936,0.0141,0.0168,0.0175,0.0035,0.0033,0.0119,0.0127,0.0028
1937,0.0137,0.0126,0.0122,0.0024,0.0026,0.0063,0.0063,0.0019
1938,0.0138,0.0156,0.0158,0.0045,0.0028,0.0085,0.0091,0.0034
1939,0.0137,0.0146,0.0156,0.0052,0.0041,0.0099,0.0104,0.0040
1940,0.0147,0.0236,0.0188,0.0166,0.0056,0.0166,0.0128,0.0118
1941,0.0137,0.0136,0.0136,0.0055,0.0041,0.0081,0.0080,0.0033
1942,0.0136,0.0217,0.0178,0.0176,0.0034,0.0154,0.0123,0.0127
1943,0.0133,0.0106,0.0105,0.0040,0.0026,0.0053,0.0054,0.0028
1944,0.0136,0.0145,0.0153,0.0047,0.0034,0.0090,0.0102,0.0031
1945,0.0133,0.0127,0.0113,0.0031,0.0026,0.0065,0.0069,0.0027
1946,0.0136,0.0211,0.0188,0.0161,0.0030,0.0144,0.0128,0.0113
1947,0.0133,0.0127,0.0111,0.0069,0.0022,0.0081,0.0067,0.0048
1948,0.0134,0.0117,0.0106,0.0064,0.0023,0.0072,0.0057,0.0044
1949,0.0136,0.0098,0.0104,0.0058,0.0033,0.0050,0.0067,0.0045
1950,0.0134,0.0109,0.0116,0.0026,0.0025,0.0064,0.0072,0.0023
1951,0.0132,0.0094,0.0101,0.0023,0.0022,0.0056,0.0065,0.0019
1952,0.0138,0.0110,0.0109,0.0020,0.0046,0.0071,0.0075,0.0015
1953,0.0136,0.0136,0.0134,0.0030,0.0039,0.0074,0.0081,0.0023
1954,0.0136,0.0130,0.0137,0.0043,0.0039,0.0070,0.0086,0.0033
1955,0.0135,0.0196,0.0230,0.0068,0.0034,0.0128,0.0157,0.0049
1956,0.0134,0.0136,0.0112,0.0033,0.0027,0.0064,0.0062,0.0028
1957,0.0133,0.0114,0.0124,0.0068,0.0031,0.0063,0.0077,0.0048
1958,0.0132,0.0106,0.0103,0.0066,0.0026,0.0057,0.0055,0.0045
1959,0.0154,0.0193,0.0233,0.0106,0.0075,0.0121,0.0158,0.0074
1960,0.0133,0.0136,0.0135,0.0057,0.0025,0.0083,0.0081,0.0031
1961,0.0147,0.0400,0.0371,0.0188,0.0061,0.0258,0.0228,0.0129
1962,0.0139,0.0163,0.0158,0.0107,0.0042,0.0102,0.0108,0.0067
1963,0.0134,0.0131,0.0141,0.0026,0.0027,0.0080,0.0088,0.0021
1964,0.0133,0.0078,0.0078,0.0018,0.0031,0.0038,0.0042,0.0015
1965,0.0136,0.0091,0.0095,0.0025,0.0036,0.0054,0.0062,0.0021
1966,0.0134,0.0112,0.0128,0.0024,0.0024,0.0066,0.0075,0.0021
1967,0.0135,0.0149,0.0119,0.0029,0.0029,0.0062,0.0055,0.0025
1968,0.0133,0.0078,0.0078,0.0018,0.0031,0.0038,0.0042,0.0015
1969,0.0136,0.0091,0.0095,0.0025,0.0036,0.0054,0.0062,0.0021
1970,0.0133,0.0078,0.0078,0.0018,0.0031,0.0038,0.0042,0.0015
1971,0.0133,0.0078,0.0078,0.0018,0.0031,0.0038,0.0042,0.0015
1972,0.0134,0.0112,0.0128,0.0024,0.0024,0.0066,0.0075,0.0021
1973,0.0133,0.0078,0.0078,0.0018,0.0031,0.0038,0.0042,0.0015
1974,0.0133,0.0078,0.0078,0.0018,0.0031,0.0038,0.0042,0.0015
1975,0.0138,0.0085,0.0084,0.0026,0.0030,0.0048,0.0050,0.0022
1976,0.0133,0.0078,0.0078,0.0018,0.0031,0.0038,0.0042,0.0015
1977,0.0134,0.0112,0.0128,0.0024,0.0024,0.0066,0.0075,0.0021
1978,0.0141,0.0227,0.0192,0.0054,0.0052,0.0114,0.0101,0.0032
1979,0.0136,0.0091,0.0095,0.0025,0.0036,0.0054,0.0062,0.0021
1980,0.0133,0.0078,0.0078,0.0018,0.0031,0.0038,0.0042,0.0015
1981,0.0133,0.0078,0.0078,0.0018,0.0031,0.0038,0.0042,0.0015
1982,0.0136,0.0091,0.0095,0.0025,0.0036,0.0054,0.0062,0.0021
1983,0.0134,0.0112,0.0128,0.0024,0.0024,0.0066,0.0075,0.0021
1984,0.0133,0.0078,0.0078,0.0018,0.0031,0.0038,0.0042,0.0015
1985,0.0136,0.0091,0.0095,0.0025,0.0036,0.0054,0.0062,0.0021
1986,0.0133,0.0078,0.0078,0.0018,0.0031,0.0038,0.0042,0.0015
1987,0.0136,0.0117,0.0124,0.0022,0.0027,0.0070,0.0079,0.0017
1988,0.0134,0.0112,0.0128,0.0024,0.0024,0.0066,0.0075,0.0021
1989,0.0141,0.0197,0.0150,0.0068,0.0049,0.0085,0.0078,0.0046
1990,0.0139,0.0181,0.0147,0.0024,0.0042,0.0076,0.0076,0.0018
1991,0.0133,0.0078,0.0078,0.0018,0.0031,0.0038,0.0042,0.0015
1992,0.0133,0.0078,0.0078,0.0018,0.0031,0.0038,0.0042,0.0015
1993,0.0136,0.0091,0.0095,0.0025,0.0036,0.0054,0.0062,0.0021
1994,0.0133,0.0078,0.0078,0.0018,0.0031,0.0038,0.0042,0.0015
1995,0.0134,0.0112,0.0128,0.0024,0.0024,0.0066,0.0075,0.0021
1996,0.0136,0.0091,0.0095,0.0025,0.0036,0.0054,0.0062,0.0021
1997,0.0133,0.0078,0.0078,0.0018,0.0031,0.0038,0.0042,0.0015
1998,0.0133,0.0078,0.0078,0.0018,0.0031,0.0038,0.0042,0.0015
1999,0.0136,0.0091,0.0095,0.0025,0.0036,0.0054,0.0062,0.0021
2000,0.0138,0.0124,0.0129,0.0031,0.0034,0.0069,0.0077,0.0024
2001,0.0142,0.0186,0.0141,0.0042,0.0038,0.0084,0.0074,0.0031
2002,0.0133,0.0078,0.0078,0.0018,0.0031,0.0038,0.0042,0.0015
2003,0.0136,0.0091,0.0095,0.0025,0.0036,0.0054,0.0062,0.0021
2004,0.0133,0.0078,0.0078,0.0018,0.0031,0.0038,0.0042,0.0015
2005,0.0133,0.0078,0.0078,0.0018,0.0031,0.0038,0.0042,0.0015
2006,0.0134,0.0112,0.0128,0.0024,0.0024,0.0066,0.0075,0.0021
2007,0.0142,0.0128,0.0183,0.0032,0.0052,0.0071,0.0104,0.0019
2008,0.0138,0.0113,0.0146,0.0025,0.0041,0.0071,0.0092,0.0017
2009,0.0137,0.0168,0.0245,0.0042,0.0041,0.0105,0.0155,0.0031
2010,0.0135,0.0107,0.0128,0.0018,0.0033,0.0061,0.0081,0.0012
2011,0.0138,0.0118,0.0107,0.0037,0.0040,0.0071,0.0059,0.0032
2012,0.0141,0.0193,0.0163,0.0027,0.0044,0.0091,0.0095,0.0020
2013,0.0141,0.0168,0.0175,0.0035,0.0033,0.0119,0.0127,0.0028
2014,0.0136,0.0105,0.0107,0.0018,0.0038,0.0061,0.0063,0.0013
2015,0.0136,0.0103,0.0105,0.0020,0.0040,0.0058,0.0062,0.0015
2016,0.0135,0.0104,0.0104,0.0028,0.0029,0.0065,0.0066,0.0022
2017,0.0136,0.0079,0.0078,0.0020,0.0040,0.0042,0.0041,0.0016
2018,0.0134,0.0086,0.0086,0.0017,0.0035,0.0046,0.0047,0.0014
2019,0.0136,0.0104,0.0117,0.0028,0.0036,0.0070,0.0083,0.0023
2020,0.0132,0.0078,0.0079,0.0020,0.0018,0.0039,0.0043,0.0017
2021,0.0132,0.0094,0.0101,0.0023,0.0022,0.0056,0.0065,0.0019
2022,0.0139,0.0102,0.0091,0.0050,0.0047,0.0057,0.0047,0.0039
2023,0.0141,0.0199,0.0168,0.0033,0.0043,0.0099,0.0104,0.0023
2024,0.0135,0.0132,0.0139,0.0026,0.0028,0.0084,0.0091,0.0020
2025,0.0137,0.0126,0.0122,0.0024,0.0026,0.0063,0.0063,0.0019
2026,0.0139,0.0107,0.0109,0.0025,0.0033,0.0070,0.0076,0.0020
2027,0.0136,0.0105,0.0108,0.0017,0.0026,0.0055,0.0060,0.0013
2028,0.0138,0.0188,0.0191,0.0034,0.0032,0.0113,0.0115,0.0025
2029,0.0142,0.0125,0.0132,0.0036,0.0035,0.0075,0.0086,0.0029
2030,0.0138,0.0156,0.0158,0.0045,0.0028,0.0085,0.0091,0.0034
2031,0.0147,0.0236,0.0188,0.0166,0.0056,0.0166,0.0128,0.0118
2032,0.0137,0.0211,0.0181,0.0144,0.0040,0.0137,0.0116,0.0101
2033,0.0137,0.0141,0.0118,0.0090,0.0038,0.0092,0.0073,0.0064
2034,0.0141,0.0287,0.0226,0.0076,0.0043,0.0162,0.0136,0.0053
2035,0.0137,0.0141,0.0118,0.0090,0.0038,0.0092,0.0073,0.0064
2036,0.0137,0.0141,0.0118,0.0090,0.0038,0.0092,0.0073,0.0064
2037,0.0137,0.0141,0.0118,0.0090,0.0038,0.0092,0.0073,0.0064
2038,0.0137,0.0141,0.0118,0.0090,0.0038,0.0092,0.0073,0.0064
2039,0.0137,0.0141,0.0118,0.0090,0.0038,0.0092,0.0073,0.0064
2040,0.0133,0.0077,0.0082,0.0016,0.0031,0.0040,0.0046,0.0013
2041,0.0133,0.0077,0.0082,0.0016,0.0031,0.0040,0.0046,0.0013
2042,0.0136,0.0096,0.0105,0.0025,0.0036,0.0059,0.0069,0.0021
2043,0.0131,0.0077,0.0082,0.0018,0.0021,0.0039,0.0045,0.0014
2044,0.0134,0.0111,0.0124,0.0039,0.0031,0.0074,0.0082,0.0032
2045,0.0142,0.0186,0.0141,0.0042,0.0038,0.0084,0.0074,0.0031
2046,0.0136,0.0093,0.0109,0.0032,0.0034,0.0057,0.0076,0.0027
2047,0.0132,0.0084,0.0085,0.0023,0.0021,0.0043,0.0047,0.0019
2048,0.0134,0.0096,0.0100,0.0027,0.0026,0.0057,0.0062,0.0021
2049,0.0138,0.0093,0.0092,0.0025,0.0029,0.0059,0.0062,0.0021
2050,0.0138,0.0114,0.0105,0.0035,0.0038,0.0068,0.0058,0.0031
2051,0.0136,0.0100,0.0102,0.0015,0.0023,0.0052,0.0054,0.0011
2052,0.0141,0.0152,0.0156,0.0035,0.0036,0.0104,0.0110,0.0029
2053,0.0137,0.0119,0.0113,0.0027,0.0026,0.0058,0.0054,0.0022
2054,0.0138,0.0141,0.0137,0.0050,0.0031,0.0071,0.0074,0.0039
2055,0.0137,0.0127,0.0136,0.0054,0.0041,0.0087,0.0092,0.0041
2056,0.0142,0.0234,0.0191,0.0045,0.0037,0.0127,0.0114,0.0034
2057,0.0148,0.0248,0.0194,0.0185,0.0059,0.0177,0.0135,0.0131
2058,0.0138,0.0114,0.0110,0.0058,0.0043,0.0059,0.0060,0.0039
2059,0.0136,0.0250,0.0209,0.0206,0.0035,0.0181,0.0150,0.0146
2060,0.0133,0.0102,0.0098,0.0047,0.0027,0.0055,0.0050,0.0034
2061,0.0136,0.0116,0.0126,0.0040,0.0033,0.0070,0.0078,0.0028
2062,0.0136,0.0219,0.0202,0.0168,0.0030,0.0150,0.0140,0.0117
2063,0.0133,0.0141,0.0131,0.0071,0.0022,0.0091,0.0084,0.0050
2064,0.0134,0.0128,0.0116,0.0064,0.0024,0.0081,0.0070,0.0045
2065,0.0136,0.0101,0.0099,0.0064,0.0033,0.0058,0.0057,0.0049
2066,0.0134,0.0106,0.0112,0.0026,0.0025,0.0062,0.0064,0.0023
2067,0.0147,0.0204,0.0156,0.0124,0.0058,0.0118,0.0102,0.0092
2068,0.0132,0.0084,0.0085,0.0023,0.0021,0.0043,0.0047,0.0019
2069,0.0138,0.0121,0.0122,0.0020,0.0047,0.0084,0.0088,0.0014
2070,0.0136,0.0125,0.0119,0.0038,0.0039,0.0060,0.0066,0.0029
2071,0.0136,0.0127,0.0130,0.0054,0.0039,0.0067,0.0081,0.0041
2072,0.0135,0.0169,0.0203,0.0060,0.0033,0.0103,0.0137,0.0044
2073,0.0133,0.0108,0.0114,0.0075,0.0030,0.0057,0.0068,0.0053
2074,0.0132,0.0098,0.0096,0.0071,0.0024,0.0054,0.0052,0.0048
2075,0.0153,0.0189,0.0225,0.0114,0.0073,0.0115,0.0146,0.0081
2076,0.0133,0.0118,0.0124,0.0054,0.0023,0.0069,0.0078,0.0032
2077,0.0149,0.0439,0.0411,0.0207,0.0064,0.0279,0.0250,0.0141
2078,0.0139,0.0217,0.0155,0.0131,0.0044,0.0115,0.0086,0.0084
2079,0.0138,0.0160,0.0162,0.0101,0.0040,0.0102,0.0111,0.0060
2080,0.0134,0.0096,0.0100,0.0027,0.0026,0.0057,0.0062,0.0021
2081,0.0133,0.0077,0.0082,0.0016,0.0031,0.0040,0.0046,0.0013
2082,0.0136,0.0096,0.0105,0.0025,0.0036,0.0059,0.0069,0.0021
2083,0.0134,0.0093,0.0107,0.0024,0.0024,0.0053,0.0062,0.0021
2084,0.0133,0.0077,0.0082,0.0016,0.0031,0.0040,0.0046,0.0013
2085,0.0136,0.0096,0.0105,0.0025,0.0036,0.0059,0.0069,0.0021
2086,0.0133,0.0077,0.0082,0.0016,0.0031,0.0040,0.0046,0.0013
2087,0.0133,0.0077,0.0082,0.0016,0.0031,0.0040,0.0046,0.0013
2088,0.0134,0.0093,0.0107,0.0024,0.0024,0.0053,0.0062,0.0021
2089,0.0143,0.0162,0.0121,0.0069,0.0055,0.0072,0.0064,0.0050
2090,0.0133,0.0077,0.0082,0.0016,0.0031,0.0040,0.0046,0.0013
2091,0.0133,0.0077,0.0082,0.0016,0.0031,0.0040,0.0046,0.0013
2092,0.0138,0.0093,0.0092,0.0025,0.0029,0.0059,0.0062,0.0021
2093,0.0133,0.0077,0.0082,0.0016,0.0031,0.0040,0.0046,0.0013
2094,0.0134,0.0093,0.0107,0.0024,0.0024,0.0053,0.0062,0.0021
2095,0.0136,0.0096,0.0105,0.0025,0.0036,0.0059,0.0069,0.0021
2096,0.0133,0.0077,0.0082,0.0016,0.0031,0.0040,0.0046,0.0013
2097,0.0133,0.0077,0.0082,0.0016,0.0031,0.0040,0.0046,0.0013
2098,0.0136,0.0096,0.0105,0.0025,0.0036,0.0059,0.0069,0.0021
2099,0.0134,0.0093,0.0107,0.0024,0.0024,0.0053,0.0062,0.0021
Total Error Summary
Vdc  MAE=  0.0033 RMSE=  0.0136
Idc  MAE=  0.0076 RMSE=  0.0150
Id   MAE=  0.0077 RMSE=  0.0145
Iq   MAE=  0.0030 RMSE=  0.0056
