Read Model from: ./ucf10c2ndx/
Export Model to: ./ucf10c2ndx/ucf10c2ndx_fhf.json
idx_in [0, 1, 2, 3, 4, 5, 6]
idx_out [7, 8, 9, 10]
make_mimo_block stable2ndx
H1s[0][0]  Real Poles: [-998.95916844 -998.95916844] Freqs [Hz]: [18.705443811556353]
H1s[0][1]  Real Poles: [-882.76842982 -882.76842982] Freqs [Hz]: [14.18791932059025]
H1s[0][2]  Real Poles: [-1112.48223484 -1112.48223484] Freqs [Hz]: [47.32620470294238]
H1s[0][3]  Real Poles: [-853.2204479 -853.2204479] Freqs [Hz]: [54.07683698985748]
H1s[1][0]  Real Poles: [-640.7212615 -640.7212615] Freqs [Hz]: [51.40790505086632]
H1s[1][1]  Real Poles: [-1102.20705718 -1102.20705718] Freqs [Hz]: [33.56545945536347]
H1s[1][2]  Real Poles: [-730.74960709 -730.74960709] Freqs [Hz]: [19.523783774372706]
H1s[1][3]  Real Poles: [-302.34622955 -302.34622955] Freqs [Hz]: [44.283138491713665]
H1s[2][0]  Real Poles: [-877.33297795 -877.33297795] Freqs [Hz]: [45.49815476279285]
H1s[2][1]  Real Poles: [-528.56624126 -528.56624126] Freqs [Hz]: [58.793215772049486]
H1s[2][2]  Real Poles: [-1305.14729023 -1305.14729023] Freqs [Hz]: [79.6570957587125]
H1s[2][3]  Real Poles: [-405.69001436 -405.69001436] Freqs [Hz]: [51.10718990233546]
H1s[3][0]  Real Poles: [-654.24659848 -654.24659848] Freqs [Hz]: [55.619897382363526]
H1s[3][1]  Real Poles: [-699.66092706 -699.66092706] Freqs [Hz]: [67.1777677319093]
H1s[3][2]  Real Poles: [-918.07881743 -918.07881743] Freqs [Hz]: [33.80775813779681]
H1s[3][3]  Real Poles: [-453.95833254 -453.95833254] Freqs [Hz]: [55.22939330662857]
model_folder = ./ucf10c2ndx/
model_root = ucf10c2ndx
data_path = d:/data/ucf3/ucf9c.hdf5
idx_in [0, 1, 2, 3, 4, 5, 6]
idx_out [7, 8, 9, 10]
read 2100 dataframes
dt=0.001000 data_len=4001 n_io=11 n_case=2100
['G', 'Ud', 'Uq', 'Vd', 'Vq', 'GVrms', 'Ctrl'] ['Vdc', 'Idc', 'Id', 'Iq'] (2100, 4001, 11)
make_mimo_block stable2ndx
prepending initial conditions (2100, 500, 11) (2100, 4001, 11) float32 float32
results in (2100, 4501, 11)
Idx,Vdc,Idc,Id,Iq
#,RMSE,RMSE,RMSE,RMSE
Total,0.0050,0.0208,0.0212,0.0074
0,0.0048,0.0226,0.0230,0.0034
1,0.0048,0.0226,0.0230,0.0034
2,0.0084,0.0219,0.0183,0.0054
3,0.0052,0.0277,0.0212,0.0138
4,0.0034,0.0132,0.0119,0.0021
5,0.0042,0.0068,0.0127,0.0029
6,0.0034,0.0132,0.0119,0.0021
7,0.0044,0.0064,0.0072,0.0022
8,0.0034,0.0100,0.0097,0.0030
9,0.0034,0.0132,0.0119,0.0021
10,0.0034,0.0132,0.0119,0.0021
11,0.0042,0.0068,0.0127,0.0029
12,0.0034,0.0132,0.0119,0.0021
13,0.0034,0.0100,0.0097,0.0030
14,0.0052,0.0277,0.0212,0.0138
15,0.0042,0.0068,0.0127,0.0029
16,0.0034,0.0132,0.0119,0.0021
17,0.0034,0.0132,0.0119,0.0021
18,0.0042,0.0068,0.0127,0.0029
19,0.0046,0.0200,0.0137,0.0070
20,0.0034,0.0132,0.0119,0.0021
21,0.0042,0.0068,0.0127,0.0029
22,0.0034,0.0132,0.0119,0.0021
23,0.0034,0.0132,0.0119,0.0021
24,0.0034,0.0100,0.0097,0.0030
25,0.0052,0.0277,0.0212,0.0138
26,0.0081,0.0225,0.0374,0.0042
27,0.0067,0.0200,0.0358,0.0045
28,0.0082,0.0381,0.0550,0.0072
29,0.0051,0.0191,0.0308,0.0049
30,0.0050,0.0193,0.0149,0.0041
31,0.0055,0.0081,0.0110,0.0036
32,0.0040,0.0074,0.0108,0.0048
33,0.0036,0.0056,0.0070,0.0046
34,0.0046,0.0125,0.0162,0.0036
35,0.0036,0.0163,0.0159,0.0036
36,0.0052,0.0277,0.0212,0.0138
37,0.0032,0.0066,0.0067,0.0024
38,0.0043,0.0073,0.0114,0.0026
39,0.0032,0.0109,0.0103,0.0027
40,0.0036,0.0067,0.0071,0.0027
41,0.0046,0.0131,0.0136,0.0037
42,0.0041,0.0098,0.0110,0.0022
43,0.0051,0.0187,0.0147,0.0038
44,0.0051,0.0082,0.0115,0.0042
45,0.0049,0.0119,0.0127,0.0023
46,0.0047,0.0222,0.0217,0.0101
47,0.0052,0.0277,0.0212,0.0138
48,0.0060,0.0134,0.0155,0.0033
49,0.0047,0.0200,0.0155,0.0064
50,0.0062,0.0400,0.0399,0.0290
51,0.0052,0.0396,0.0351,0.0233
52,0.0046,0.0237,0.0242,0.0151
53,0.0046,0.0237,0.0242,0.0151
54,0.0046,0.0237,0.0242,0.0151
55,0.0046,0.0237,0.0242,0.0151
56,0.0046,0.0237,0.0242,0.0151
57,0.0046,0.0237,0.0242,0.0151
58,0.0048,0.0186,0.0194,0.0031
59,0.0035,0.0259,0.0243,0.0033
60,0.0035,0.0259,0.0243,0.0033
61,0.0030,0.0164,0.0191,0.0043
62,0.0038,0.0322,0.0325,0.0037
63,0.0047,0.0224,0.0210,0.0035
64,0.0032,0.0213,0.0191,0.0034
65,0.0042,0.0200,0.0188,0.0024
66,0.0042,0.0208,0.0164,0.0021
67,0.0046,0.0192,0.0198,0.0039
68,0.0047,0.0193,0.0179,0.0035
69,0.0048,0.0186,0.0194,0.0031
70,0.0042,0.0186,0.0196,0.0045
71,0.0049,0.0183,0.0130,0.0039
72,0.0051,0.0236,0.0151,0.0049
73,0.0057,0.0357,0.0246,0.0069
74,0.0045,0.0228,0.0194,0.0035
75,0.0052,0.0321,0.0299,0.0228
76,0.0042,0.0262,0.0207,0.0185
77,0.0038,0.0282,0.0234,0.0177
78,0.0042,0.0196,0.0161,0.0117
79,0.0059,0.0251,0.0246,0.0093
80,0.0048,0.0186,0.0194,0.0031
81,0.0060,0.0368,0.0282,0.0084
82,0.0034,0.0393,0.0364,0.0079
83,0.0034,0.0397,0.0383,0.0071
84,0.0042,0.0200,0.0212,0.0068
85,0.0051,0.0264,0.0281,0.0038
86,0.0042,0.0200,0.0188,0.0024
87,0.0034,0.0212,0.0263,0.0033
88,0.0040,0.0285,0.0282,0.0046
89,0.0040,0.0283,0.0277,0.0060
90,0.0053,0.0382,0.0403,0.0120
91,0.0048,0.0190,0.0189,0.0036
92,0.0037,0.0280,0.0294,0.0087
93,0.0038,0.0306,0.0345,0.0107
94,0.0038,0.0290,0.0341,0.0127
95,0.0054,0.0431,0.0439,0.0179
96,0.0080,0.0422,0.0418,0.0274
97,0.0066,0.0317,0.0344,0.0181
98,0.0042,0.0208,0.0164,0.0021
99,0.0035,0.0259,0.0243,0.0033
100,0.0030,0.0164,0.0191,0.0043
101,0.0049,0.0240,0.0245,0.0036
102,0.0047,0.0302,0.0279,0.0034
103,0.0035,0.0259,0.0243,0.0033
104,0.0030,0.0164,0.0191,0.0043
105,0.0035,0.0259,0.0243,0.0033
106,0.0035,0.0259,0.0243,0.0033
107,0.0049,0.0240,0.0245,0.0036
108,0.0035,0.0259,0.0243,0.0033
109,0.0035,0.0259,0.0243,0.0033
110,0.0046,0.0192,0.0198,0.0039
111,0.0035,0.0259,0.0243,0.0033
112,0.0049,0.0240,0.0245,0.0036
113,0.0093,0.0221,0.0178,0.0059
114,0.0048,0.0178,0.0171,0.0036
115,0.0030,0.0164,0.0191,0.0043
116,0.0035,0.0259,0.0243,0.0033
117,0.0035,0.0259,0.0243,0.0033
118,0.0030,0.0164,0.0191,0.0043
119,0.0049,0.0240,0.0245,0.0036
120,0.0035,0.0259,0.0243,0.0033
121,0.0030,0.0164,0.0191,0.0043
122,0.0035,0.0259,0.0243,0.0033
123,0.0040,0.0185,0.0152,0.0038
124,0.0049,0.0240,0.0245,0.0036
125,0.0048,0.0246,0.0225,0.0032
126,0.0035,0.0259,0.0243,0.0033
127,0.0035,0.0259,0.0243,0.0033
128,0.0030,0.0164,0.0191,0.0043
129,0.0035,0.0259,0.0243,0.0033
130,0.0049,0.0240,0.0245,0.0036
131,0.0030,0.0164,0.0191,0.0043
132,0.0035,0.0259,0.0243,0.0033
133,0.0035,0.0259,0.0243,0.0033
134,0.0030,0.0164,0.0191,0.0043
135,0.0048,0.0241,0.0172,0.0054
136,0.0051,0.0310,0.0277,0.0029
137,0.0035,0.0259,0.0243,0.0033
138,0.0030,0.0164,0.0191,0.0043
139,0.0035,0.0259,0.0243,0.0033
140,0.0035,0.0259,0.0243,0.0033
141,0.0049,0.0240,0.0245,0.0036
142,0.0092,0.0253,0.0303,0.0080
143,0.0086,0.0240,0.0336,0.0047
144,0.0091,0.0315,0.0304,0.0106
145,0.0073,0.0285,0.0393,0.0044
146,0.0047,0.0193,0.0179,0.0035
147,0.0058,0.0298,0.0246,0.0031
148,0.0049,0.0183,0.0130,0.0039
149,0.0057,0.0264,0.0342,0.0044
150,0.0049,0.0245,0.0307,0.0039
151,0.0045,0.0195,0.0250,0.0066
152,0.0049,0.0313,0.0304,0.0043
153,0.0035,0.0198,0.0185,0.0028
154,0.0030,0.0158,0.0154,0.0032
155,0.0042,0.0268,0.0278,0.0032
156,0.0042,0.0200,0.0188,0.0024
157,0.0045,0.0197,0.0206,0.0039
158,0.0096,0.0208,0.0184,0.0033
159,0.0041,0.0201,0.0146,0.0028
160,0.0051,0.0236,0.0151,0.0049
161,0.0049,0.0183,0.0145,0.0031
162,0.0042,0.0186,0.0196,0.0045
163,0.0050,0.0386,0.0309,0.0083
164,0.0051,0.0176,0.0176,0.0049
165,0.0057,0.0357,0.0246,0.0069
166,0.0052,0.0321,0.0299,0.0228
167,0.0038,0.0279,0.0221,0.0252
168,0.0054,0.0271,0.0240,0.0135
169,0.0083,0.0193,0.0155,0.0046
170,0.0054,0.0271,0.0240,0.0135
171,0.0054,0.0271,0.0240,0.0135
172,0.0054,0.0271,0.0240,0.0135
173,0.0054,0.0271,0.0240,0.0135
174,0.0054,0.0271,0.0240,0.0135
175,0.0035,0.0220,0.0209,0.0028
176,0.0035,0.0220,0.0209,0.0028
177,0.0030,0.0132,0.0162,0.0041
178,0.0038,0.0260,0.0263,0.0033
179,0.0047,0.0200,0.0184,0.0034
180,0.0093,0.0201,0.0173,0.0050
181,0.0033,0.0173,0.0156,0.0030
182,0.0042,0.0166,0.0141,0.0024
183,0.0042,0.0200,0.0158,0.0021
184,0.0046,0.0142,0.0134,0.0037
185,0.0046,0.0187,0.0196,0.0038
186,0.0041,0.0167,0.0159,0.0037
187,0.0048,0.0176,0.0128,0.0034
188,0.0047,0.0200,0.0152,0.0037
189,0.0050,0.0274,0.0206,0.0056
190,0.0044,0.0209,0.0179,0.0034
191,0.0094,0.0205,0.0156,0.0048
192,0.0051,0.0321,0.0316,0.0206
193,0.0039,0.0241,0.0202,0.0156
194,0.0038,0.0272,0.0228,0.0152
195,0.0039,0.0189,0.0181,0.0106
196,0.0056,0.0242,0.0256,0.0084
197,0.0063,0.0332,0.0254,0.0076
198,0.0035,0.0315,0.0287,0.0069
199,0.0036,0.0327,0.0309,0.0064
200,0.0043,0.0181,0.0203,0.0058
201,0.0050,0.0210,0.0221,0.0037
202,0.0088,0.0268,0.0210,0.0047
203,0.0042,0.0166,0.0141,0.0024
204,0.0034,0.0185,0.0233,0.0034
205,0.0040,0.0261,0.0265,0.0042
206,0.0042,0.0267,0.0257,0.0054
207,0.0052,0.0328,0.0348,0.0109
208,0.0038,0.0253,0.0251,0.0077
209,0.0037,0.0264,0.0287,0.0091
210,0.0036,0.0265,0.0282,0.0100
211,0.0047,0.0357,0.0366,0.0148
212,0.0069,0.0391,0.0389,0.0244
213,0.0054,0.0314,0.0275,0.0030
214,0.0055,0.0278,0.0316,0.0147
215,0.0042,0.0200,0.0158,0.0021
216,0.0035,0.0220,0.0209,0.0028
217,0.0030,0.0132,0.0162,0.0041
218,0.0048,0.0195,0.0201,0.0036
219,0.0035,0.0220,0.0209,0.0028
220,0.0030,0.0132,0.0162,0.0041
221,0.0035,0.0220,0.0209,0.0028
222,0.0035,0.0220,0.0209,0.0028
223,0.0048,0.0195,0.0201,0.0036
224,0.0095,0.0241,0.0157,0.0060
225,0.0055,0.0303,0.0271,0.0176
226,0.0035,0.0220,0.0209,0.0028
227,0.0035,0.0220,0.0209,0.0028
228,0.0046,0.0142,0.0134,0.0037
229,0.0035,0.0220,0.0209,0.0028
230,0.0048,0.0195,0.0201,0.0036
231,0.0030,0.0132,0.0162,0.0041
232,0.0035,0.0220,0.0209,0.0028
233,0.0035,0.0220,0.0209,0.0028
234,0.0030,0.0132,0.0162,0.0041
235,0.0048,0.0195,0.0201,0.0036
236,0.0060,0.0323,0.0272,0.0191
237,0.0035,0.0220,0.0209,0.0028
238,0.0030,0.0132,0.0162,0.0041
239,0.0035,0.0220,0.0209,0.0028
240,0.0039,0.0162,0.0117,0.0033
241,0.0048,0.0195,0.0201,0.0036
242,0.0035,0.0220,0.0209,0.0028
243,0.0035,0.0220,0.0209,0.0028
244,0.0030,0.0132,0.0162,0.0041
245,0.0035,0.0220,0.0209,0.0028
246,0.0048,0.0195,0.0201,0.0036
247,0.0066,0.0341,0.0321,0.0193
248,0.0030,0.0132,0.0162,0.0041
249,0.0035,0.0220,0.0209,0.0028
250,0.0035,0.0220,0.0209,0.0028
251,0.0030,0.0132,0.0162,0.0041
252,0.0047,0.0195,0.0178,0.0058
253,0.0035,0.0220,0.0209,0.0028
254,0.0030,0.0132,0.0162,0.0041
255,0.0035,0.0220,0.0209,0.0028
256,0.0035,0.0220,0.0209,0.0028
257,0.0048,0.0195,0.0201,0.0036
258,0.0066,0.0270,0.0267,0.0161
259,0.0089,0.0233,0.0267,0.0066
260,0.0081,0.0202,0.0273,0.0041
261,0.0086,0.0318,0.0329,0.0098
262,0.0069,0.0241,0.0327,0.0046
263,0.0046,0.0187,0.0196,0.0038
264,0.0048,0.0176,0.0128,0.0034
265,0.0055,0.0220,0.0276,0.0045
266,0.0048,0.0204,0.0250,0.0041
267,0.0041,0.0165,0.0203,0.0062
268,0.0050,0.0274,0.0273,0.0040
269,0.0064,0.0320,0.0324,0.0110
270,0.0035,0.0166,0.0156,0.0025
271,0.0031,0.0128,0.0130,0.0030
272,0.0041,0.0196,0.0199,0.0030
273,0.0042,0.0166,0.0141,0.0024
274,0.0044,0.0175,0.0176,0.0037
275,0.0041,0.0200,0.0143,0.0025
276,0.0047,0.0200,0.0152,0.0037
277,0.0049,0.0183,0.0153,0.0031
278,0.0041,0.0167,0.0159,0.0037
279,0.0048,0.0296,0.0274,0.0085
280,0.0057,0.0240,0.0227,0.0082
281,0.0050,0.0159,0.0144,0.0040
282,0.0050,0.0274,0.0206,0.0056
283,0.0051,0.0321,0.0316,0.0206
284,0.0038,0.0268,0.0221,0.0204
285,0.0050,0.0254,0.0238,0.0130
286,0.0050,0.0254,0.0238,0.0130
287,0.0050,0.0254,0.0238,0.0130
288,0.0050,0.0254,0.0238,0.0130
289,0.0050,0.0254,0.0238,0.0130
290,0.0050,0.0254,0.0238,0.0130
291,0.0054,0.0247,0.0238,0.0065
292,0.0034,0.0157,0.0148,0.0021
293,0.0034,0.0157,0.0148,0.0021
294,0.0030,0.0086,0.0120,0.0036
295,0.0036,0.0182,0.0182,0.0025
296,0.0048,0.0172,0.0173,0.0033
297,0.0033,0.0113,0.0100,0.0025
298,0.0043,0.0130,0.0120,0.0024
299,0.0045,0.0212,0.0208,0.0021
300,0.0046,0.0090,0.0089,0.0035
301,0.0044,0.0180,0.0170,0.0044
302,0.0053,0.0253,0.0246,0.0054
303,0.0040,0.0127,0.0124,0.0027
304,0.0048,0.0153,0.0142,0.0029
305,0.0044,0.0180,0.0152,0.0031
306,0.0047,0.0205,0.0178,0.0053
307,0.0046,0.0203,0.0197,0.0035
308,0.0055,0.0333,0.0342,0.0215
309,0.0039,0.0195,0.0179,0.0120
310,0.0039,0.0273,0.0228,0.0131
311,0.0038,0.0157,0.0165,0.0074
312,0.0054,0.0199,0.0236,0.0070
313,0.0049,0.0228,0.0228,0.0045
314,0.0070,0.0304,0.0237,0.0082
315,0.0038,0.0249,0.0229,0.0064
316,0.0038,0.0244,0.0228,0.0057
317,0.0047,0.0144,0.0190,0.0039
318,0.0051,0.0150,0.0162,0.0035
319,0.0043,0.0130,0.0120,0.0024
320,0.0034,0.0131,0.0170,0.0037
321,0.0037,0.0233,0.0250,0.0039
322,0.0039,0.0254,0.0255,0.0053
323,0.0052,0.0247,0.0277,0.0078
324,0.0041,0.0232,0.0227,0.0034
325,0.0038,0.0256,0.0242,0.0072
326,0.0036,0.0232,0.0237,0.0075
327,0.0039,0.0280,0.0228,0.0091
328,0.0042,0.0213,0.0241,0.0095
329,0.0067,0.0417,0.0408,0.0243
330,0.0042,0.0240,0.0309,0.0141
331,0.0045,0.0212,0.0208,0.0021
332,0.0034,0.0157,0.0148,0.0021
333,0.0030,0.0086,0.0120,0.0036
334,0.0048,0.0127,0.0136,0.0033
335,0.0090,0.0342,0.0238,0.0063
336,0.0048,0.0246,0.0225,0.0032
337,0.0034,0.0157,0.0148,0.0021
338,0.0030,0.0086,0.0120,0.0036
339,0.0034,0.0157,0.0148,0.0021
340,0.0034,0.0157,0.0148,0.0021
341,0.0048,0.0127,0.0136,0.0033
342,0.0034,0.0157,0.0148,0.0021
343,0.0034,0.0157,0.0148,0.0021
344,0.0046,0.0090,0.0089,0.0035
345,0.0034,0.0157,0.0148,0.0021
346,0.0048,0.0127,0.0136,0.0033
347,0.0051,0.0225,0.0260,0.0037
348,0.0030,0.0086,0.0120,0.0036
349,0.0034,0.0157,0.0148,0.0021
350,0.0034,0.0157,0.0148,0.0021
351,0.0030,0.0086,0.0120,0.0036
352,0.0048,0.0127,0.0136,0.0033
353,0.0034,0.0157,0.0148,0.0021
354,0.0030,0.0086,0.0120,0.0036
355,0.0034,0.0157,0.0148,0.0021
356,0.0040,0.0137,0.0110,0.0026
357,0.0048,0.0127,0.0136,0.0033
358,0.0055,0.0261,0.0314,0.0048
359,0.0034,0.0157,0.0148,0.0021
360,0.0034,0.0157,0.0148,0.0021
361,0.0030,0.0086,0.0120,0.0036
362,0.0034,0.0157,0.0148,0.0021
363,0.0048,0.0127,0.0136,0.0033
364,0.0030,0.0086,0.0120,0.0036
365,0.0034,0.0157,0.0148,0.0021
366,0.0034,0.0157,0.0148,0.0021
367,0.0030,0.0086,0.0120,0.0036
368,0.0046,0.0188,0.0178,0.0071
369,0.0061,0.0273,0.0335,0.0061
370,0.0034,0.0157,0.0148,0.0021
371,0.0030,0.0086,0.0120,0.0036
372,0.0034,0.0157,0.0148,0.0021
373,0.0034,0.0157,0.0148,0.0021
374,0.0048,0.0127,0.0136,0.0033
375,0.0083,0.0204,0.0259,0.0045
376,0.0075,0.0152,0.0227,0.0038
377,0.0077,0.0333,0.0412,0.0083
378,0.0063,0.0169,0.0245,0.0047
379,0.0044,0.0180,0.0170,0.0044
380,0.0067,0.0415,0.0435,0.0146
381,0.0048,0.0153,0.0142,0.0029
382,0.0052,0.0134,0.0162,0.0047
383,0.0047,0.0122,0.0140,0.0044
384,0.0037,0.0121,0.0139,0.0049
385,0.0048,0.0212,0.0222,0.0036
386,0.0034,0.0101,0.0095,0.0022
387,0.0031,0.0078,0.0090,0.0026
388,0.0040,0.0121,0.0117,0.0026
389,0.0043,0.0130,0.0120,0.0024
390,0.0043,0.0133,0.0140,0.0037
391,0.0063,0.0303,0.0382,0.0096
392,0.0043,0.0185,0.0166,0.0022
393,0.0044,0.0180,0.0152,0.0031
394,0.0051,0.0180,0.0187,0.0031
395,0.0040,0.0127,0.0124,0.0027
396,0.0050,0.0221,0.0253,0.0096
397,0.0049,0.0134,0.0132,0.0029
398,0.0047,0.0205,0.0178,0.0053
399,0.0055,0.0333,0.0342,0.0215
400,0.0039,0.0252,0.0220,0.0150
401,0.0049,0.0235,0.0239,0.0134
402,0.0060,0.0350,0.0418,0.0127
403,0.0049,0.0235,0.0239,0.0134
404,0.0049,0.0235,0.0239,0.0134
405,0.0049,0.0235,0.0239,0.0134
406,0.0049,0.0235,0.0239,0.0134
407,0.0049,0.0235,0.0239,0.0134
408,0.0033,0.0152,0.0143,0.0019
409,0.0033,0.0152,0.0143,0.0019
410,0.0030,0.0046,0.0068,0.0029
411,0.0034,0.0168,0.0165,0.0022
412,0.0052,0.0126,0.0149,0.0034
413,0.0058,0.0448,0.0478,0.0176
414,0.0032,0.0118,0.0104,0.0026
415,0.0046,0.0085,0.0088,0.0023
416,0.0049,0.0150,0.0165,0.0021
417,0.0048,0.0068,0.0072,0.0038
418,0.0043,0.0186,0.0160,0.0044
419,0.0041,0.0117,0.0121,0.0023
420,0.0049,0.0089,0.0096,0.0031
421,0.0045,0.0194,0.0155,0.0037
422,0.0048,0.0202,0.0165,0.0065
423,0.0050,0.0155,0.0172,0.0037
424,0.0058,0.0528,0.0502,0.0224
425,0.0059,0.0371,0.0377,0.0263
426,0.0041,0.0175,0.0167,0.0135
427,0.0040,0.0292,0.0237,0.0166
428,0.0038,0.0128,0.0129,0.0075
429,0.0054,0.0160,0.0201,0.0077
430,0.0075,0.0318,0.0252,0.0111
431,0.0038,0.0249,0.0233,0.0073
432,0.0037,0.0255,0.0245,0.0064
433,0.0050,0.0160,0.0187,0.0032
434,0.0052,0.0132,0.0151,0.0035
435,0.0073,0.0388,0.0334,0.0214
436,0.0046,0.0085,0.0088,0.0023
437,0.0034,0.0095,0.0130,0.0039
438,0.0034,0.0236,0.0261,0.0049
439,0.0034,0.0272,0.0285,0.0067
440,0.0055,0.0224,0.0262,0.0053
441,0.0036,0.0316,0.0315,0.0091
442,0.0037,0.0293,0.0307,0.0091
443,0.0041,0.0363,0.0316,0.0134
444,0.0041,0.0162,0.0236,0.0085
445,0.0078,0.0471,0.0449,0.0282
446,0.0055,0.0326,0.0275,0.0031
447,0.0056,0.0512,0.0364,0.0234
448,0.0039,0.0303,0.0385,0.0193
449,0.0049,0.0150,0.0165,0.0021
450,0.0033,0.0152,0.0143,0.0019
451,0.0030,0.0046,0.0068,0.0029
452,0.0050,0.0094,0.0111,0.0033
453,0.0033,0.0152,0.0143,0.0019
454,0.0030,0.0046,0.0068,0.0029
455,0.0033,0.0152,0.0143,0.0019
456,0.0033,0.0152,0.0143,0.0019
457,0.0050,0.0094,0.0111,0.0033
458,0.0051,0.0310,0.0277,0.0029
459,0.0033,0.0152,0.0143,0.0019
460,0.0033,0.0152,0.0143,0.0019
461,0.0048,0.0068,0.0072,0.0038
462,0.0033,0.0152,0.0143,0.0019
463,0.0050,0.0094,0.0111,0.0033
464,0.0030,0.0046,0.0068,0.0029
465,0.0033,0.0152,0.0143,0.0019
466,0.0033,0.0152,0.0143,0.0019
467,0.0030,0.0046,0.0068,0.0029
468,0.0050,0.0094,0.0111,0.0033
469,0.0048,0.0186,0.0194,0.0031
470,0.0033,0.0152,0.0143,0.0019
471,0.0030,0.0046,0.0068,0.0029
472,0.0033,0.0152,0.0143,0.0019
473,0.0042,0.0083,0.0079,0.0023
474,0.0050,0.0094,0.0111,0.0033
475,0.0033,0.0152,0.0143,0.0019
476,0.0033,0.0152,0.0143,0.0019
477,0.0030,0.0046,0.0068,0.0029
478,0.0033,0.0152,0.0143,0.0019
479,0.0050,0.0094,0.0111,0.0033
480,0.0048,0.0186,0.0194,0.0031
481,0.0030,0.0046,0.0068,0.0029
482,0.0033,0.0152,0.0143,0.0019
483,0.0033,0.0152,0.0143,0.0019
484,0.0030,0.0046,0.0068,0.0029
485,0.0044,0.0199,0.0168,0.0077
486,0.0033,0.0152,0.0143,0.0019
487,0.0030,0.0046,0.0068,0.0029
488,0.0033,0.0152,0.0143,0.0019
489,0.0033,0.0152,0.0143,0.0019
490,0.0050,0.0094,0.0111,0.0033
491,0.0044,0.0243,0.0233,0.0038
492,0.0080,0.0228,0.0351,0.0039
493,0.0071,0.0182,0.0318,0.0039
494,0.0072,0.0381,0.0527,0.0079
495,0.0060,0.0187,0.0304,0.0046
496,0.0043,0.0186,0.0160,0.0044
497,0.0049,0.0089,0.0096,0.0031
498,0.0051,0.0104,0.0149,0.0046
499,0.0047,0.0071,0.0088,0.0044
500,0.0036,0.0142,0.0176,0.0036
501,0.0046,0.0191,0.0203,0.0038
502,0.0048,0.0186,0.0194,0.0031
503,0.0034,0.0090,0.0082,0.0023
504,0.0031,0.0070,0.0071,0.0023
505,0.0042,0.0100,0.0095,0.0024
506,0.0046,0.0085,0.0088,0.0023
507,0.0044,0.0101,0.0119,0.0039
508,0.0046,0.0135,0.0139,0.0021
509,0.0045,0.0194,0.0155,0.0037
510,0.0053,0.0104,0.0124,0.0036
511,0.0041,0.0117,0.0121,0.0023
512,0.0048,0.0221,0.0247,0.0107
513,0.0048,0.0186,0.0194,0.0031
514,0.0049,0.0125,0.0133,0.0029
515,0.0048,0.0202,0.0165,0.0065
516,0.0059,0.0371,0.0377,0.0263
517,0.0041,0.0254,0.0216,0.0176
518,0.0051,0.0247,0.0261,0.0151
519,0.0051,0.0247,0.0261,0.0151
520,0.0051,0.0247,0.0261,0.0151
521,0.0051,0.0247,0.0261,0.0151
522,0.0051,0.0247,0.0261,0.0151
523,0.0051,0.0247,0.0261,0.0151
524,0.0048,0.0186,0.0194,0.0031
525,0.0032,0.0162,0.0153,0.0019
526,0.0032,0.0162,0.0153,0.0019
527,0.0030,0.0052,0.0065,0.0027
528,0.0034,0.0163,0.0155,0.0021
529,0.0053,0.0082,0.0109,0.0036
530,0.0032,0.0142,0.0129,0.0028
531,0.0047,0.0071,0.0070,0.0023
532,0.0050,0.0096,0.0111,0.0021
533,0.0049,0.0086,0.0085,0.0041
534,0.0044,0.0181,0.0150,0.0045
535,0.0048,0.0186,0.0194,0.0031
536,0.0042,0.0128,0.0131,0.0022
537,0.0050,0.0070,0.0077,0.0035
538,0.0047,0.0206,0.0159,0.0040
539,0.0049,0.0221,0.0164,0.0071
540,0.0053,0.0131,0.0157,0.0038
541,0.0061,0.0402,0.0403,0.0293
542,0.0042,0.0185,0.0175,0.0159
543,0.0041,0.0329,0.0264,0.0199
544,0.0038,0.0134,0.0126,0.0090
545,0.0054,0.0164,0.0202,0.0087
546,0.0044,0.0243,0.0233,0.0038
547,0.0077,0.0326,0.0261,0.0126
548,0.0038,0.0267,0.0254,0.0082
549,0.0036,0.0270,0.0262,0.0071
550,0.0051,0.0170,0.0191,0.0038
551,0.0053,0.0136,0.0153,0.0034
552,0.0047,0.0071,0.0070,0.0023
553,0.0034,0.0092,0.0127,0.0040
554,0.0033,0.0246,0.0273,0.0056
555,0.0033,0.0290,0.0306,0.0078
556,0.0056,0.0226,0.0266,0.0050
557,0.0055,0.0321,0.0267,0.0221
558,0.0048,0.0186,0.0194,0.0031
559,0.0036,0.0346,0.0352,0.0105
560,0.0037,0.0331,0.0351,0.0105
561,0.0040,0.0403,0.0369,0.0156
562,0.0042,0.0188,0.0273,0.0097
563,0.0084,0.0498,0.0470,0.0303
564,0.0038,0.0360,0.0444,0.0228
565,0.0050,0.0096,0.0111,0.0021
566,0.0032,0.0162,0.0153,0.0019
567,0.0030,0.0052,0.0065,0.0027
568,0.0051,0.0099,0.0114,0.0034
569,0.0048,0.0186,0.0194,0.0031
570,0.0032,0.0162,0.0153,0.0019
571,0.0030,0.0052,0.0065,0.0027
572,0.0032,0.0162,0.0153,0.0019
573,0.0032,0.0162,0.0153,0.0019
574,0.0051,0.0099,0.0114,0.0034
575,0.0032,0.0162,0.0153,0.0019
576,0.0032,0.0162,0.0153,0.0019
577,0.0049,0.0086,0.0085,0.0041
578,0.0032,0.0162,0.0153,0.0019
579,0.0051,0.0099,0.0114,0.0034
580,0.0058,0.0298,0.0246,0.0031
581,0.0030,0.0052,0.0065,0.0027
582,0.0032,0.0162,0.0153,0.0019
583,0.0032,0.0162,0.0153,0.0019
584,0.0030,0.0052,0.0065,0.0027
585,0.0051,0.0099,0.0114,0.0034
586,0.0032,0.0162,0.0153,0.0019
587,0.0030,0.0052,0.0065,0.0027
588,0.0032,0.0162,0.0153,0.0019
589,0.0042,0.0069,0.0072,0.0021
590,0.0051,0.0099,0.0114,0.0034
591,0.0048,0.0186,0.0194,0.0031
592,0.0032,0.0162,0.0153,0.0019
593,0.0032,0.0162,0.0153,0.0019
594,0.0030,0.0052,0.0065,0.0027
595,0.0032,0.0162,0.0153,0.0019
596,0.0051,0.0099,0.0114,0.0034
597,0.0030,0.0052,0.0065,0.0027
598,0.0032,0.0162,0.0153,0.0019
599,0.0032,0.0162,0.0153,0.0019
600,0.0030,0.0052,0.0065,0.0027
601,0.0044,0.0207,0.0165,0.0078
602,0.0044,0.0243,0.0233,0.0038
603,0.0032,0.0162,0.0153,0.0019
604,0.0030,0.0052,0.0065,0.0027
605,0.0032,0.0162,0.0153,0.0019
606,0.0032,0.0162,0.0153,0.0019
607,0.0051,0.0099,0.0114,0.0034
608,0.0079,0.0244,0.0399,0.0037
609,0.0070,0.0215,0.0381,0.0039
610,0.0071,0.0409,0.0583,0.0079
611,0.0059,0.0223,0.0362,0.0045
612,0.0044,0.0181,0.0150,0.0045
613,0.0048,0.0186,0.0194,0.0031
614,0.0050,0.0070,0.0077,0.0035
615,0.0051,0.0122,0.0183,0.0045
616,0.0047,0.0068,0.0093,0.0044
617,0.0035,0.0171,0.0217,0.0031
618,0.0045,0.0190,0.0202,0.0040
619,0.0034,0.0097,0.0088,0.0024
620,0.0031,0.0075,0.0072,0.0023
621,0.0043,0.0117,0.0112,0.0024
622,0.0047,0.0071,0.0070,0.0023
623,0.0045,0.0112,0.0130,0.0040
624,0.0048,0.0186,0.0194,0.0031
625,0.0048,0.0098,0.0108,0.0020
626,0.0047,0.0206,0.0159,0.0040
627,0.0053,0.0061,0.0072,0.0039
628,0.0042,0.0128,0.0131,0.0022
629,0.0047,0.0233,0.0242,0.0112
630,0.0049,0.0153,0.0160,0.0032
631,0.0049,0.0221,0.0164,0.0071
632,0.0061,0.0402,0.0403,0.0293
633,0.0041,0.0283,0.0234,0.0213
634,0.0051,0.0272,0.0288,0.0165
635,0.0048,0.0186,0.0194,0.0031
636,0.0051,0.0272,0.0288,0.0165
637,0.0051,0.0272,0.0288,0.0165
638,0.0051,0.0272,0.0288,0.0165
639,0.0051,0.0272,0.0288,0.0165
640,0.0051,0.0272,0.0288,0.0165
641,0.0037,0.0244,0.0234,0.0028
642,0.0037,0.0244,0.0234,0.0028
643,0.0040,0.0183,0.0208,0.0053
644,0.0040,0.0297,0.0301,0.0032
645,0.0054,0.0266,0.0242,0.0036
646,0.0048,0.0186,0.0194,0.0031
647,0.0034,0.0215,0.0205,0.0032
648,0.0051,0.0219,0.0198,0.0023
649,0.0052,0.0247,0.0200,0.0021
650,0.0055,0.0203,0.0212,0.0033
651,0.0049,0.0205,0.0203,0.0034
652,0.0045,0.0211,0.0241,0.0048
653,0.0054,0.0196,0.0164,0.0039
654,0.0056,0.0209,0.0169,0.0050
655,0.0064,0.0286,0.0187,0.0064
656,0.0051,0.0278,0.0235,0.0035
657,0.0044,0.0243,0.0233,0.0038
658,0.0050,0.0289,0.0258,0.0219
659,0.0049,0.0284,0.0217,0.0202
660,0.0039,0.0244,0.0202,0.0198
661,0.0055,0.0206,0.0162,0.0142
662,0.0075,0.0248,0.0230,0.0097
663,0.0051,0.0338,0.0276,0.0097
664,0.0038,0.0404,0.0407,0.0069
665,0.0035,0.0405,0.0420,0.0060
666,0.0035,0.0217,0.0231,0.0088
667,0.0058,0.0267,0.0280,0.0036
668,0.0061,0.0342,0.0273,0.0230
669,0.0048,0.0186,0.0194,0.0031
670,0.0051,0.0219,0.0198,0.0023
671,0.0048,0.0237,0.0290,0.0035
672,0.0038,0.0274,0.0296,0.0049
673,0.0038,0.0277,0.0311,0.0066
674,0.0064,0.0467,0.0490,0.0149
675,0.0043,0.0296,0.0354,0.0101
676,0.0052,0.0350,0.0411,0.0131
677,0.0048,0.0315,0.0440,0.0155
678,0.0074,0.0506,0.0501,0.0213
679,0.0077,0.0453,0.0437,0.0266
680,0.0048,0.0186,0.0194,0.0031
681,0.0088,0.0354,0.0364,0.0203
682,0.0052,0.0247,0.0200,0.0021
683,0.0037,0.0244,0.0234,0.0028
684,0.0040,0.0183,0.0208,0.0053
685,0.0054,0.0248,0.0246,0.0038
686,0.0037,0.0244,0.0234,0.0028
687,0.0040,0.0183,0.0208,0.0053
688,0.0037,0.0244,0.0234,0.0028
689,0.0037,0.0244,0.0234,0.0028
690,0.0054,0.0248,0.0246,0.0038
691,0.0048,0.0186,0.0194,0.0031
692,0.0037,0.0244,0.0234,0.0028
693,0.0037,0.0244,0.0234,0.0028
694,0.0055,0.0203,0.0212,0.0033
695,0.0037,0.0244,0.0234,0.0028
696,0.0054,0.0248,0.0246,0.0038
697,0.0040,0.0183,0.0208,0.0053
698,0.0037,0.0244,0.0234,0.0028
699,0.0037,0.0244,0.0234,0.0028
700,0.0040,0.0183,0.0208,0.0053
701,0.0054,0.0248,0.0246,0.0038
702,0.0070,0.0235,0.0173,0.0039
703,0.0037,0.0244,0.0234,0.0028
704,0.0040,0.0183,0.0208,0.0053
705,0.0037,0.0244,0.0234,0.0028
706,0.0044,0.0212,0.0187,0.0039
707,0.0054,0.0248,0.0246,0.0038
708,0.0037,0.0244,0.0234,0.0028
709,0.0037,0.0244,0.0234,0.0028
710,0.0040,0.0183,0.0208,0.0053
711,0.0037,0.0244,0.0234,0.0028
712,0.0054,0.0248,0.0246,0.0038
713,0.0044,0.0243,0.0233,0.0038
714,0.0040,0.0183,0.0208,0.0053
715,0.0037,0.0244,0.0234,0.0028
716,0.0037,0.0244,0.0234,0.0028
717,0.0040,0.0183,0.0208,0.0053
718,0.0054,0.0229,0.0187,0.0051
719,0.0037,0.0244,0.0234,0.0028
720,0.0040,0.0183,0.0208,0.0053
721,0.0037,0.0244,0.0234,0.0028
722,0.0037,0.0244,0.0234,0.0028
723,0.0054,0.0248,0.0246,0.0038
724,0.0048,0.0186,0.0194,0.0031
725,0.0091,0.0303,0.0373,0.0088
726,0.0089,0.0293,0.0402,0.0052
727,0.0090,0.0314,0.0311,0.0116
728,0.0083,0.0330,0.0452,0.0046
729,0.0049,0.0205,0.0203,0.0034
730,0.0054,0.0196,0.0164,0.0039
731,0.0071,0.0306,0.0396,0.0046
732,0.0064,0.0277,0.0347,0.0041
733,0.0058,0.0230,0.0295,0.0073
734,0.0050,0.0293,0.0289,0.0043
735,0.0048,0.0186,0.0194,0.0031
736,0.0041,0.0216,0.0216,0.0026
737,0.0036,0.0177,0.0177,0.0040
738,0.0048,0.0251,0.0258,0.0029
739,0.0051,0.0219,0.0198,0.0023
740,0.0046,0.0227,0.0221,0.0039
741,0.0048,0.0236,0.0181,0.0028
742,0.0056,0.0209,0.0169,0.0050
743,0.0059,0.0207,0.0170,0.0029
744,0.0045,0.0211,0.0241,0.0048
745,0.0058,0.0355,0.0306,0.0083
746,0.0048,0.0186,0.0194,0.0031
747,0.0053,0.0200,0.0241,0.0049
748,0.0064,0.0286,0.0187,0.0064
749,0.0050,0.0289,0.0258,0.0219
750,0.0040,0.0303,0.0233,0.0281
751,0.0064,0.0271,0.0236,0.0126
752,0.0064,0.0271,0.0236,0.0126
753,0.0064,0.0271,0.0236,0.0126
754,0.0064,0.0271,0.0236,0.0126
755,0.0064,0.0271,0.0236,0.0126
756,0.0064,0.0271,0.0236,0.0126
757,0.0048,0.0186,0.0194,0.0031
758,0.0037,0.0209,0.0204,0.0024
759,0.0037,0.0209,0.0204,0.0024
760,0.0038,0.0146,0.0166,0.0050
761,0.0040,0.0237,0.0242,0.0028
762,0.0055,0.0251,0.0231,0.0035
763,0.0033,0.0174,0.0169,0.0029
764,0.0052,0.0195,0.0168,0.0023
765,0.0053,0.0241,0.0200,0.0021
766,0.0056,0.0154,0.0146,0.0030
767,0.0047,0.0196,0.0205,0.0035
768,0.0044,0.0243,0.0233,0.0038
769,0.0044,0.0182,0.0185,0.0040
770,0.0053,0.0178,0.0134,0.0034
771,0.0051,0.0193,0.0176,0.0037
772,0.0058,0.0235,0.0180,0.0051
773,0.0052,0.0261,0.0226,0.0034
774,0.0048,0.0279,0.0268,0.0187
775,0.0044,0.0267,0.0216,0.0169
776,0.0038,0.0237,0.0203,0.0167
777,0.0051,0.0205,0.0185,0.0132
778,0.0071,0.0235,0.0231,0.0088
779,0.0068,0.0340,0.0305,0.0218
780,0.0048,0.0186,0.0194,0.0031
781,0.0052,0.0294,0.0238,0.0082
782,0.0036,0.0318,0.0317,0.0057
783,0.0034,0.0332,0.0340,0.0050
784,0.0034,0.0195,0.0218,0.0077
785,0.0059,0.0213,0.0221,0.0036
786,0.0052,0.0195,0.0168,0.0023
787,0.0046,0.0200,0.0244,0.0036
788,0.0038,0.0242,0.0262,0.0043
789,0.0038,0.0241,0.0262,0.0056
790,0.0063,0.0404,0.0426,0.0137
791,0.0048,0.0186,0.0194,0.0031
792,0.0042,0.0243,0.0282,0.0085
793,0.0048,0.0286,0.0330,0.0109
794,0.0041,0.0262,0.0360,0.0118
795,0.0066,0.0425,0.0418,0.0182
796,0.0062,0.0388,0.0390,0.0229
797,0.0076,0.0298,0.0316,0.0157
798,0.0053,0.0241,0.0200,0.0021
799,0.0037,0.0209,0.0204,0.0024
800,0.0038,0.0146,0.0166,0.0050
801,0.0055,0.0208,0.0207,0.0038
802,0.0048,0.0186,0.0194,0.0031
803,0.0037,0.0209,0.0204,0.0024
804,0.0038,0.0146,0.0166,0.0050
805,0.0037,0.0209,0.0204,0.0024
806,0.0037,0.0209,0.0204,0.0024
807,0.0055,0.0208,0.0207,0.0038
808,0.0037,0.0209,0.0204,0.0024
809,0.0037,0.0209,0.0204,0.0024
810,0.0056,0.0154,0.0146,0.0030
811,0.0037,0.0209,0.0204,0.0024
812,0.0055,0.0208,0.0207,0.0038
813,0.0048,0.0186,0.0194,0.0031
814,0.0038,0.0146,0.0166,0.0050
815,0.0037,0.0209,0.0204,0.0024
816,0.0037,0.0209,0.0204,0.0024
817,0.0038,0.0146,0.0166,0.0050
818,0.0055,0.0208,0.0207,0.0038
819,0.0037,0.0209,0.0204,0.0024
820,0.0038,0.0146,0.0166,0.0050
821,0.0037,0.0209,0.0204,0.0024
822,0.0044,0.0186,0.0143,0.0034
823,0.0055,0.0208,0.0207,0.0038
824,0.0091,0.0202,0.0146,0.0037
825,0.0037,0.0209,0.0204,0.0024
826,0.0037,0.0209,0.0204,0.0024
827,0.0038,0.0146,0.0166,0.0050
828,0.0037,0.0209,0.0204,0.0024
829,0.0055,0.0208,0.0207,0.0038
830,0.0038,0.0146,0.0166,0.0050
831,0.0037,0.0209,0.0204,0.0024
832,0.0037,0.0209,0.0204,0.0024
833,0.0038,0.0146,0.0166,0.0050
834,0.0050,0.0200,0.0196,0.0055
835,0.0048,0.0186,0.0194,0.0031
836,0.0037,0.0209,0.0204,0.0024
837,0.0038,0.0146,0.0166,0.0050
838,0.0037,0.0209,0.0204,0.0024
839,0.0037,0.0209,0.0204,0.0024
840,0.0055,0.0208,0.0207,0.0038
841,0.0088,0.0276,0.0324,0.0073
842,0.0084,0.0251,0.0330,0.0044
843,0.0086,0.0305,0.0312,0.0105
844,0.0079,0.0283,0.0379,0.0048
845,0.0047,0.0196,0.0205,0.0035
846,0.0048,0.0186,0.0194,0.0031
847,0.0053,0.0178,0.0134,0.0034
848,0.0068,0.0253,0.0320,0.0047
849,0.0062,0.0230,0.0281,0.0042
850,0.0053,0.0192,0.0238,0.0067
851,0.0050,0.0251,0.0253,0.0040
852,0.0041,0.0181,0.0181,0.0024
853,0.0035,0.0146,0.0150,0.0037
854,0.0048,0.0183,0.0184,0.0027
855,0.0052,0.0195,0.0168,0.0023
856,0.0046,0.0196,0.0179,0.0037
857,0.0048,0.0186,0.0194,0.0031
858,0.0049,0.0230,0.0173,0.0025
859,0.0051,0.0193,0.0176,0.0037
860,0.0060,0.0204,0.0168,0.0028
861,0.0044,0.0182,0.0185,0.0040
862,0.0054,0.0287,0.0289,0.0086
863,0.0052,0.0169,0.0184,0.0040
864,0.0058,0.0235,0.0180,0.0051
865,0.0048,0.0279,0.0268,0.0187
866,0.0038,0.0291,0.0238,0.0228
867,0.0058,0.0248,0.0230,0.0115
868,0.0048,0.0186,0.0194,0.0031
869,0.0058,0.0248,0.0230,0.0115
870,0.0058,0.0248,0.0230,0.0115
871,0.0058,0.0248,0.0230,0.0115
872,0.0058,0.0248,0.0230,0.0115
873,0.0058,0.0248,0.0230,0.0115
874,0.0037,0.0146,0.0144,0.0020
875,0.0037,0.0146,0.0144,0.0020
876,0.0037,0.0086,0.0104,0.0043
877,0.0041,0.0160,0.0165,0.0023
878,0.0060,0.0229,0.0235,0.0033
879,0.0044,0.0243,0.0233,0.0038
880,0.0033,0.0113,0.0111,0.0024
881,0.0057,0.0159,0.0151,0.0022
882,0.0058,0.0246,0.0242,0.0021
883,0.0059,0.0102,0.0097,0.0027
884,0.0046,0.0160,0.0154,0.0039
885,0.0044,0.0131,0.0127,0.0030
886,0.0055,0.0158,0.0139,0.0028
887,0.0049,0.0177,0.0157,0.0026
888,0.0054,0.0198,0.0174,0.0048
889,0.0057,0.0259,0.0256,0.0033
890,0.0067,0.0260,0.0241,0.0174
891,0.0095,0.0317,0.0410,0.0070
892,0.0047,0.0261,0.0271,0.0171
893,0.0040,0.0218,0.0197,0.0109
894,0.0037,0.0225,0.0201,0.0106
895,0.0047,0.0180,0.0185,0.0090
896,0.0068,0.0198,0.0224,0.0065
897,0.0057,0.0253,0.0207,0.0056
898,0.0035,0.0235,0.0235,0.0042
899,0.0034,0.0239,0.0244,0.0038
900,0.0034,0.0152,0.0191,0.0055
901,0.0062,0.0157,0.0169,0.0034
902,0.0083,0.0327,0.0432,0.0067
903,0.0057,0.0159,0.0151,0.0022
904,0.0046,0.0127,0.0159,0.0038
905,0.0038,0.0201,0.0224,0.0034
906,0.0037,0.0206,0.0217,0.0042
907,0.0066,0.0301,0.0332,0.0101
908,0.0042,0.0194,0.0192,0.0058
909,0.0047,0.0196,0.0210,0.0072
910,0.0035,0.0195,0.0205,0.0065
911,0.0059,0.0248,0.0253,0.0119
912,0.0051,0.0326,0.0352,0.0207
913,0.0074,0.0345,0.0451,0.0072
914,0.0058,0.0194,0.0246,0.0101
915,0.0058,0.0246,0.0242,0.0021
916,0.0037,0.0146,0.0144,0.0020
917,0.0037,0.0086,0.0104,0.0043
918,0.0058,0.0145,0.0153,0.0034
919,0.0037,0.0146,0.0144,0.0020
920,0.0037,0.0086,0.0104,0.0043
921,0.0037,0.0146,0.0144,0.0020
922,0.0037,0.0146,0.0144,0.0020
923,0.0058,0.0145,0.0153,0.0034
924,0.0067,0.0352,0.0452,0.0073
925,0.0037,0.0146,0.0144,0.0020
926,0.0037,0.0146,0.0144,0.0020
927,0.0059,0.0102,0.0097,0.0027
928,0.0037,0.0146,0.0144,0.0020
929,0.0058,0.0145,0.0153,0.0034
930,0.0037,0.0086,0.0104,0.0043
931,0.0037,0.0146,0.0144,0.0020
932,0.0037,0.0146,0.0144,0.0020
933,0.0037,0.0086,0.0104,0.0043
934,0.0058,0.0145,0.0153,0.0034
935,0.0096,0.0208,0.0184,0.0033
936,0.0037,0.0146,0.0144,0.0020
937,0.0037,0.0086,0.0104,0.0043
938,0.0037,0.0146,0.0144,0.0020
939,0.0046,0.0155,0.0124,0.0027
940,0.0058,0.0145,0.0153,0.0034
941,0.0037,0.0146,0.0144,0.0020
942,0.0037,0.0146,0.0144,0.0020
943,0.0037,0.0086,0.0104,0.0043
944,0.0037,0.0146,0.0144,0.0020
945,0.0058,0.0145,0.0153,0.0034
946,0.0093,0.0201,0.0173,0.0050
947,0.0037,0.0086,0.0104,0.0043
948,0.0037,0.0146,0.0144,0.0020
949,0.0037,0.0146,0.0144,0.0020
950,0.0037,0.0086,0.0104,0.0043
951,0.0049,0.0179,0.0184,0.0067
952,0.0037,0.0146,0.0144,0.0020
953,0.0037,0.0086,0.0104,0.0043
954,0.0037,0.0146,0.0144,0.0020
955,0.0037,0.0146,0.0144,0.0020
956,0.0058,0.0145,0.0153,0.0034
957,0.0054,0.0331,0.0418,0.0063
958,0.0083,0.0223,0.0254,0.0048
959,0.0077,0.0170,0.0219,0.0039
960,0.0077,0.0297,0.0354,0.0086
961,0.0072,0.0188,0.0260,0.0048
962,0.0046,0.0160,0.0154,0.0039
963,0.0055,0.0158,0.0139,0.0028
964,0.0065,0.0156,0.0196,0.0046
965,0.0059,0.0132,0.0155,0.0043
966,0.0046,0.0145,0.0171,0.0052
967,0.0050,0.0187,0.0199,0.0035
968,0.0048,0.0320,0.0403,0.0055
969,0.0042,0.0114,0.0115,0.0023
970,0.0035,0.0089,0.0097,0.0032
971,0.0051,0.0109,0.0106,0.0024
972,0.0057,0.0159,0.0151,0.0022
973,0.0047,0.0148,0.0141,0.0037
974,0.0053,0.0216,0.0196,0.0022
975,0.0049,0.0177,0.0157,0.0026
976,0.0063,0.0197,0.0197,0.0026
977,0.0044,0.0131,0.0127,0.0030
978,0.0052,0.0224,0.0280,0.0099
979,0.0045,0.0307,0.0386,0.0046
980,0.0052,0.0134,0.0139,0.0029
981,0.0054,0.0198,0.0174,0.0048
982,0.0047,0.0261,0.0271,0.0171
983,0.0037,0.0266,0.0248,0.0143
984,0.0052,0.0211,0.0225,0.0102
985,0.0052,0.0211,0.0225,0.0102
986,0.0052,0.0211,0.0225,0.0102
987,0.0052,0.0211,0.0225,0.0102
988,0.0052,0.0211,0.0225,0.0102
989,0.0052,0.0211,0.0225,0.0102
990,0.0048,0.0225,0.0228,0.0036
991,0.0039,0.0142,0.0143,0.0019
992,0.0039,0.0142,0.0143,0.0019
993,0.0036,0.0068,0.0079,0.0033
994,0.0044,0.0147,0.0150,0.0020
995,0.0065,0.0167,0.0194,0.0032
996,0.0034,0.0119,0.0117,0.0022
997,0.0061,0.0100,0.0107,0.0022
998,0.0063,0.0175,0.0190,0.0021
999,0.0063,0.0061,0.0070,0.0029
1000,0.0049,0.0140,0.0133,0.0039
1001,0.0066,0.0316,0.0303,0.0119
1002,0.0045,0.0214,0.0250,0.0031
1003,0.0046,0.0108,0.0116,0.0025
1004,0.0056,0.0089,0.0093,0.0028
1005,0.0052,0.0180,0.0152,0.0029
1006,0.0058,0.0186,0.0161,0.0059
1007,0.0063,0.0199,0.0220,0.0034
1008,0.0050,0.0280,0.0291,0.0206
1009,0.0039,0.0174,0.0171,0.0094
1010,0.0037,0.0227,0.0198,0.0108
1011,0.0045,0.0129,0.0141,0.0057
1012,0.0067,0.0152,0.0197,0.0054
1013,0.0048,0.0190,0.0189,0.0036
1014,0.0061,0.0264,0.0217,0.0067
1015,0.0035,0.0223,0.0226,0.0043
1016,0.0034,0.0241,0.0250,0.0039
1017,0.0036,0.0166,0.0196,0.0033
1018,0.0066,0.0122,0.0146,0.0034
1019,0.0061,0.0100,0.0107,0.0022
1020,0.0047,0.0094,0.0127,0.0038
1021,0.0040,0.0201,0.0228,0.0038
1022,0.0039,0.0218,0.0232,0.0047
1023,0.0072,0.0252,0.0298,0.0062
1024,0.0048,0.0178,0.0171,0.0036
1025,0.0044,0.0241,0.0237,0.0058
1026,0.0049,0.0224,0.0234,0.0058
1027,0.0034,0.0248,0.0207,0.0085
1028,0.0058,0.0145,0.0210,0.0077
1029,0.0057,0.0329,0.0357,0.0229
1030,0.0051,0.0214,0.0292,0.0130
1031,0.0063,0.0175,0.0190,0.0021
1032,0.0039,0.0142,0.0143,0.0019
1033,0.0036,0.0068,0.0079,0.0033
1034,0.0063,0.0094,0.0118,0.0032
1035,0.0048,0.0246,0.0225,0.0032
1036,0.0039,0.0142,0.0143,0.0019
1037,0.0036,0.0068,0.0079,0.0033
1038,0.0039,0.0142,0.0143,0.0019
1039,0.0039,0.0142,0.0143,0.0019
1040,0.0063,0.0094,0.0118,0.0032
1041,0.0039,0.0142,0.0143,0.0019
1042,0.0039,0.0142,0.0143,0.0019
1043,0.0063,0.0061,0.0070,0.0029
1044,0.0039,0.0142,0.0143,0.0019
1045,0.0063,0.0094,0.0118,0.0032
1046,0.0080,0.0233,0.0192,0.0030
1047,0.0036,0.0068,0.0079,0.0033
1048,0.0039,0.0142,0.0143,0.0019
1049,0.0039,0.0142,0.0143,0.0019
1050,0.0036,0.0068,0.0079,0.0033
1051,0.0063,0.0094,0.0118,0.0032
1052,0.0039,0.0142,0.0143,0.0019
1053,0.0036,0.0068,0.0079,0.0033
1054,0.0039,0.0142,0.0143,0.0019
1055,0.0049,0.0093,0.0087,0.0023
1056,0.0063,0.0094,0.0118,0.0032
1057,0.0058,0.0298,0.0246,0.0031
1058,0.0039,0.0142,0.0143,0.0019
1059,0.0039,0.0142,0.0143,0.0019
1060,0.0036,0.0068,0.0079,0.0033
1061,0.0039,0.0142,0.0143,0.0019
1062,0.0063,0.0094,0.0118,0.0032
1063,0.0036,0.0068,0.0079,0.0033
1064,0.0039,0.0142,0.0143,0.0019
1065,0.0039,0.0142,0.0143,0.0019
1066,0.0036,0.0068,0.0079,0.0033
1067,0.0050,0.0161,0.0168,0.0072
1068,0.0094,0.0205,0.0156,0.0048
1069,0.0039,0.0142,0.0143,0.0019
1070,0.0036,0.0068,0.0079,0.0033
1071,0.0039,0.0142,0.0143,0.0019
1072,0.0039,0.0142,0.0143,0.0019
1073,0.0063,0.0094,0.0118,0.0032
1074,0.0080,0.0209,0.0285,0.0039
1075,0.0073,0.0150,0.0248,0.0039
1076,0.0072,0.0324,0.0440,0.0077
1077,0.0068,0.0181,0.0290,0.0045
1078,0.0049,0.0140,0.0133,0.0039
1079,0.0070,0.0235,0.0173,0.0039
1080,0.0056,0.0089,0.0093,0.0028
1081,0.0063,0.0135,0.0197,0.0043
1082,0.0059,0.0100,0.0135,0.0041
1083,0.0041,0.0178,0.0225,0.0037
1084,0.0052,0.0163,0.0180,0.0036
1085,0.0043,0.0104,0.0106,0.0024
1086,0.0035,0.0088,0.0093,0.0026
1087,0.0056,0.0077,0.0076,0.0022
1088,0.0061,0.0100,0.0107,0.0022
1089,0.0051,0.0103,0.0118,0.0038
1090,0.0083,0.0193,0.0155,0.0046
1091,0.0058,0.0155,0.0158,0.0020
1092,0.0052,0.0180,0.0152,0.0029
1093,0.0067,0.0116,0.0129,0.0028
1094,0.0046,0.0108,0.0116,0.0025
1095,0.0053,0.0205,0.0278,0.0110
1096,0.0052,0.0130,0.0146,0.0026
1097,0.0058,0.0186,0.0161,0.0059
1098,0.0050,0.0280,0.0291,0.0206
1099,0.0038,0.0220,0.0210,0.0121
1100,0.0050,0.0205,0.0234,0.0110
1101,0.0080,0.0306,0.0270,0.0055
1102,0.0050,0.0205,0.0234,0.0110
1103,0.0050,0.0205,0.0234,0.0110
1104,0.0050,0.0205,0.0234,0.0110
1105,0.0050,0.0205,0.0234,0.0110
1106,0.0050,0.0205,0.0234,0.0110
1107,0.0039,0.0158,0.0160,0.0019
1108,0.0039,0.0158,0.0160,0.0019
1109,0.0036,0.0082,0.0092,0.0030
1110,0.0046,0.0140,0.0140,0.0020
1111,0.0067,0.0109,0.0140,0.0033
1112,0.0048,0.0226,0.0230,0.0034
1113,0.0057,0.0280,0.0255,0.0091
1114,0.0094,0.0205,0.0156,0.0048
1115,0.0034,0.0147,0.0148,0.0023
1116,0.0063,0.0066,0.0071,0.0022
1117,0.0065,0.0119,0.0135,0.0021
1118,0.0064,0.0071,0.0079,0.0031
1119,0.0051,0.0134,0.0127,0.0039
1120,0.0048,0.0113,0.0123,0.0023
1121,0.0057,0.0069,0.0077,0.0031
1122,0.0054,0.0187,0.0154,0.0031
1123,0.0060,0.0196,0.0158,0.0065
1124,0.0066,0.0167,0.0196,0.0035
1125,0.0088,0.0268,0.0210,0.0047
1126,0.0051,0.0305,0.0312,0.0233
1127,0.0039,0.0158,0.0157,0.0108
1128,0.0038,0.0247,0.0203,0.0134
1129,0.0045,0.0115,0.0123,0.0058
1130,0.0067,0.0145,0.0196,0.0055
1131,0.0063,0.0270,0.0221,0.0081
1132,0.0035,0.0238,0.0243,0.0049
1133,0.0034,0.0257,0.0268,0.0045
1134,0.0036,0.0177,0.0203,0.0031
1135,0.0068,0.0119,0.0143,0.0034
1136,0.0055,0.0303,0.0271,0.0176
1137,0.0063,0.0066,0.0071,0.0022
1138,0.0048,0.0100,0.0134,0.0038
1139,0.0042,0.0213,0.0241,0.0044
1140,0.0041,0.0237,0.0254,0.0056
1141,0.0074,0.0229,0.0280,0.0047
1142,0.0046,0.0272,0.0273,0.0069
1143,0.0050,0.0266,0.0282,0.0068
1144,0.0034,0.0294,0.0257,0.0106
1145,0.0059,0.0154,0.0240,0.0073
1146,0.0060,0.0345,0.0371,0.0244
1147,0.0060,0.0323,0.0272,0.0191
1148,0.0049,0.0268,0.0350,0.0162
1149,0.0065,0.0119,0.0135,0.0021
1150,0.0039,0.0158,0.0160,0.0019
1151,0.0036,0.0082,0.0092,0.0030
1152,0.0065,0.0075,0.0101,0.0032
1153,0.0039,0.0158,0.0160,0.0019
1154,0.0036,0.0082,0.0092,0.0030
1155,0.0039,0.0158,0.0160,0.0019
1156,0.0039,0.0158,0.0160,0.0019
1157,0.0065,0.0075,0.0101,0.0032
1158,0.0049,0.0253,0.0207,0.0121
1159,0.0039,0.0158,0.0160,0.0019
1160,0.0039,0.0158,0.0160,0.0019
1161,0.0064,0.0071,0.0079,0.0031
1162,0.0039,0.0158,0.0160,0.0019
1163,0.0065,0.0075,0.0101,0.0032
1164,0.0036,0.0082,0.0092,0.0030
1165,0.0039,0.0158,0.0160,0.0019
1166,0.0039,0.0158,0.0160,0.0019
1167,0.0036,0.0082,0.0092,0.0030
1168,0.0065,0.0075,0.0101,0.0032
1169,0.0049,0.0253,0.0207,0.0121
1170,0.0039,0.0158,0.0160,0.0019
1171,0.0036,0.0082,0.0092,0.0030
1172,0.0039,0.0158,0.0160,0.0019
1173,0.0051,0.0065,0.0068,0.0021
1174,0.0065,0.0075,0.0101,0.0032
1175,0.0039,0.0158,0.0160,0.0019
1176,0.0039,0.0158,0.0160,0.0019
1177,0.0036,0.0082,0.0092,0.0030
1178,0.0039,0.0158,0.0160,0.0019
1179,0.0065,0.0075,0.0101,0.0032
1180,0.0049,0.0253,0.0207,0.0121
1181,0.0036,0.0082,0.0092,0.0030
1182,0.0039,0.0158,0.0160,0.0019
1183,0.0039,0.0158,0.0160,0.0019
1184,0.0036,0.0082,0.0092,0.0030
1185,0.0053,0.0158,0.0164,0.0073
1186,0.0039,0.0158,0.0160,0.0019
1187,0.0036,0.0082,0.0092,0.0030
1188,0.0039,0.0158,0.0160,0.0019
1189,0.0039,0.0158,0.0160,0.0019
1190,0.0065,0.0075,0.0101,0.0032
1191,0.0049,0.0253,0.0207,0.0121
1192,0.0079,0.0214,0.0320,0.0038
1193,0.0071,0.0168,0.0298,0.0039
1194,0.0070,0.0343,0.0485,0.0076
1195,0.0067,0.0214,0.0346,0.0043
1196,0.0051,0.0134,0.0127,0.0039
1197,0.0057,0.0069,0.0077,0.0031
1198,0.0062,0.0160,0.0238,0.0041
1199,0.0059,0.0109,0.0154,0.0040
1200,0.0041,0.0213,0.0276,0.0030
1201,0.0054,0.0166,0.0182,0.0038
1202,0.0049,0.0253,0.0207,0.0121
1203,0.0044,0.0113,0.0117,0.0025
1204,0.0035,0.0096,0.0100,0.0025
1205,0.0059,0.0090,0.0091,0.0022
1206,0.0063,0.0066,0.0071,0.0022
1207,0.0053,0.0084,0.0108,0.0039
1208,0.0060,0.0117,0.0126,0.0020
1209,0.0054,0.0187,0.0154,0.0031
1210,0.0068,0.0067,0.0077,0.0031
1211,0.0048,0.0113,0.0123,0.0023
1212,0.0054,0.0202,0.0272,0.0114
1213,0.0049,0.0253,0.0207,0.0121
1214,0.0052,0.0158,0.0174,0.0029
1215,0.0060,0.0196,0.0158,0.0065
1216,0.0051,0.0305,0.0312,0.0233
1217,0.0038,0.0216,0.0195,0.0144
1218,0.0050,0.0221,0.0255,0.0120
1219,0.0050,0.0221,0.0255,0.0120
1220,0.0050,0.0221,0.0255,0.0120
1221,0.0050,0.0221,0.0255,0.0120
1222,0.0050,0.0221,0.0255,0.0120
1223,0.0050,0.0221,0.0255,0.0120
1224,0.0053,0.0312,0.0298,0.0074
1225,0.0047,0.0120,0.0134,0.0029
1226,0.0047,0.0120,0.0134,0.0029
1227,0.0047,0.0120,0.0134,0.0029
1228,0.0046,0.0120,0.0127,0.0032
1229,0.0047,0.0268,0.0275,0.0030
1230,0.0045,0.0123,0.0132,0.0034
1231,0.0048,0.0211,0.0220,0.0032
1232,0.0052,0.0294,0.0301,0.0029
1233,0.0058,0.0277,0.0267,0.0029
1234,0.0094,0.0176,0.0165,0.0036
1235,0.0051,0.0303,0.0295,0.0062
1236,0.0082,0.0149,0.0138,0.0037
1237,0.0092,0.0148,0.0152,0.0038
1238,0.0093,0.0153,0.0149,0.0035
1239,0.0087,0.0179,0.0182,0.0036
1240,0.0054,0.0295,0.0293,0.0028
1241,0.0058,0.0279,0.0276,0.0136
1242,0.0059,0.0268,0.0247,0.0117
1243,0.0065,0.0299,0.0304,0.0130
1244,0.0065,0.0239,0.0255,0.0113
1245,0.0063,0.0264,0.0295,0.0080
1246,0.0049,0.0273,0.0269,0.0051
1247,0.0058,0.0189,0.0197,0.0061
1248,0.0056,0.0199,0.0203,0.0048
1249,0.0054,0.0189,0.0195,0.0041
1250,0.0050,0.0168,0.0180,0.0036
1251,0.0040,0.0189,0.0201,0.0033
1252,0.0048,0.0211,0.0220,0.0032
1253,0.0049,0.0160,0.0199,0.0030
1254,0.0052,0.0199,0.0247,0.0035
1255,0.0058,0.0213,0.0259,0.0041
1256,0.0067,0.0284,0.0312,0.0103
1257,0.0042,0.0266,0.0260,0.0035
1258,0.0062,0.0220,0.0268,0.0060
1259,0.0060,0.0229,0.0270,0.0080
1260,0.0057,0.0276,0.0289,0.0115
1261,0.0055,0.0344,0.0306,0.0158
1262,0.0078,0.0284,0.0243,0.0179
1263,0.0053,0.0368,0.0231,0.0172
1264,0.0052,0.0294,0.0301,0.0029
1265,0.0047,0.0120,0.0134,0.0029
1266,0.0047,0.0120,0.0134,0.0029
1267,0.0042,0.0187,0.0193,0.0032
1268,0.0048,0.0259,0.0231,0.0032
1269,0.0047,0.0120,0.0134,0.0029
1270,0.0047,0.0120,0.0134,0.0029
1271,0.0047,0.0120,0.0134,0.0029
1272,0.0047,0.0120,0.0134,0.0029
1273,0.0042,0.0187,0.0193,0.0032
1274,0.0047,0.0120,0.0134,0.0029
1275,0.0047,0.0120,0.0134,0.0029
1276,0.0058,0.0277,0.0267,0.0029
1277,0.0047,0.0120,0.0134,0.0029
1278,0.0042,0.0187,0.0193,0.0032
1279,0.0051,0.0263,0.0298,0.0041
1280,0.0047,0.0120,0.0134,0.0029
1281,0.0047,0.0120,0.0134,0.0029
1282,0.0047,0.0120,0.0134,0.0029
1283,0.0047,0.0120,0.0134,0.0029
1284,0.0042,0.0187,0.0193,0.0032
1285,0.0047,0.0120,0.0134,0.0029
1286,0.0047,0.0120,0.0134,0.0029
1287,0.0047,0.0120,0.0134,0.0029
1288,0.0069,0.0207,0.0185,0.0032
1289,0.0042,0.0187,0.0193,0.0032
1290,0.0055,0.0301,0.0359,0.0055
1291,0.0047,0.0120,0.0134,0.0029
1292,0.0047,0.0120,0.0134,0.0029
1293,0.0047,0.0120,0.0134,0.0029
1294,0.0047,0.0120,0.0134,0.0029
1295,0.0042,0.0187,0.0193,0.0032
1296,0.0047,0.0120,0.0134,0.0029
1297,0.0047,0.0120,0.0134,0.0029
1298,0.0047,0.0120,0.0134,0.0029
1299,0.0047,0.0120,0.0134,0.0029
1300,0.0090,0.0167,0.0153,0.0050
1301,0.0060,0.0318,0.0395,0.0073
1302,0.0047,0.0120,0.0134,0.0029
1303,0.0047,0.0120,0.0134,0.0029
1304,0.0047,0.0120,0.0134,0.0029
1305,0.0047,0.0120,0.0134,0.0029
1306,0.0042,0.0187,0.0193,0.0032
1307,0.0093,0.0234,0.0275,0.0062
1308,0.0079,0.0212,0.0259,0.0067
1309,0.0070,0.0220,0.0272,0.0071
1310,0.0063,0.0220,0.0265,0.0070
1311,0.0094,0.0176,0.0165,0.0036
1312,0.0068,0.0488,0.0512,0.0160
1313,0.0092,0.0148,0.0152,0.0038
1314,0.0052,0.0200,0.0236,0.0060
1315,0.0048,0.0203,0.0248,0.0053
1316,0.0045,0.0206,0.0259,0.0046
1317,0.0045,0.0158,0.0163,0.0029
1318,0.0044,0.0147,0.0184,0.0031
1319,0.0046,0.0120,0.0127,0.0032
1320,0.0045,0.0123,0.0132,0.0034
1321,0.0048,0.0211,0.0220,0.0032
1322,0.0079,0.0186,0.0170,0.0030
1323,0.0049,0.0247,0.0244,0.0039
1324,0.0062,0.0362,0.0460,0.0116
1325,0.0058,0.0277,0.0267,0.0029
1326,0.0093,0.0153,0.0149,0.0035
1327,0.0069,0.0207,0.0185,0.0032
1328,0.0082,0.0149,0.0138,0.0037
1329,0.0081,0.0211,0.0252,0.0071
1330,0.0093,0.0153,0.0149,0.0035
1331,0.0087,0.0179,0.0182,0.0036
1332,0.0058,0.0279,0.0276,0.0136
1333,0.0059,0.0268,0.0247,0.0117
1334,0.0048,0.0196,0.0180,0.0093
1335,0.0060,0.0421,0.0505,0.0150
1336,0.0048,0.0196,0.0180,0.0093
1337,0.0048,0.0196,0.0180,0.0093
1338,0.0048,0.0196,0.0180,0.0093
1339,0.0048,0.0196,0.0180,0.0093
1340,0.0048,0.0196,0.0180,0.0093
1341,0.0046,0.0085,0.0096,0.0028
1342,0.0046,0.0085,0.0096,0.0028
1343,0.0046,0.0085,0.0096,0.0028
1344,0.0044,0.0093,0.0100,0.0031
1345,0.0049,0.0191,0.0214,0.0028
1346,0.0059,0.0526,0.0569,0.0203
1347,0.0046,0.0070,0.0090,0.0033
1348,0.0050,0.0130,0.0153,0.0032
1349,0.0054,0.0209,0.0233,0.0029
1350,0.0059,0.0193,0.0204,0.0027
1351,0.0093,0.0155,0.0150,0.0035
1352,0.0082,0.0095,0.0115,0.0032
1353,0.0091,0.0126,0.0143,0.0033
1354,0.0093,0.0133,0.0135,0.0034
1355,0.0087,0.0136,0.0151,0.0046
1356,0.0056,0.0222,0.0240,0.0028
1357,0.0061,0.0614,0.0596,0.0256
1358,0.0062,0.0294,0.0296,0.0171
1359,0.0060,0.0218,0.0216,0.0088
1360,0.0065,0.0234,0.0252,0.0085
1361,0.0065,0.0185,0.0207,0.0077
1362,0.0063,0.0186,0.0233,0.0057
1363,0.0058,0.0187,0.0198,0.0051
1364,0.0056,0.0193,0.0202,0.0043
1365,0.0053,0.0198,0.0206,0.0040
1366,0.0049,0.0175,0.0186,0.0036
1367,0.0042,0.0132,0.0155,0.0033
1368,0.0079,0.0472,0.0409,0.0259
1369,0.0050,0.0130,0.0153,0.0032
1370,0.0047,0.0126,0.0164,0.0032
1371,0.0050,0.0179,0.0224,0.0037
1372,0.0055,0.0201,0.0241,0.0043
1373,0.0069,0.0223,0.0268,0.0061
1374,0.0061,0.0232,0.0263,0.0051
1375,0.0060,0.0214,0.0246,0.0055
1376,0.0057,0.0204,0.0228,0.0074
1377,0.0055,0.0217,0.0199,0.0113
1378,0.0087,0.0273,0.0232,0.0201
1379,0.0062,0.0584,0.0431,0.0281
1380,0.0054,0.0281,0.0169,0.0165
1381,0.0054,0.0209,0.0233,0.0029
1382,0.0046,0.0085,0.0096,0.0028
1383,0.0046,0.0085,0.0096,0.0028
1384,0.0043,0.0124,0.0141,0.0028
1385,0.0046,0.0085,0.0096,0.0028
1386,0.0046,0.0085,0.0096,0.0028
1387,0.0046,0.0085,0.0096,0.0028
1388,0.0046,0.0085,0.0096,0.0028
1389,0.0043,0.0124,0.0141,0.0028
1390,0.0051,0.0310,0.0261,0.0029
1391,0.0046,0.0085,0.0096,0.0028
1392,0.0046,0.0085,0.0096,0.0028
1393,0.0059,0.0193,0.0204,0.0027
1394,0.0046,0.0085,0.0096,0.0028
1395,0.0043,0.0124,0.0141,0.0028
1396,0.0046,0.0085,0.0096,0.0028
1397,0.0046,0.0085,0.0096,0.0028
1398,0.0046,0.0085,0.0096,0.0028
1399,0.0046,0.0085,0.0096,0.0028
1400,0.0043,0.0124,0.0141,0.0028
1401,0.0048,0.0226,0.0230,0.0034
1402,0.0046,0.0085,0.0096,0.0028
1403,0.0046,0.0085,0.0096,0.0028
1404,0.0046,0.0085,0.0096,0.0028
1405,0.0069,0.0122,0.0127,0.0028
1406,0.0043,0.0124,0.0141,0.0028
1407,0.0046,0.0085,0.0096,0.0028
1408,0.0046,0.0085,0.0096,0.0028
1409,0.0046,0.0085,0.0096,0.0028
1410,0.0046,0.0085,0.0096,0.0028
1411,0.0043,0.0124,0.0141,0.0028
1412,0.0048,0.0226,0.0230,0.0034
1413,0.0046,0.0085,0.0096,0.0028
1414,0.0046,0.0085,0.0096,0.0028
1415,0.0046,0.0085,0.0096,0.0028
1416,0.0046,0.0085,0.0096,0.0028
1417,0.0088,0.0136,0.0138,0.0056
1418,0.0046,0.0085,0.0096,0.0028
1419,0.0046,0.0085,0.0096,0.0028
1420,0.0046,0.0085,0.0096,0.0028
1421,0.0046,0.0085,0.0096,0.0028
1422,0.0043,0.0124,0.0141,0.0028
1423,0.0045,0.0273,0.0261,0.0039
1424,0.0092,0.0193,0.0260,0.0060
1425,0.0077,0.0154,0.0230,0.0066
1426,0.0068,0.0170,0.0248,0.0069
1427,0.0061,0.0167,0.0229,0.0067
1428,0.0093,0.0155,0.0150,0.0035
1429,0.0091,0.0126,0.0143,0.0033
1430,0.0052,0.0102,0.0120,0.0056
1431,0.0048,0.0105,0.0131,0.0051
1432,0.0045,0.0113,0.0150,0.0045
1433,0.0042,0.0120,0.0124,0.0029
1434,0.0048,0.0315,0.0284,0.0035
1435,0.0048,0.0226,0.0230,0.0034
1436,0.0044,0.0078,0.0109,0.0031
1437,0.0044,0.0093,0.0100,0.0031
1438,0.0046,0.0070,0.0090,0.0033
1439,0.0050,0.0130,0.0153,0.0032
1440,0.0078,0.0137,0.0145,0.0032
1441,0.0059,0.0193,0.0204,0.0027
1442,0.0093,0.0133,0.0135,0.0034
1443,0.0069,0.0122,0.0127,0.0028
1444,0.0082,0.0095,0.0115,0.0032
1445,0.0078,0.0173,0.0243,0.0084
1446,0.0048,0.0226,0.0230,0.0034
1447,0.0093,0.0133,0.0135,0.0034
1448,0.0087,0.0136,0.0151,0.0046
1449,0.0062,0.0294,0.0296,0.0171
1450,0.0060,0.0218,0.0216,0.0088
1451,0.0050,0.0153,0.0161,0.0088
1452,0.0050,0.0153,0.0161,0.0088
1453,0.0050,0.0153,0.0161,0.0088
1454,0.0050,0.0153,0.0161,0.0088
1455,0.0050,0.0153,0.0161,0.0088
1456,0.0050,0.0153,0.0161,0.0088
1457,0.0048,0.0226,0.0230,0.0034
1458,0.0045,0.0091,0.0095,0.0028
1459,0.0045,0.0091,0.0095,0.0028
1460,0.0045,0.0091,0.0095,0.0028
1461,0.0044,0.0090,0.0096,0.0030
1462,0.0050,0.0126,0.0148,0.0028
1463,0.0047,0.0064,0.0082,0.0032
1464,0.0051,0.0081,0.0106,0.0032
1465,0.0055,0.0140,0.0163,0.0029
1466,0.0060,0.0139,0.0154,0.0027
1467,0.0092,0.0149,0.0146,0.0035
1468,0.0048,0.0226,0.0230,0.0034
1469,0.0082,0.0091,0.0115,0.0030
1470,0.0091,0.0127,0.0145,0.0031
1471,0.0093,0.0133,0.0132,0.0036
1472,0.0087,0.0132,0.0138,0.0051
1473,0.0058,0.0176,0.0200,0.0029
1474,0.0063,0.0317,0.0318,0.0203
1475,0.0060,0.0196,0.0196,0.0100
1476,0.0065,0.0195,0.0213,0.0079
1477,0.0065,0.0168,0.0187,0.0073
1478,0.0063,0.0150,0.0207,0.0054
1479,0.0045,0.0273,0.0261,0.0039
1480,0.0058,0.0198,0.0208,0.0055
1481,0.0055,0.0214,0.0221,0.0050
1482,0.0052,0.0214,0.0222,0.0045
1483,0.0048,0.0183,0.0192,0.0039
1484,0.0043,0.0116,0.0140,0.0033
1485,0.0051,0.0081,0.0106,0.0032
1486,0.0047,0.0135,0.0169,0.0034
1487,0.0049,0.0180,0.0222,0.0043
1488,0.0054,0.0212,0.0248,0.0052
1489,0.0070,0.0190,0.0241,0.0041
1490,0.0048,0.0226,0.0230,0.0034
1491,0.0060,0.0254,0.0283,0.0062
1492,0.0060,0.0240,0.0271,0.0061
1493,0.0058,0.0220,0.0253,0.0071
1494,0.0056,0.0195,0.0202,0.0103
1495,0.0091,0.0286,0.0243,0.0218
1496,0.0054,0.0261,0.0181,0.0177
1497,0.0055,0.0140,0.0163,0.0029
1498,0.0045,0.0091,0.0095,0.0028
1499,0.0045,0.0091,0.0095,0.0028
1500,0.0044,0.0093,0.0109,0.0028
1501,0.0048,0.0226,0.0230,0.0034
1502,0.0045,0.0091,0.0095,0.0028
1503,0.0045,0.0091,0.0095,0.0028
1504,0.0045,0.0091,0.0095,0.0028
1505,0.0045,0.0091,0.0095,0.0028
1506,0.0044,0.0093,0.0109,0.0028
1507,0.0045,0.0091,0.0095,0.0028
1508,0.0045,0.0091,0.0095,0.0028
1509,0.0060,0.0139,0.0154,0.0027
1510,0.0045,0.0091,0.0095,0.0028
1511,0.0044,0.0093,0.0109,0.0028
1512,0.0058,0.0303,0.0233,0.0033
1513,0.0045,0.0091,0.0095,0.0028
1514,0.0045,0.0091,0.0095,0.0028
1515,0.0045,0.0091,0.0095,0.0028
1516,0.0045,0.0091,0.0095,0.0028
1517,0.0044,0.0093,0.0109,0.0028
1518,0.0045,0.0091,0.0095,0.0028
1519,0.0045,0.0091,0.0095,0.0028
1520,0.0045,0.0091,0.0095,0.0028
1521,0.0069,0.0073,0.0088,0.0027
1522,0.0044,0.0093,0.0109,0.0028
1523,0.0048,0.0226,0.0230,0.0034
1524,0.0045,0.0091,0.0095,0.0028
1525,0.0045,0.0091,0.0095,0.0028
1526,0.0045,0.0091,0.0095,0.0028
1527,0.0045,0.0091,0.0095,0.0028
1528,0.0044,0.0093,0.0109,0.0028
1529,0.0045,0.0091,0.0095,0.0028
1530,0.0045,0.0091,0.0095,0.0028
1531,0.0045,0.0091,0.0095,0.0028
1532,0.0045,0.0091,0.0095,0.0028
1533,0.0087,0.0126,0.0124,0.0057
1534,0.0045,0.0273,0.0261,0.0039
1535,0.0045,0.0091,0.0095,0.0028
1536,0.0045,0.0091,0.0095,0.0028
1537,0.0045,0.0091,0.0095,0.0028
1538,0.0045,0.0091,0.0095,0.0028
1539,0.0044,0.0093,0.0109,0.0028
1540,0.0092,0.0191,0.0290,0.0060
1541,0.0077,0.0164,0.0276,0.0066
1542,0.0067,0.0187,0.0294,0.0067
1543,0.0061,0.0184,0.0272,0.0065
1544,0.0092,0.0149,0.0146,0.0035
1545,0.0049,0.0223,0.0217,0.0037
1546,0.0048,0.0226,0.0230,0.0034
1547,0.0091,0.0127,0.0145,0.0031
1548,0.0052,0.0088,0.0118,0.0055
1549,0.0048,0.0073,0.0098,0.0050
1550,0.0045,0.0082,0.0119,0.0045
1551,0.0042,0.0118,0.0119,0.0031
1552,0.0044,0.0063,0.0090,0.0031
1553,0.0044,0.0090,0.0096,0.0030
1554,0.0047,0.0064,0.0082,0.0032
1555,0.0051,0.0081,0.0106,0.0032
1556,0.0078,0.0119,0.0135,0.0033
1557,0.0048,0.0226,0.0230,0.0034
1558,0.0060,0.0139,0.0154,0.0027
1559,0.0093,0.0133,0.0132,0.0036
1560,0.0069,0.0073,0.0088,0.0027
1561,0.0082,0.0091,0.0115,0.0030
1562,0.0077,0.0165,0.0226,0.0088
1563,0.0093,0.0133,0.0132,0.0036
1564,0.0087,0.0132,0.0138,0.0051
1565,0.0063,0.0317,0.0318,0.0203
1566,0.0060,0.0196,0.0196,0.0100
1567,0.0050,0.0156,0.0173,0.0097
1568,0.0048,0.0226,0.0230,0.0034
1569,0.0050,0.0156,0.0173,0.0097
1570,0.0050,0.0156,0.0173,0.0097
1571,0.0050,0.0156,0.0173,0.0097
1572,0.0050,0.0156,0.0173,0.0097
1573,0.0050,0.0156,0.0173,0.0097
1574,0.0039,0.0228,0.0208,0.0034
1575,0.0039,0.0228,0.0208,0.0034
1576,0.0040,0.0195,0.0259,0.0046
1577,0.0041,0.0291,0.0287,0.0039
1578,0.0038,0.0231,0.0201,0.0032
1579,0.0048,0.0226,0.0230,0.0034
1580,0.0047,0.0192,0.0184,0.0036
1581,0.0037,0.0196,0.0175,0.0028
1582,0.0037,0.0218,0.0167,0.0024
1583,0.0049,0.0180,0.0184,0.0041
1584,0.0054,0.0197,0.0159,0.0032
1585,0.0052,0.0183,0.0168,0.0046
1586,0.0055,0.0212,0.0157,0.0041
1587,0.0055,0.0247,0.0152,0.0049
1588,0.0053,0.0374,0.0267,0.0065
1589,0.0039,0.0235,0.0187,0.0031
1590,0.0045,0.0273,0.0261,0.0039
1591,0.0048,0.0307,0.0279,0.0221
1592,0.0038,0.0264,0.0206,0.0187
1593,0.0050,0.0369,0.0329,0.0176
1594,0.0039,0.0202,0.0174,0.0121
1595,0.0045,0.0264,0.0261,0.0090
1596,0.0076,0.0373,0.0292,0.0084
1597,0.0041,0.0358,0.0322,0.0075
1598,0.0041,0.0355,0.0331,0.0068
1599,0.0060,0.0187,0.0225,0.0071
1600,0.0039,0.0250,0.0251,0.0037
1601,0.0048,0.0226,0.0230,0.0034
1602,0.0037,0.0196,0.0175,0.0028
1603,0.0036,0.0257,0.0335,0.0035
1604,0.0046,0.0268,0.0278,0.0047
1605,0.0048,0.0267,0.0277,0.0060
1606,0.0047,0.0379,0.0394,0.0123
1607,0.0044,0.0264,0.0294,0.0086
1608,0.0038,0.0297,0.0345,0.0109
1609,0.0052,0.0294,0.0383,0.0129
1610,0.0041,0.0455,0.0454,0.0191
1611,0.0081,0.0394,0.0380,0.0265
1612,0.0048,0.0226,0.0230,0.0034
1613,0.0061,0.0317,0.0323,0.0180
1614,0.0037,0.0218,0.0167,0.0024
1615,0.0039,0.0228,0.0208,0.0034
1616,0.0040,0.0195,0.0259,0.0046
1617,0.0041,0.0232,0.0223,0.0035
1618,0.0039,0.0228,0.0208,0.0034
1619,0.0040,0.0195,0.0259,0.0046
1620,0.0039,0.0228,0.0208,0.0034
1621,0.0039,0.0228,0.0208,0.0034
1622,0.0041,0.0232,0.0223,0.0035
1623,0.0048,0.0226,0.0230,0.0034
1624,0.0039,0.0228,0.0208,0.0034
1625,0.0039,0.0228,0.0208,0.0034
1626,0.0049,0.0180,0.0184,0.0041
1627,0.0039,0.0228,0.0208,0.0034
1628,0.0041,0.0232,0.0223,0.0035
1629,0.0040,0.0195,0.0259,0.0046
1630,0.0039,0.0228,0.0208,0.0034
1631,0.0039,0.0228,0.0208,0.0034
1632,0.0040,0.0195,0.0259,0.0046
1633,0.0041,0.0232,0.0223,0.0035
1634,0.0070,0.0256,0.0185,0.0044
1635,0.0039,0.0228,0.0208,0.0034
1636,0.0040,0.0195,0.0259,0.0046
1637,0.0039,0.0228,0.0208,0.0034
1638,0.0045,0.0191,0.0137,0.0038
1639,0.0041,0.0232,0.0223,0.0035
1640,0.0039,0.0228,0.0208,0.0034
1641,0.0039,0.0228,0.0208,0.0034
1642,0.0040,0.0195,0.0259,0.0046
1643,0.0039,0.0228,0.0208,0.0034
1644,0.0041,0.0232,0.0223,0.0035
1645,0.0045,0.0273,0.0261,0.0039
1646,0.0040,0.0195,0.0259,0.0046
1647,0.0039,0.0228,0.0208,0.0034
1648,0.0039,0.0228,0.0208,0.0034
1649,0.0040,0.0195,0.0259,0.0046
1650,0.0049,0.0245,0.0146,0.0044
1651,0.0039,0.0228,0.0208,0.0034
1652,0.0040,0.0195,0.0259,0.0046
1653,0.0039,0.0228,0.0208,0.0034
1654,0.0039,0.0228,0.0208,0.0034
1655,0.0041,0.0232,0.0223,0.0035
1656,0.0048,0.0259,0.0231,0.0032
1657,0.0048,0.0226,0.0230,0.0034
1658,0.0089,0.0255,0.0332,0.0069
1659,0.0079,0.0266,0.0376,0.0048
1660,0.0094,0.0273,0.0286,0.0089
1661,0.0061,0.0310,0.0420,0.0052
1662,0.0054,0.0197,0.0159,0.0032
1663,0.0055,0.0212,0.0157,0.0041
1664,0.0044,0.0299,0.0388,0.0048
1665,0.0037,0.0282,0.0362,0.0042
1666,0.0047,0.0220,0.0302,0.0074
1667,0.0047,0.0287,0.0268,0.0041
1668,0.0048,0.0226,0.0230,0.0034
1669,0.0034,0.0191,0.0193,0.0028
1670,0.0043,0.0169,0.0201,0.0035
1671,0.0040,0.0243,0.0245,0.0035
1672,0.0037,0.0196,0.0175,0.0028
1673,0.0051,0.0203,0.0194,0.0036
1674,0.0040,0.0215,0.0147,0.0029
1675,0.0055,0.0247,0.0152,0.0049
1676,0.0050,0.0204,0.0175,0.0033
1677,0.0052,0.0183,0.0168,0.0046
1678,0.0045,0.0396,0.0306,0.0072
1679,0.0048,0.0226,0.0230,0.0034
1680,0.0062,0.0180,0.0157,0.0052
1681,0.0053,0.0374,0.0267,0.0065
1682,0.0048,0.0307,0.0279,0.0221
1683,0.0049,0.0356,0.0316,0.0251
1684,0.0040,0.0253,0.0212,0.0123
1685,0.0040,0.0253,0.0212,0.0123
1686,0.0040,0.0253,0.0212,0.0123
1687,0.0040,0.0253,0.0212,0.0123
1688,0.0040,0.0253,0.0212,0.0123
1689,0.0040,0.0253,0.0212,0.0123
1690,0.0048,0.0226,0.0230,0.0034
1691,0.0040,0.0192,0.0177,0.0030
1692,0.0040,0.0192,0.0177,0.0030
1693,0.0041,0.0169,0.0233,0.0044
1694,0.0040,0.0229,0.0224,0.0035
1695,0.0036,0.0208,0.0178,0.0031
1696,0.0048,0.0153,0.0154,0.0032
1697,0.0035,0.0171,0.0144,0.0027
1698,0.0036,0.0215,0.0174,0.0023
1699,0.0048,0.0143,0.0144,0.0039
1700,0.0055,0.0185,0.0176,0.0034
1701,0.0045,0.0273,0.0261,0.0039
1702,0.0051,0.0165,0.0143,0.0038
1703,0.0055,0.0211,0.0172,0.0036
1704,0.0053,0.0200,0.0144,0.0037
1705,0.0049,0.0286,0.0223,0.0050
1706,0.0038,0.0220,0.0177,0.0031
1707,0.0048,0.0307,0.0298,0.0197
1708,0.0037,0.0243,0.0199,0.0155
1709,0.0050,0.0360,0.0323,0.0153
1710,0.0039,0.0195,0.0190,0.0107
1711,0.0043,0.0258,0.0273,0.0081
1712,0.0048,0.0226,0.0230,0.0034
1713,0.0079,0.0350,0.0278,0.0076
1714,0.0043,0.0293,0.0260,0.0067
1715,0.0044,0.0296,0.0270,0.0062
1716,0.0062,0.0172,0.0220,0.0062
1717,0.0038,0.0202,0.0198,0.0036
1718,0.0035,0.0171,0.0144,0.0027
1719,0.0037,0.0232,0.0305,0.0036
1720,0.0046,0.0241,0.0254,0.0041
1721,0.0050,0.0245,0.0248,0.0052
1722,0.0047,0.0319,0.0331,0.0110
1723,0.0048,0.0226,0.0230,0.0034
1724,0.0046,0.0231,0.0242,0.0075
1725,0.0039,0.0246,0.0276,0.0091
1726,0.0053,0.0259,0.0315,0.0099
1727,0.0036,0.0376,0.0371,0.0158
1728,0.0073,0.0354,0.0339,0.0232
1729,0.0054,0.0270,0.0283,0.0139
1730,0.0036,0.0215,0.0174,0.0023
1731,0.0040,0.0192,0.0177,0.0030
1732,0.0041,0.0169,0.0233,0.0044
1733,0.0039,0.0192,0.0183,0.0034
1734,0.0048,0.0226,0.0230,0.0034
1735,0.0040,0.0192,0.0177,0.0030
1736,0.0041,0.0169,0.0233,0.0044
1737,0.0040,0.0192,0.0177,0.0030
1738,0.0040,0.0192,0.0177,0.0030
1739,0.0039,0.0192,0.0183,0.0034
1740,0.0040,0.0192,0.0177,0.0030
1741,0.0040,0.0192,0.0177,0.0030
1742,0.0048,0.0143,0.0144,0.0039
1743,0.0040,0.0192,0.0177,0.0030
1744,0.0039,0.0192,0.0183,0.0034
1745,0.0048,0.0226,0.0230,0.0034
1746,0.0041,0.0169,0.0233,0.0044
1747,0.0040,0.0192,0.0177,0.0030
1748,0.0040,0.0192,0.0177,0.0030
1749,0.0041,0.0169,0.0233,0.0044
1750,0.0039,0.0192,0.0183,0.0034
1751,0.0040,0.0192,0.0177,0.0030
1752,0.0041,0.0169,0.0233,0.0044
1753,0.0040,0.0192,0.0177,0.0030
1754,0.0045,0.0172,0.0117,0.0033
1755,0.0039,0.0192,0.0183,0.0034
1756,0.0090,0.0260,0.0160,0.0034
1757,0.0040,0.0192,0.0177,0.0030
1758,0.0040,0.0192,0.0177,0.0030
1759,0.0041,0.0169,0.0233,0.0044
1760,0.0040,0.0192,0.0177,0.0030
1761,0.0039,0.0192,0.0183,0.0034
1762,0.0041,0.0169,0.0233,0.0044
1763,0.0040,0.0192,0.0177,0.0030
1764,0.0040,0.0192,0.0177,0.0030
1765,0.0041,0.0169,0.0233,0.0044
1766,0.0050,0.0187,0.0144,0.0048
1767,0.0051,0.0310,0.0261,0.0029
1768,0.0048,0.0226,0.0230,0.0034
1769,0.0040,0.0192,0.0177,0.0030
1770,0.0041,0.0169,0.0233,0.0044
1771,0.0040,0.0192,0.0177,0.0030
1772,0.0040,0.0192,0.0177,0.0030
1773,0.0039,0.0192,0.0183,0.0034
1774,0.0087,0.0228,0.0277,0.0059
1775,0.0075,0.0221,0.0299,0.0046
1776,0.0090,0.0275,0.0296,0.0082
1777,0.0058,0.0261,0.0342,0.0053
1778,0.0055,0.0185,0.0176,0.0034
1779,0.0048,0.0226,0.0230,0.0034
1780,0.0055,0.0211,0.0172,0.0036
1781,0.0042,0.0252,0.0317,0.0049
1782,0.0036,0.0242,0.0304,0.0043
1783,0.0046,0.0183,0.0246,0.0068
1784,0.0047,0.0243,0.0229,0.0037
1785,0.0035,0.0159,0.0162,0.0025
1786,0.0044,0.0144,0.0186,0.0033
1787,0.0038,0.0175,0.0170,0.0033
1788,0.0035,0.0171,0.0144,0.0027
1789,0.0050,0.0179,0.0165,0.0034
1790,0.0048,0.0226,0.0230,0.0034
1791,0.0039,0.0217,0.0159,0.0026
1792,0.0053,0.0200,0.0144,0.0037
1793,0.0050,0.0212,0.0198,0.0033
1794,0.0051,0.0165,0.0143,0.0038
1795,0.0047,0.0291,0.0257,0.0073
1796,0.0061,0.0166,0.0144,0.0042
1797,0.0049,0.0286,0.0223,0.0050
1798,0.0048,0.0307,0.0298,0.0197
1799,0.0049,0.0350,0.0315,0.0206
1800,0.0039,0.0235,0.0208,0.0116
1801,0.0048,0.0226,0.0230,0.0034
1802,0.0039,0.0235,0.0208,0.0116
1803,0.0039,0.0235,0.0208,0.0116
1804,0.0039,0.0235,0.0208,0.0116
1805,0.0039,0.0235,0.0208,0.0116
1806,0.0039,0.0235,0.0208,0.0116
1807,0.0038,0.0125,0.0112,0.0023
1808,0.0038,0.0125,0.0112,0.0023
1809,0.0041,0.0128,0.0196,0.0038
1810,0.0037,0.0158,0.0153,0.0029
1811,0.0035,0.0182,0.0174,0.0029
1812,0.0045,0.0273,0.0261,0.0039
1813,0.0047,0.0099,0.0118,0.0029
1814,0.0034,0.0136,0.0132,0.0027
1815,0.0036,0.0219,0.0218,0.0023
1816,0.0047,0.0106,0.0127,0.0038
1817,0.0054,0.0184,0.0163,0.0040
1818,0.0050,0.0125,0.0121,0.0029
1819,0.0055,0.0183,0.0187,0.0031
1820,0.0051,0.0163,0.0141,0.0029
1821,0.0047,0.0195,0.0178,0.0045
1822,0.0036,0.0204,0.0189,0.0031
1823,0.0097,0.0357,0.0486,0.0076
1824,0.0054,0.0321,0.0328,0.0205
1825,0.0039,0.0193,0.0174,0.0115
1826,0.0051,0.0371,0.0330,0.0140
1827,0.0039,0.0164,0.0173,0.0074
1828,0.0042,0.0206,0.0240,0.0065
1829,0.0086,0.0323,0.0263,0.0081
1830,0.0047,0.0237,0.0216,0.0063
1831,0.0047,0.0223,0.0205,0.0056
1832,0.0066,0.0141,0.0209,0.0041
1833,0.0035,0.0150,0.0150,0.0034
1834,0.0086,0.0382,0.0527,0.0068
1835,0.0034,0.0136,0.0132,0.0027
1836,0.0037,0.0179,0.0244,0.0039
1837,0.0042,0.0205,0.0228,0.0037
1838,0.0046,0.0228,0.0236,0.0049
1839,0.0046,0.0229,0.0250,0.0076
1840,0.0045,0.0223,0.0214,0.0066
1841,0.0039,0.0196,0.0201,0.0069
1842,0.0057,0.0254,0.0233,0.0083
1843,0.0034,0.0217,0.0215,0.0101
1844,0.0078,0.0373,0.0349,0.0228
1845,0.0077,0.0404,0.0547,0.0072
1846,0.0049,0.0200,0.0245,0.0116
1847,0.0036,0.0219,0.0218,0.0023
1848,0.0038,0.0125,0.0112,0.0023
1849,0.0041,0.0128,0.0196,0.0038
1850,0.0034,0.0129,0.0121,0.0030
1851,0.0038,0.0125,0.0112,0.0023
1852,0.0041,0.0128,0.0196,0.0038
1853,0.0038,0.0125,0.0112,0.0023
1854,0.0038,0.0125,0.0112,0.0023
1855,0.0034,0.0129,0.0121,0.0030
1856,0.0069,0.0414,0.0549,0.0073
1857,0.0038,0.0125,0.0112,0.0023
1858,0.0038,0.0125,0.0112,0.0023
1859,0.0047,0.0106,0.0127,0.0038
1860,0.0038,0.0125,0.0112,0.0023
1861,0.0034,0.0129,0.0121,0.0030
1862,0.0041,0.0128,0.0196,0.0038
1863,0.0038,0.0125,0.0112,0.0023
1864,0.0038,0.0125,0.0112,0.0023
1865,0.0041,0.0128,0.0196,0.0038
1866,0.0034,0.0129,0.0121,0.0030
1867,0.0096,0.0234,0.0186,0.0033
1868,0.0038,0.0125,0.0112,0.0023
1869,0.0041,0.0128,0.0196,0.0038
1870,0.0038,0.0125,0.0112,0.0023
1871,0.0043,0.0144,0.0119,0.0027
1872,0.0034,0.0129,0.0121,0.0030
1873,0.0038,0.0125,0.0112,0.0023
1874,0.0038,0.0125,0.0112,0.0023
1875,0.0041,0.0128,0.0196,0.0038
1876,0.0038,0.0125,0.0112,0.0023
1877,0.0034,0.0129,0.0121,0.0030
1878,0.0058,0.0303,0.0233,0.0033
1879,0.0093,0.0221,0.0178,0.0059
1880,0.0041,0.0128,0.0196,0.0038
1881,0.0038,0.0125,0.0112,0.0023
1882,0.0038,0.0125,0.0112,0.0023
1883,0.0041,0.0128,0.0196,0.0038
1884,0.0051,0.0177,0.0148,0.0062
1885,0.0038,0.0125,0.0112,0.0023
1886,0.0041,0.0128,0.0196,0.0038
1887,0.0038,0.0125,0.0112,0.0023
1888,0.0038,0.0125,0.0112,0.0023
1889,0.0034,0.0129,0.0121,0.0030
1890,0.0055,0.0393,0.0506,0.0063
1891,0.0083,0.0186,0.0234,0.0046
1892,0.0071,0.0150,0.0215,0.0045
1893,0.0084,0.0296,0.0373,0.0072
1894,0.0054,0.0165,0.0220,0.0053
1895,0.0054,0.0184,0.0163,0.0040
1896,0.0055,0.0183,0.0187,0.0031
1897,0.0041,0.0151,0.0174,0.0050
1898,0.0036,0.0156,0.0187,0.0045
1899,0.0045,0.0111,0.0143,0.0054
1900,0.0043,0.0186,0.0181,0.0032
1901,0.0049,0.0377,0.0482,0.0055
1902,0.0034,0.0095,0.0110,0.0022
1903,0.0044,0.0100,0.0154,0.0029
1904,0.0034,0.0112,0.0107,0.0030
1905,0.0034,0.0136,0.0132,0.0027
1906,0.0048,0.0141,0.0136,0.0034
1907,0.0039,0.0199,0.0182,0.0024
1908,0.0051,0.0163,0.0141,0.0029
1909,0.0050,0.0205,0.0226,0.0034
1910,0.0050,0.0125,0.0121,0.0029
1911,0.0052,0.0205,0.0232,0.0086
1912,0.0045,0.0345,0.0436,0.0045
1913,0.0060,0.0137,0.0144,0.0031
1914,0.0047,0.0195,0.0178,0.0045
1915,0.0054,0.0321,0.0328,0.0205
1916,0.0051,0.0344,0.0315,0.0161
1917,0.0041,0.0202,0.0193,0.0117
1918,0.0041,0.0202,0.0193,0.0117
1919,0.0041,0.0202,0.0193,0.0117
1920,0.0041,0.0202,0.0193,0.0117
1921,0.0041,0.0202,0.0193,0.0117
1922,0.0041,0.0202,0.0193,0.0117
1923,0.0048,0.0271,0.0274,0.0040
1924,0.0035,0.0120,0.0107,0.0021
1925,0.0035,0.0120,0.0107,0.0021
1926,0.0041,0.0078,0.0140,0.0031
1927,0.0033,0.0147,0.0140,0.0025
1928,0.0036,0.0128,0.0137,0.0030
1929,0.0047,0.0100,0.0113,0.0030
1930,0.0035,0.0084,0.0093,0.0026
1931,0.0038,0.0152,0.0170,0.0023
1932,0.0048,0.0077,0.0107,0.0041
1933,0.0051,0.0192,0.0156,0.0041
1934,0.0044,0.0254,0.0292,0.0032
1935,0.0049,0.0113,0.0122,0.0025
1936,0.0055,0.0105,0.0131,0.0033
1937,0.0051,0.0174,0.0142,0.0034
1938,0.0047,0.0185,0.0158,0.0057
1939,0.0038,0.0153,0.0159,0.0033
1940,0.0060,0.0368,0.0371,0.0258
1941,0.0042,0.0176,0.0164,0.0134
1942,0.0053,0.0395,0.0343,0.0181
1943,0.0040,0.0137,0.0138,0.0076
1944,0.0042,0.0151,0.0187,0.0070
1945,0.0049,0.0247,0.0244,0.0039
1946,0.0091,0.0346,0.0286,0.0114
1947,0.0047,0.0234,0.0216,0.0072
1948,0.0046,0.0239,0.0225,0.0065
1949,0.0069,0.0149,0.0195,0.0034
1950,0.0035,0.0129,0.0134,0.0034
1951,0.0035,0.0084,0.0093,0.0026
1952,0.0036,0.0133,0.0193,0.0040
1953,0.0036,0.0208,0.0236,0.0047
1954,0.0039,0.0242,0.0259,0.0064
1955,0.0046,0.0203,0.0233,0.0048
1956,0.0049,0.0223,0.0217,0.0037
1957,0.0042,0.0283,0.0284,0.0086
1958,0.0037,0.0251,0.0263,0.0083
1959,0.0059,0.0334,0.0303,0.0126
1960,0.0034,0.0129,0.0175,0.0082
1961,0.0091,0.0438,0.0398,0.0269
1962,0.0049,0.0246,0.0315,0.0166
1963,0.0038,0.0152,0.0170,0.0023
1964,0.0035,0.0120,0.0107,0.0021
1965,0.0041,0.0078,0.0140,0.0031
1966,0.0034,0.0095,0.0093,0.0029
1967,0.0048,0.0259,0.0231,0.0032
1968,0.0035,0.0120,0.0107,0.0021
1969,0.0041,0.0078,0.0140,0.0031
1970,0.0035,0.0120,0.0107,0.0021
1971,0.0035,0.0120,0.0107,0.0021
1972,0.0034,0.0095,0.0093,0.0029
1973,0.0035,0.0120,0.0107,0.0021
1974,0.0035,0.0120,0.0107,0.0021
1975,0.0048,0.0077,0.0107,0.0041
1976,0.0035,0.0120,0.0107,0.0021
1977,0.0034,0.0095,0.0093,0.0029
1978,0.0081,0.0255,0.0209,0.0033
1979,0.0041,0.0078,0.0140,0.0031
1980,0.0035,0.0120,0.0107,0.0021
1981,0.0035,0.0120,0.0107,0.0021
1982,0.0041,0.0078,0.0140,0.0031
1983,0.0034,0.0095,0.0093,0.0029
1984,0.0035,0.0120,0.0107,0.0021
1985,0.0041,0.0078,0.0140,0.0031
1986,0.0035,0.0120,0.0107,0.0021
1987,0.0044,0.0083,0.0083,0.0024
1988,0.0034,0.0095,0.0093,0.0029
1989,0.0096,0.0234,0.0186,0.0033
1990,0.0058,0.0303,0.0233,0.0033
1991,0.0035,0.0120,0.0107,0.0021
1992,0.0035,0.0120,0.0107,0.0021
1993,0.0041,0.0078,0.0140,0.0031
1994,0.0035,0.0120,0.0107,0.0021
1995,0.0034,0.0095,0.0093,0.0029
1996,0.0041,0.0078,0.0140,0.0031
1997,0.0035,0.0120,0.0107,0.0021
1998,0.0035,0.0120,0.0107,0.0021
1999,0.0041,0.0078,0.0140,0.0031
2000,0.0048,0.0191,0.0141,0.0068
2001,0.0095,0.0241,0.0157,0.0060
2002,0.0035,0.0120,0.0107,0.0021
2003,0.0041,0.0078,0.0140,0.0031
2004,0.0035,0.0120,0.0107,0.0021
2005,0.0035,0.0120,0.0107,0.0021
2006,0.0034,0.0095,0.0093,0.0029
2007,0.0081,0.0204,0.0319,0.0043
2008,0.0068,0.0167,0.0294,0.0045
2009,0.0082,0.0351,0.0491,0.0071
2010,0.0051,0.0159,0.0253,0.0051
2011,0.0051,0.0192,0.0156,0.0041
2012,0.0070,0.0256,0.0185,0.0044
2013,0.0055,0.0105,0.0131,0.0033
2014,0.0040,0.0076,0.0093,0.0048
2015,0.0036,0.0080,0.0095,0.0045
2016,0.0045,0.0101,0.0130,0.0041
2017,0.0038,0.0161,0.0156,0.0033
2018,0.0032,0.0065,0.0070,0.0023
2019,0.0044,0.0073,0.0120,0.0026
2020,0.0032,0.0090,0.0085,0.0028
2021,0.0035,0.0084,0.0093,0.0026
2022,0.0046,0.0118,0.0122,0.0036
2023,0.0084,0.0219,0.0183,0.0054
2024,0.0040,0.0140,0.0147,0.0022
2025,0.0051,0.0174,0.0142,0.0034
2026,0.0051,0.0121,0.0156,0.0038
2027,0.0049,0.0113,0.0122,0.0025
2028,0.0049,0.0206,0.0223,0.0097
2029,0.0060,0.0109,0.0135,0.0030
2030,0.0047,0.0185,0.0158,0.0057
2031,0.0060,0.0368,0.0371,0.0258
2032,0.0052,0.0363,0.0326,0.0195
2033,0.0045,0.0212,0.0214,0.0137
2034,0.0079,0.0391,0.0304,0.0052
2035,0.0045,0.0212,0.0214,0.0137
2036,0.0045,0.0212,0.0214,0.0137
2037,0.0045,0.0212,0.0214,0.0137
2038,0.0045,0.0212,0.0214,0.0137
2039,0.0045,0.0212,0.0214,0.0137
2040,0.0034,0.0132,0.0119,0.0021
2041,0.0034,0.0132,0.0119,0.0021
2042,0.0042,0.0068,0.0127,0.0029
2043,0.0031,0.0141,0.0130,0.0024
2044,0.0037,0.0086,0.0092,0.0031
2045,0.0095,0.0241,0.0157,0.0060
2046,0.0046,0.0122,0.0128,0.0031
2047,0.0036,0.0067,0.0071,0.0027
2048,0.0039,0.0099,0.0117,0.0024
2049,0.0048,0.0090,0.0111,0.0044
2050,0.0050,0.0193,0.0149,0.0041
2051,0.0049,0.0119,0.0127,0.0023
2052,0.0055,0.0081,0.0110,0.0036
2053,0.0051,0.0187,0.0147,0.0038
2054,0.0047,0.0200,0.0155,0.0064
2055,0.0040,0.0128,0.0140,0.0034
2056,0.0090,0.0342,0.0238,0.0063
2057,0.0062,0.0400,0.0399,0.0290
2058,0.0043,0.0188,0.0175,0.0159
2059,0.0054,0.0431,0.0371,0.0217
2060,0.0040,0.0146,0.0138,0.0092
2061,0.0042,0.0147,0.0181,0.0080
2062,0.0093,0.0352,0.0292,0.0129
2063,0.0046,0.0256,0.0240,0.0082
2064,0.0045,0.0258,0.0246,0.0072
2065,0.0070,0.0163,0.0198,0.0040
2066,0.0036,0.0134,0.0138,0.0034
2067,0.0055,0.0321,0.0267,0.0221
2068,0.0036,0.0067,0.0071,0.0027
2069,0.0036,0.0122,0.0182,0.0041
2070,0.0034,0.0215,0.0243,0.0054
2071,0.0037,0.0258,0.0277,0.0074
2072,0.0046,0.0205,0.0235,0.0044
2073,0.0040,0.0312,0.0319,0.0100
2074,0.0037,0.0293,0.0310,0.0099
2075,0.0058,0.0371,0.0351,0.0148
2076,0.0034,0.0142,0.0207,0.0090
2077,0.0097,0.0470,0.0423,0.0292
2078,0.0061,0.0342,0.0273,0.0230
2079,0.0049,0.0302,0.0376,0.0202
2080,0.0039,0.0099,0.0117,0.0024
2081,0.0034,0.0132,0.0119,0.0021
2082,0.0042,0.0068,0.0127,0.0029
2083,0.0034,0.0100,0.0097,0.0030
2084,0.0034,0.0132,0.0119,0.0021
2085,0.0042,0.0068,0.0127,0.0029
2086,0.0034,0.0132,0.0119,0.0021
2087,0.0034,0.0132,0.0119,0.0021
2088,0.0034,0.0100,0.0097,0.0030
2089,0.0052,0.0277,0.0212,0.0138
2090,0.0034,0.0132,0.0119,0.0021
2091,0.0034,0.0132,0.0119,0.0021
2092,0.0048,0.0090,0.0111,0.0044
2093,0.0034,0.0132,0.0119,0.0021
2094,0.0034,0.0100,0.0097,0.0030
2095,0.0042,0.0068,0.0127,0.0029
2096,0.0034,0.0132,0.0119,0.0021
2097,0.0034,0.0132,0.0119,0.0021
2098,0.0042,0.0068,0.0127,0.0029
2099,0.0034,0.0100,0.0097,0.0030
Total Error Summary
Vdc  RMSE=  0.0050
Idc  RMSE=  0.0208
Id   RMSE=  0.0212
Iq   RMSE=  0.0074
