Read Model from: ./ucf10c/
Export Model to: ./ucf10c/ucf10c_fhf.json
idx_in [0, 1, 2, 3, 4, 5, 6]
idx_out [7, 8, 9, 10]
make_mimo_block stable2ndx
H1s[0][0]  Real Poles: [-1035.62175855 -1035.62175855] Freqs [Hz]: [28.029541070363074]
H1s[0][1]  Real Poles: [-1446.64313184  -551.98143405] Freqs [Hz]: []
H1s[0][2]  Real Poles: [-1065.6151399 -1065.6151399] Freqs [Hz]: [25.567261108796675]
H1s[0][3]  Real Poles: [-1093.52008253 -1093.52008253] Freqs [Hz]: [69.30783223310272]
H1s[1][0]  Real Poles: [-832.47098327 -832.47098327] Freqs [Hz]: [23.01464583742111]
H1s[1][1]  Real Poles: [-1138.80576193 -1138.80576193] Freqs [Hz]: [49.137220347066055]
H1s[1][2]  Real Poles: [-1680.09192592  -296.6273939 ] Freqs [Hz]: []
H1s[1][3]  Real Poles: [-564.04864788 -564.04864788] Freqs [Hz]: [30.536167917153698]
H1s[2][0]  Real Poles: [-991.15886912 -991.15886912] Freqs [Hz]: [41.90208068396357]
H1s[2][1]  Real Poles: [-880.62858582 -880.62858582] Freqs [Hz]: [55.096956658399094]
H1s[2][2]  Real Poles: [-1111.05598509 -1111.05598509] Freqs [Hz]: [28.743478147933686]
H1s[2][3]  Real Poles: [-496.42175436 -496.42175436] Freqs [Hz]: [57.434731245607175]
H1s[3][0]  Real Poles: [-579.82110977 -579.82110977] Freqs [Hz]: [58.08441800856621]
H1s[3][1]  Real Poles: [-1040.8190079 -1040.8190079] Freqs [Hz]: [56.71603211870173]
H1s[3][2]  Real Poles: [-689.81662393 -689.81662393] Freqs [Hz]: [76.65855565320825]
H1s[3][3]  Real Poles: [-418.27231646 -418.27231646] Freqs [Hz]: [59.07343127222103]
model_folder = ./ucf10c/
model_root = ucf10c
data_path = d:/data/ucf3/ucf9c.hdf5
idx_in [0, 1, 2, 3, 4, 5, 6]
idx_out [7, 8, 9, 10]
read 2100 dataframes
dt=0.001000 data_len=4001 n_io=11 n_case=2100
['G', 'Ud', 'Uq', 'Vd', 'Vq', 'GVrms', 'Ctrl'] ['Vdc', 'Idc', 'Id', 'Iq'] (2100, 4001, 11)
make_mimo_block stable2ndx
prepending initial conditions (2100, 500, 11) (2100, 4001, 11) float32 float32
results in (2100, 4501, 11)
Idx,Vdc,Idc,Id,Iq
#,RMSE,RMSE,RMSE,RMSE
Total,0.0049,0.0277,0.0297,0.0085
0,0.0053,0.0344,0.0403,0.0031
1,0.0053,0.0344,0.0403,0.0031
2,0.0055,0.0493,0.0497,0.0044
3,0.0041,0.0486,0.0448,0.0200
4,0.0030,0.0227,0.0285,0.0029
5,0.0040,0.0112,0.0156,0.0040
6,0.0030,0.0227,0.0285,0.0029
7,0.0038,0.0163,0.0178,0.0028
8,0.0031,0.0150,0.0182,0.0045
9,0.0030,0.0227,0.0285,0.0029
10,0.0030,0.0227,0.0285,0.0029
11,0.0040,0.0112,0.0156,0.0040
12,0.0030,0.0227,0.0285,0.0029
13,0.0031,0.0150,0.0182,0.0045
14,0.0041,0.0486,0.0448,0.0200
15,0.0040,0.0112,0.0156,0.0040
16,0.0030,0.0227,0.0285,0.0029
17,0.0030,0.0227,0.0285,0.0029
18,0.0040,0.0112,0.0156,0.0040
19,0.0054,0.0152,0.0178,0.0036
20,0.0030,0.0227,0.0285,0.0029
21,0.0040,0.0112,0.0156,0.0040
22,0.0030,0.0227,0.0285,0.0029
23,0.0030,0.0227,0.0285,0.0029
24,0.0031,0.0150,0.0182,0.0045
25,0.0041,0.0486,0.0448,0.0200
26,0.0048,0.0171,0.0422,0.0032
27,0.0054,0.0121,0.0307,0.0032
28,0.0099,0.0346,0.0593,0.0047
29,0.0077,0.0088,0.0173,0.0034
30,0.0046,0.0162,0.0185,0.0037
31,0.0052,0.0208,0.0228,0.0039
32,0.0079,0.0086,0.0119,0.0034
33,0.0071,0.0079,0.0107,0.0032
34,0.0054,0.0076,0.0116,0.0033
35,0.0027,0.0259,0.0324,0.0041
36,0.0041,0.0486,0.0448,0.0200
37,0.0031,0.0153,0.0215,0.0028
38,0.0034,0.0143,0.0188,0.0043
39,0.0032,0.0151,0.0183,0.0028
40,0.0035,0.0112,0.0134,0.0029
41,0.0040,0.0136,0.0154,0.0043
42,0.0039,0.0113,0.0128,0.0030
43,0.0046,0.0329,0.0340,0.0031
44,0.0046,0.0161,0.0189,0.0039
45,0.0041,0.0223,0.0236,0.0027
46,0.0067,0.0137,0.0162,0.0040
47,0.0041,0.0486,0.0448,0.0200
48,0.0063,0.0318,0.0328,0.0044
49,0.0046,0.0334,0.0349,0.0039
50,0.0034,0.0307,0.0340,0.0277
51,0.0047,0.0275,0.0258,0.0186
52,0.0042,0.0193,0.0194,0.0173
53,0.0042,0.0193,0.0194,0.0173
54,0.0042,0.0193,0.0194,0.0173
55,0.0042,0.0193,0.0194,0.0173
56,0.0042,0.0193,0.0194,0.0173
57,0.0042,0.0193,0.0194,0.0173
58,0.0053,0.0295,0.0345,0.0030
59,0.0039,0.0211,0.0244,0.0026
60,0.0039,0.0211,0.0244,0.0026
61,0.0046,0.0279,0.0348,0.0036
62,0.0040,0.0207,0.0236,0.0033
63,0.0058,0.0343,0.0352,0.0044
64,0.0045,0.0207,0.0247,0.0036
65,0.0046,0.0277,0.0286,0.0035
66,0.0049,0.0321,0.0323,0.0035
67,0.0054,0.0239,0.0262,0.0041
68,0.0065,0.0416,0.0392,0.0042
69,0.0053,0.0295,0.0345,0.0030
70,0.0049,0.0323,0.0315,0.0041
71,0.0062,0.0295,0.0302,0.0047
72,0.0053,0.0343,0.0334,0.0042
73,0.0055,0.0357,0.0346,0.0044
74,0.0060,0.0382,0.0383,0.0043
75,0.0033,0.0336,0.0270,0.0258
76,0.0033,0.0371,0.0292,0.0237
77,0.0064,0.0236,0.0214,0.0227
78,0.0035,0.0297,0.0313,0.0168
79,0.0057,0.0340,0.0340,0.0111
80,0.0053,0.0295,0.0345,0.0030
81,0.0103,0.0319,0.0229,0.0119
82,0.0041,0.0239,0.0242,0.0071
83,0.0037,0.0230,0.0244,0.0056
84,0.0054,0.0203,0.0277,0.0072
85,0.0055,0.0269,0.0287,0.0045
86,0.0046,0.0277,0.0286,0.0035
87,0.0056,0.0322,0.0368,0.0030
88,0.0040,0.0210,0.0229,0.0039
89,0.0040,0.0219,0.0227,0.0052
90,0.0062,0.0431,0.0460,0.0111
91,0.0053,0.0293,0.0334,0.0031
92,0.0049,0.0277,0.0273,0.0091
93,0.0055,0.0338,0.0345,0.0130
94,0.0078,0.0331,0.0346,0.0156
95,0.0066,0.0544,0.0509,0.0246
96,0.0063,0.0622,0.0571,0.0385
97,0.0100,0.0617,0.0556,0.0321
98,0.0049,0.0321,0.0323,0.0035
99,0.0039,0.0211,0.0244,0.0026
100,0.0046,0.0279,0.0348,0.0036
101,0.0055,0.0280,0.0294,0.0046
102,0.0038,0.0489,0.0522,0.0039
103,0.0039,0.0211,0.0244,0.0026
104,0.0046,0.0279,0.0348,0.0036
105,0.0039,0.0211,0.0244,0.0026
106,0.0039,0.0211,0.0244,0.0026
107,0.0055,0.0280,0.0294,0.0046
108,0.0039,0.0211,0.0244,0.0026
109,0.0039,0.0211,0.0244,0.0026
110,0.0054,0.0239,0.0262,0.0041
111,0.0039,0.0211,0.0244,0.0026
112,0.0055,0.0280,0.0294,0.0046
113,0.0056,0.0479,0.0473,0.0042
114,0.0052,0.0325,0.0365,0.0033
115,0.0046,0.0279,0.0348,0.0036
116,0.0039,0.0211,0.0244,0.0026
117,0.0039,0.0211,0.0244,0.0026
118,0.0046,0.0279,0.0348,0.0036
119,0.0055,0.0280,0.0294,0.0046
120,0.0039,0.0211,0.0244,0.0026
121,0.0046,0.0279,0.0348,0.0036
122,0.0039,0.0211,0.0244,0.0026
123,0.0048,0.0327,0.0321,0.0038
124,0.0055,0.0280,0.0294,0.0046
125,0.0051,0.0409,0.0450,0.0036
126,0.0039,0.0211,0.0244,0.0026
127,0.0039,0.0211,0.0244,0.0026
128,0.0046,0.0279,0.0348,0.0036
129,0.0039,0.0211,0.0244,0.0026
130,0.0055,0.0280,0.0294,0.0046
131,0.0046,0.0279,0.0348,0.0036
132,0.0039,0.0211,0.0244,0.0026
133,0.0039,0.0211,0.0244,0.0026
134,0.0046,0.0279,0.0348,0.0036
135,0.0070,0.0436,0.0405,0.0040
136,0.0052,0.0468,0.0502,0.0037
137,0.0039,0.0211,0.0244,0.0026
138,0.0046,0.0279,0.0348,0.0036
139,0.0039,0.0211,0.0244,0.0026
140,0.0039,0.0211,0.0244,0.0026
141,0.0055,0.0280,0.0294,0.0046
142,0.0042,0.0256,0.0319,0.0030
143,0.0041,0.0314,0.0375,0.0030
144,0.0105,0.0182,0.0300,0.0067
145,0.0061,0.0408,0.0495,0.0032
146,0.0065,0.0416,0.0392,0.0042
147,0.0053,0.0473,0.0497,0.0038
148,0.0062,0.0295,0.0302,0.0047
149,0.0066,0.0420,0.0503,0.0033
150,0.0062,0.0391,0.0463,0.0031
151,0.0049,0.0332,0.0440,0.0045
152,0.0050,0.0240,0.0275,0.0044
153,0.0039,0.0238,0.0271,0.0023
154,0.0043,0.0240,0.0291,0.0035
155,0.0043,0.0221,0.0239,0.0035
156,0.0046,0.0277,0.0286,0.0035
157,0.0061,0.0401,0.0389,0.0044
158,0.0052,0.0538,0.0524,0.0038
159,0.0049,0.0333,0.0330,0.0037
160,0.0053,0.0343,0.0334,0.0042
161,0.0057,0.0294,0.0309,0.0044
162,0.0049,0.0323,0.0315,0.0041
163,0.0079,0.0468,0.0426,0.0042
164,0.0068,0.0309,0.0319,0.0052
165,0.0055,0.0357,0.0346,0.0044
166,0.0033,0.0336,0.0270,0.0258
167,0.0048,0.0287,0.0228,0.0294
168,0.0056,0.0334,0.0308,0.0156
169,0.0054,0.0422,0.0428,0.0037
170,0.0056,0.0334,0.0308,0.0156
171,0.0056,0.0334,0.0308,0.0156
172,0.0056,0.0334,0.0308,0.0156
173,0.0056,0.0334,0.0308,0.0156
174,0.0056,0.0334,0.0308,0.0156
175,0.0029,0.0219,0.0257,0.0024
176,0.0029,0.0219,0.0257,0.0024
177,0.0044,0.0228,0.0287,0.0033
178,0.0030,0.0240,0.0275,0.0024
179,0.0050,0.0304,0.0314,0.0040
180,0.0055,0.0410,0.0406,0.0034
181,0.0042,0.0194,0.0228,0.0035
182,0.0036,0.0249,0.0261,0.0027
183,0.0039,0.0281,0.0286,0.0028
184,0.0049,0.0233,0.0256,0.0035
185,0.0054,0.0355,0.0342,0.0036
186,0.0039,0.0303,0.0305,0.0027
187,0.0056,0.0276,0.0289,0.0037
188,0.0042,0.0345,0.0351,0.0030
189,0.0044,0.0356,0.0363,0.0037
190,0.0051,0.0329,0.0332,0.0040
191,0.0057,0.0404,0.0392,0.0032
192,0.0031,0.0278,0.0266,0.0204
193,0.0032,0.0310,0.0254,0.0181
194,0.0063,0.0228,0.0201,0.0174
195,0.0035,0.0263,0.0289,0.0133
196,0.0053,0.0298,0.0304,0.0093
197,0.0106,0.0355,0.0234,0.0093
198,0.0045,0.0251,0.0229,0.0063
199,0.0039,0.0254,0.0246,0.0053
200,0.0056,0.0181,0.0228,0.0054
201,0.0045,0.0264,0.0285,0.0038
202,0.0059,0.0406,0.0385,0.0031
203,0.0036,0.0249,0.0261,0.0027
204,0.0053,0.0265,0.0300,0.0034
205,0.0034,0.0236,0.0259,0.0036
206,0.0036,0.0256,0.0254,0.0050
207,0.0060,0.0368,0.0381,0.0091
208,0.0049,0.0293,0.0250,0.0078
209,0.0055,0.0326,0.0294,0.0103
210,0.0079,0.0319,0.0299,0.0118
211,0.0065,0.0487,0.0435,0.0187
212,0.0064,0.0514,0.0460,0.0307
213,0.0040,0.0530,0.0555,0.0039
214,0.0096,0.0579,0.0508,0.0249
215,0.0039,0.0281,0.0286,0.0028
216,0.0029,0.0219,0.0257,0.0024
217,0.0044,0.0228,0.0287,0.0033
218,0.0046,0.0270,0.0287,0.0040
219,0.0029,0.0219,0.0257,0.0024
220,0.0044,0.0228,0.0287,0.0033
221,0.0029,0.0219,0.0257,0.0024
222,0.0029,0.0219,0.0257,0.0024
223,0.0046,0.0270,0.0287,0.0040
224,0.0058,0.0471,0.0456,0.0039
225,0.0048,0.0394,0.0273,0.0227
226,0.0029,0.0219,0.0257,0.0024
227,0.0029,0.0219,0.0257,0.0024
228,0.0049,0.0233,0.0256,0.0035
229,0.0029,0.0219,0.0257,0.0024
230,0.0046,0.0270,0.0287,0.0040
231,0.0044,0.0228,0.0287,0.0033
232,0.0029,0.0219,0.0257,0.0024
233,0.0029,0.0219,0.0257,0.0024
234,0.0044,0.0228,0.0287,0.0033
235,0.0046,0.0270,0.0287,0.0040
236,0.0044,0.0488,0.0428,0.0265
237,0.0029,0.0219,0.0257,0.0024
238,0.0044,0.0228,0.0287,0.0033
239,0.0029,0.0219,0.0257,0.0024
240,0.0037,0.0290,0.0290,0.0027
241,0.0046,0.0270,0.0287,0.0040
242,0.0029,0.0219,0.0257,0.0024
243,0.0029,0.0219,0.0257,0.0024
244,0.0044,0.0228,0.0287,0.0033
245,0.0029,0.0219,0.0257,0.0024
246,0.0046,0.0270,0.0287,0.0040
247,0.0044,0.0492,0.0504,0.0259
248,0.0044,0.0228,0.0287,0.0033
249,0.0029,0.0219,0.0257,0.0024
250,0.0029,0.0219,0.0257,0.0024
251,0.0044,0.0228,0.0287,0.0033
252,0.0060,0.0367,0.0349,0.0037
253,0.0029,0.0219,0.0257,0.0024
254,0.0044,0.0228,0.0287,0.0033
255,0.0029,0.0219,0.0257,0.0024
256,0.0029,0.0219,0.0257,0.0024
257,0.0046,0.0270,0.0287,0.0040
258,0.0049,0.0422,0.0488,0.0219
259,0.0042,0.0194,0.0290,0.0030
260,0.0041,0.0245,0.0300,0.0030
261,0.0105,0.0187,0.0355,0.0048
262,0.0063,0.0341,0.0406,0.0033
263,0.0054,0.0355,0.0342,0.0036
264,0.0056,0.0276,0.0289,0.0037
265,0.0067,0.0355,0.0418,0.0034
266,0.0061,0.0327,0.0381,0.0034
267,0.0049,0.0274,0.0363,0.0037
268,0.0042,0.0273,0.0318,0.0039
269,0.0041,0.0459,0.0494,0.0141
270,0.0032,0.0204,0.0238,0.0027
271,0.0041,0.0196,0.0240,0.0034
272,0.0033,0.0230,0.0251,0.0026
273,0.0036,0.0249,0.0261,0.0027
274,0.0051,0.0343,0.0336,0.0039
275,0.0039,0.0288,0.0289,0.0028
276,0.0042,0.0345,0.0351,0.0030
277,0.0052,0.0262,0.0279,0.0037
278,0.0039,0.0303,0.0305,0.0027
279,0.0069,0.0391,0.0362,0.0042
280,0.0066,0.0278,0.0354,0.0123
281,0.0062,0.0328,0.0344,0.0040
282,0.0044,0.0356,0.0363,0.0037
283,0.0031,0.0278,0.0266,0.0204
284,0.0048,0.0244,0.0208,0.0223
285,0.0053,0.0292,0.0281,0.0135
286,0.0053,0.0292,0.0281,0.0135
287,0.0053,0.0292,0.0281,0.0135
288,0.0053,0.0292,0.0281,0.0135
289,0.0053,0.0292,0.0281,0.0135
290,0.0053,0.0292,0.0281,0.0135
291,0.0066,0.0267,0.0336,0.0095
292,0.0024,0.0245,0.0289,0.0032
293,0.0024,0.0245,0.0289,0.0032
294,0.0043,0.0138,0.0174,0.0037
295,0.0026,0.0264,0.0298,0.0029
296,0.0044,0.0208,0.0217,0.0039
297,0.0041,0.0191,0.0217,0.0046
298,0.0030,0.0176,0.0186,0.0026
299,0.0034,0.0189,0.0193,0.0026
300,0.0047,0.0179,0.0199,0.0037
301,0.0047,0.0258,0.0262,0.0036
302,0.0063,0.0268,0.0325,0.0073
303,0.0035,0.0280,0.0289,0.0025
304,0.0056,0.0242,0.0254,0.0039
305,0.0040,0.0377,0.0390,0.0036
306,0.0040,0.0400,0.0415,0.0048
307,0.0046,0.0226,0.0229,0.0039
308,0.0030,0.0231,0.0263,0.0194
309,0.0032,0.0199,0.0170,0.0120
310,0.0060,0.0226,0.0176,0.0118
311,0.0033,0.0168,0.0199,0.0084
312,0.0052,0.0204,0.0211,0.0085
313,0.0056,0.0275,0.0332,0.0056
314,0.0108,0.0409,0.0257,0.0114
315,0.0048,0.0249,0.0192,0.0083
316,0.0044,0.0264,0.0230,0.0076
317,0.0055,0.0162,0.0150,0.0051
318,0.0040,0.0216,0.0237,0.0038
319,0.0030,0.0176,0.0186,0.0026
320,0.0053,0.0166,0.0178,0.0036
321,0.0029,0.0281,0.0326,0.0036
322,0.0035,0.0299,0.0324,0.0056
323,0.0060,0.0245,0.0245,0.0073
324,0.0037,0.0390,0.0425,0.0043
325,0.0049,0.0296,0.0265,0.0088
326,0.0054,0.0293,0.0254,0.0095
327,0.0079,0.0321,0.0290,0.0087
328,0.0064,0.0412,0.0355,0.0130
329,0.0064,0.0574,0.0600,0.0296
330,0.0087,0.0518,0.0449,0.0156
331,0.0034,0.0189,0.0193,0.0026
332,0.0024,0.0245,0.0289,0.0032
333,0.0043,0.0138,0.0174,0.0037
334,0.0040,0.0215,0.0235,0.0040
335,0.0060,0.0481,0.0455,0.0036
336,0.0051,0.0409,0.0450,0.0036
337,0.0024,0.0245,0.0289,0.0032
338,0.0043,0.0138,0.0174,0.0037
339,0.0024,0.0245,0.0289,0.0032
340,0.0024,0.0245,0.0289,0.0032
341,0.0040,0.0215,0.0235,0.0040
342,0.0024,0.0245,0.0289,0.0032
343,0.0024,0.0245,0.0289,0.0032
344,0.0047,0.0179,0.0199,0.0037
345,0.0024,0.0245,0.0289,0.0032
346,0.0040,0.0215,0.0235,0.0040
347,0.0056,0.0300,0.0344,0.0030
348,0.0043,0.0138,0.0174,0.0037
349,0.0024,0.0245,0.0289,0.0032
350,0.0024,0.0245,0.0289,0.0032
351,0.0043,0.0138,0.0174,0.0037
352,0.0040,0.0215,0.0235,0.0040
353,0.0024,0.0245,0.0289,0.0032
354,0.0043,0.0138,0.0174,0.0037
355,0.0024,0.0245,0.0289,0.0032
356,0.0033,0.0225,0.0231,0.0025
357,0.0040,0.0215,0.0235,0.0040
358,0.0061,0.0301,0.0341,0.0041
359,0.0024,0.0245,0.0289,0.0032
360,0.0024,0.0245,0.0289,0.0032
361,0.0043,0.0138,0.0174,0.0037
362,0.0024,0.0245,0.0289,0.0032
363,0.0040,0.0215,0.0235,0.0040
364,0.0043,0.0138,0.0174,0.0037
365,0.0024,0.0245,0.0289,0.0032
366,0.0024,0.0245,0.0289,0.0032
367,0.0043,0.0138,0.0174,0.0037
368,0.0053,0.0263,0.0266,0.0038
369,0.0069,0.0303,0.0341,0.0056
370,0.0024,0.0245,0.0289,0.0032
371,0.0043,0.0138,0.0174,0.0037
372,0.0024,0.0245,0.0289,0.0032
373,0.0024,0.0245,0.0289,0.0032
374,0.0040,0.0215,0.0235,0.0040
375,0.0041,0.0142,0.0334,0.0032
376,0.0044,0.0139,0.0236,0.0032
377,0.0106,0.0286,0.0504,0.0035
378,0.0069,0.0203,0.0226,0.0035
379,0.0047,0.0258,0.0262,0.0036
380,0.0057,0.0581,0.0625,0.0136
381,0.0056,0.0242,0.0254,0.0039
382,0.0072,0.0221,0.0240,0.0035
383,0.0064,0.0200,0.0216,0.0035
384,0.0053,0.0154,0.0195,0.0031
385,0.0036,0.0320,0.0374,0.0038
386,0.0027,0.0169,0.0206,0.0033
387,0.0040,0.0143,0.0171,0.0042
388,0.0029,0.0209,0.0229,0.0027
389,0.0030,0.0176,0.0186,0.0026
390,0.0045,0.0238,0.0241,0.0038
391,0.0082,0.0335,0.0384,0.0105
392,0.0034,0.0196,0.0199,0.0026
393,0.0040,0.0377,0.0390,0.0036
394,0.0050,0.0190,0.0207,0.0035
395,0.0035,0.0280,0.0289,0.0025
396,0.0063,0.0264,0.0262,0.0046
397,0.0064,0.0355,0.0366,0.0046
398,0.0040,0.0400,0.0415,0.0048
399,0.0030,0.0231,0.0263,0.0194
400,0.0046,0.0189,0.0172,0.0138
401,0.0051,0.0220,0.0219,0.0145
402,0.0085,0.0383,0.0443,0.0146
403,0.0051,0.0220,0.0219,0.0145
404,0.0051,0.0220,0.0219,0.0145
405,0.0051,0.0220,0.0219,0.0145
406,0.0051,0.0220,0.0219,0.0145
407,0.0051,0.0220,0.0219,0.0145
408,0.0024,0.0260,0.0316,0.0031
409,0.0024,0.0260,0.0316,0.0031
410,0.0045,0.0110,0.0142,0.0041
411,0.0025,0.0260,0.0304,0.0028
412,0.0045,0.0130,0.0152,0.0042
413,0.0086,0.0483,0.0529,0.0202
414,0.0041,0.0217,0.0252,0.0051
415,0.0030,0.0133,0.0153,0.0026
416,0.0034,0.0121,0.0132,0.0026
417,0.0047,0.0161,0.0185,0.0038
418,0.0047,0.0199,0.0226,0.0036
419,0.0036,0.0271,0.0288,0.0025
420,0.0056,0.0236,0.0253,0.0041
421,0.0042,0.0390,0.0410,0.0039
422,0.0041,0.0400,0.0424,0.0052
423,0.0047,0.0131,0.0143,0.0041
424,0.0087,0.0561,0.0560,0.0249
425,0.0030,0.0257,0.0296,0.0248
426,0.0033,0.0136,0.0120,0.0137
427,0.0057,0.0268,0.0205,0.0146
428,0.0031,0.0113,0.0100,0.0093
429,0.0052,0.0154,0.0152,0.0100
430,0.0105,0.0459,0.0311,0.0156
431,0.0044,0.0259,0.0195,0.0101
432,0.0040,0.0273,0.0238,0.0089
433,0.0052,0.0218,0.0177,0.0071
434,0.0040,0.0186,0.0217,0.0037
435,0.0060,0.0476,0.0356,0.0231
436,0.0030,0.0133,0.0153,0.0026
437,0.0056,0.0115,0.0142,0.0035
438,0.0029,0.0280,0.0346,0.0045
439,0.0034,0.0293,0.0340,0.0072
440,0.0063,0.0151,0.0144,0.0085
441,0.0047,0.0288,0.0274,0.0116
442,0.0053,0.0284,0.0245,0.0124
443,0.0077,0.0351,0.0337,0.0120
444,0.0065,0.0386,0.0329,0.0153
445,0.0062,0.0663,0.0727,0.0381
446,0.0044,0.0588,0.0616,0.0039
447,0.0091,0.0599,0.0462,0.0288
448,0.0083,0.0496,0.0432,0.0157
449,0.0034,0.0121,0.0132,0.0026
450,0.0024,0.0260,0.0316,0.0031
451,0.0045,0.0110,0.0142,0.0041
452,0.0040,0.0168,0.0202,0.0042
453,0.0024,0.0260,0.0316,0.0031
454,0.0045,0.0110,0.0142,0.0041
455,0.0024,0.0260,0.0316,0.0031
456,0.0024,0.0260,0.0316,0.0031
457,0.0040,0.0168,0.0202,0.0042
458,0.0052,0.0468,0.0502,0.0037
459,0.0024,0.0260,0.0316,0.0031
460,0.0024,0.0260,0.0316,0.0031
461,0.0047,0.0161,0.0185,0.0038
462,0.0024,0.0260,0.0316,0.0031
463,0.0040,0.0168,0.0202,0.0042
464,0.0045,0.0110,0.0142,0.0041
465,0.0024,0.0260,0.0316,0.0031
466,0.0024,0.0260,0.0316,0.0031
467,0.0045,0.0110,0.0142,0.0041
468,0.0040,0.0168,0.0202,0.0042
469,0.0053,0.0295,0.0345,0.0030
470,0.0024,0.0260,0.0316,0.0031
471,0.0045,0.0110,0.0142,0.0041
472,0.0024,0.0260,0.0316,0.0031
473,0.0033,0.0189,0.0206,0.0024
474,0.0040,0.0168,0.0202,0.0042
475,0.0024,0.0260,0.0316,0.0031
476,0.0024,0.0260,0.0316,0.0031
477,0.0045,0.0110,0.0142,0.0041
478,0.0024,0.0260,0.0316,0.0031
479,0.0040,0.0168,0.0202,0.0042
480,0.0053,0.0295,0.0345,0.0030
481,0.0045,0.0110,0.0142,0.0041
482,0.0024,0.0260,0.0316,0.0031
483,0.0024,0.0260,0.0316,0.0031
484,0.0045,0.0110,0.0142,0.0041
485,0.0053,0.0195,0.0225,0.0038
486,0.0024,0.0260,0.0316,0.0031
487,0.0045,0.0110,0.0142,0.0041
488,0.0024,0.0260,0.0316,0.0031
489,0.0024,0.0260,0.0316,0.0031
490,0.0040,0.0168,0.0202,0.0042
491,0.0038,0.0412,0.0448,0.0039
492,0.0041,0.0193,0.0446,0.0033
493,0.0047,0.0130,0.0310,0.0033
494,0.0105,0.0381,0.0638,0.0043
495,0.0075,0.0098,0.0165,0.0035
496,0.0047,0.0199,0.0226,0.0036
497,0.0056,0.0236,0.0253,0.0041
498,0.0078,0.0103,0.0122,0.0035
499,0.0070,0.0095,0.0116,0.0034
500,0.0057,0.0080,0.0107,0.0033
501,0.0035,0.0304,0.0371,0.0038
502,0.0053,0.0295,0.0345,0.0030
503,0.0027,0.0179,0.0237,0.0032
504,0.0039,0.0156,0.0190,0.0047
505,0.0027,0.0174,0.0203,0.0026
506,0.0030,0.0133,0.0153,0.0026
507,0.0045,0.0158,0.0177,0.0039
508,0.0034,0.0135,0.0147,0.0025
509,0.0042,0.0390,0.0410,0.0039
510,0.0049,0.0155,0.0176,0.0036
511,0.0036,0.0271,0.0288,0.0025
512,0.0063,0.0178,0.0206,0.0046
513,0.0053,0.0295,0.0345,0.0030
514,0.0066,0.0367,0.0380,0.0051
515,0.0041,0.0400,0.0424,0.0052
516,0.0030,0.0257,0.0296,0.0248
517,0.0045,0.0214,0.0200,0.0150
518,0.0051,0.0199,0.0202,0.0175
519,0.0051,0.0199,0.0202,0.0175
520,0.0051,0.0199,0.0202,0.0175
521,0.0051,0.0199,0.0202,0.0175
522,0.0051,0.0199,0.0202,0.0175
523,0.0051,0.0199,0.0202,0.0175
524,0.0053,0.0295,0.0345,0.0030
525,0.0023,0.0280,0.0347,0.0030
526,0.0023,0.0280,0.0347,0.0030
527,0.0046,0.0135,0.0179,0.0044
528,0.0024,0.0261,0.0313,0.0027
529,0.0045,0.0125,0.0159,0.0043
530,0.0040,0.0247,0.0292,0.0053
531,0.0031,0.0140,0.0168,0.0026
532,0.0034,0.0119,0.0141,0.0026
533,0.0046,0.0174,0.0201,0.0038
534,0.0047,0.0203,0.0240,0.0036
535,0.0053,0.0295,0.0345,0.0030
536,0.0035,0.0282,0.0304,0.0025
537,0.0056,0.0258,0.0278,0.0042
538,0.0041,0.0403,0.0426,0.0039
539,0.0041,0.0419,0.0446,0.0053
540,0.0048,0.0109,0.0134,0.0043
541,0.0030,0.0295,0.0331,0.0281
542,0.0033,0.0150,0.0139,0.0163
543,0.0056,0.0319,0.0252,0.0176
544,0.0031,0.0133,0.0091,0.0109
545,0.0052,0.0159,0.0152,0.0110
546,0.0038,0.0412,0.0448,0.0039
547,0.0102,0.0483,0.0342,0.0174
548,0.0040,0.0281,0.0222,0.0110
549,0.0037,0.0292,0.0263,0.0096
550,0.0050,0.0252,0.0216,0.0080
551,0.0040,0.0191,0.0229,0.0037
552,0.0031,0.0140,0.0168,0.0026
553,0.0058,0.0122,0.0173,0.0034
554,0.0028,0.0293,0.0369,0.0051
555,0.0034,0.0306,0.0365,0.0082
556,0.0065,0.0127,0.0122,0.0099
557,0.0048,0.0471,0.0317,0.0297
558,0.0053,0.0295,0.0345,0.0030
559,0.0047,0.0295,0.0288,0.0129
560,0.0053,0.0292,0.0256,0.0139
561,0.0075,0.0369,0.0363,0.0139
562,0.0066,0.0393,0.0336,0.0175
563,0.0060,0.0699,0.0769,0.0422
564,0.0083,0.0504,0.0444,0.0180
565,0.0034,0.0119,0.0141,0.0026
566,0.0023,0.0280,0.0347,0.0030
567,0.0046,0.0135,0.0179,0.0044
568,0.0041,0.0174,0.0216,0.0043
569,0.0053,0.0295,0.0345,0.0030
570,0.0023,0.0280,0.0347,0.0030
571,0.0046,0.0135,0.0179,0.0044
572,0.0023,0.0280,0.0347,0.0030
573,0.0023,0.0280,0.0347,0.0030
574,0.0041,0.0174,0.0216,0.0043
575,0.0023,0.0280,0.0347,0.0030
576,0.0023,0.0280,0.0347,0.0030
577,0.0046,0.0174,0.0201,0.0038
578,0.0023,0.0280,0.0347,0.0030
579,0.0041,0.0174,0.0216,0.0043
580,0.0053,0.0473,0.0497,0.0038
581,0.0046,0.0135,0.0179,0.0044
582,0.0023,0.0280,0.0347,0.0030
583,0.0023,0.0280,0.0347,0.0030
584,0.0046,0.0135,0.0179,0.0044
585,0.0041,0.0174,0.0216,0.0043
586,0.0023,0.0280,0.0347,0.0030
587,0.0046,0.0135,0.0179,0.0044
588,0.0023,0.0280,0.0347,0.0030
589,0.0032,0.0204,0.0227,0.0024
590,0.0041,0.0174,0.0216,0.0043
591,0.0053,0.0295,0.0345,0.0030
592,0.0023,0.0280,0.0347,0.0030
593,0.0023,0.0280,0.0347,0.0030
594,0.0046,0.0135,0.0179,0.0044
595,0.0023,0.0280,0.0347,0.0030
596,0.0041,0.0174,0.0216,0.0043
597,0.0046,0.0135,0.0179,0.0044
598,0.0023,0.0280,0.0347,0.0030
599,0.0023,0.0280,0.0347,0.0030
600,0.0046,0.0135,0.0179,0.0044
601,0.0054,0.0193,0.0235,0.0037
602,0.0038,0.0412,0.0448,0.0039
603,0.0023,0.0280,0.0347,0.0030
604,0.0046,0.0135,0.0179,0.0044
605,0.0023,0.0280,0.0347,0.0030
606,0.0023,0.0280,0.0347,0.0030
607,0.0041,0.0174,0.0216,0.0043
608,0.0042,0.0223,0.0497,0.0033
609,0.0049,0.0159,0.0368,0.0033
610,0.0104,0.0423,0.0698,0.0048
611,0.0078,0.0088,0.0207,0.0035
612,0.0047,0.0203,0.0240,0.0036
613,0.0053,0.0295,0.0345,0.0030
614,0.0056,0.0258,0.0278,0.0042
615,0.0081,0.0072,0.0141,0.0035
616,0.0074,0.0069,0.0129,0.0033
617,0.0060,0.0099,0.0149,0.0036
618,0.0035,0.0309,0.0385,0.0040
619,0.0027,0.0198,0.0268,0.0031
620,0.0040,0.0174,0.0218,0.0048
621,0.0027,0.0183,0.0219,0.0025
622,0.0031,0.0140,0.0168,0.0026
623,0.0045,0.0162,0.0192,0.0040
624,0.0053,0.0295,0.0345,0.0030
625,0.0034,0.0138,0.0159,0.0025
626,0.0041,0.0403,0.0426,0.0039
627,0.0049,0.0170,0.0194,0.0037
628,0.0035,0.0282,0.0304,0.0025
629,0.0064,0.0173,0.0218,0.0045
630,0.0066,0.0392,0.0407,0.0052
631,0.0041,0.0419,0.0446,0.0053
632,0.0030,0.0295,0.0331,0.0281
633,0.0045,0.0261,0.0245,0.0181
634,0.0051,0.0220,0.0223,0.0193
635,0.0053,0.0295,0.0345,0.0030
636,0.0051,0.0220,0.0223,0.0193
637,0.0051,0.0220,0.0223,0.0193
638,0.0051,0.0220,0.0223,0.0193
639,0.0051,0.0220,0.0223,0.0193
640,0.0051,0.0220,0.0223,0.0193
641,0.0036,0.0240,0.0275,0.0024
642,0.0036,0.0240,0.0275,0.0024
643,0.0045,0.0291,0.0377,0.0036
644,0.0039,0.0239,0.0267,0.0026
645,0.0057,0.0404,0.0416,0.0037
646,0.0053,0.0295,0.0345,0.0030
647,0.0044,0.0236,0.0284,0.0035
648,0.0045,0.0326,0.0339,0.0027
649,0.0048,0.0381,0.0386,0.0027
650,0.0053,0.0283,0.0309,0.0038
651,0.0064,0.0474,0.0439,0.0038
652,0.0047,0.0361,0.0346,0.0027
653,0.0060,0.0332,0.0334,0.0040
654,0.0051,0.0361,0.0339,0.0033
655,0.0053,0.0365,0.0339,0.0040
656,0.0060,0.0448,0.0450,0.0037
657,0.0038,0.0412,0.0448,0.0039
658,0.0034,0.0422,0.0283,0.0270
659,0.0036,0.0479,0.0395,0.0267
660,0.0059,0.0255,0.0252,0.0255
661,0.0035,0.0365,0.0397,0.0188
662,0.0058,0.0388,0.0394,0.0116
663,0.0100,0.0289,0.0231,0.0118
664,0.0041,0.0256,0.0272,0.0071
665,0.0037,0.0249,0.0271,0.0055
666,0.0054,0.0220,0.0309,0.0071
667,0.0054,0.0313,0.0334,0.0038
668,0.0044,0.0552,0.0471,0.0322
669,0.0053,0.0295,0.0345,0.0030
670,0.0045,0.0326,0.0339,0.0027
671,0.0054,0.0333,0.0399,0.0034
672,0.0039,0.0247,0.0267,0.0036
673,0.0040,0.0257,0.0269,0.0051
674,0.0066,0.0527,0.0557,0.0137
675,0.0048,0.0318,0.0330,0.0102
676,0.0054,0.0388,0.0411,0.0151
677,0.0075,0.0364,0.0397,0.0176
678,0.0067,0.0627,0.0597,0.0281
679,0.0065,0.0631,0.0520,0.0366
680,0.0053,0.0295,0.0345,0.0030
681,0.0091,0.0689,0.0631,0.0360
682,0.0048,0.0381,0.0386,0.0027
683,0.0036,0.0240,0.0275,0.0024
684,0.0045,0.0291,0.0377,0.0036
685,0.0054,0.0331,0.0349,0.0038
686,0.0036,0.0240,0.0275,0.0024
687,0.0045,0.0291,0.0377,0.0036
688,0.0036,0.0240,0.0275,0.0024
689,0.0036,0.0240,0.0275,0.0024
690,0.0054,0.0331,0.0349,0.0038
691,0.0053,0.0295,0.0345,0.0030
692,0.0036,0.0240,0.0275,0.0024
693,0.0036,0.0240,0.0275,0.0024
694,0.0053,0.0283,0.0309,0.0038
695,0.0036,0.0240,0.0275,0.0024
696,0.0054,0.0331,0.0349,0.0038
697,0.0045,0.0291,0.0377,0.0036
698,0.0036,0.0240,0.0275,0.0024
699,0.0036,0.0240,0.0275,0.0024
700,0.0045,0.0291,0.0377,0.0036
701,0.0054,0.0331,0.0349,0.0038
702,0.0053,0.0452,0.0467,0.0038
703,0.0036,0.0240,0.0275,0.0024
704,0.0045,0.0291,0.0377,0.0036
705,0.0036,0.0240,0.0275,0.0024
706,0.0046,0.0379,0.0368,0.0027
707,0.0054,0.0331,0.0349,0.0038
708,0.0036,0.0240,0.0275,0.0024
709,0.0036,0.0240,0.0275,0.0024
710,0.0045,0.0291,0.0377,0.0036
711,0.0036,0.0240,0.0275,0.0024
712,0.0054,0.0331,0.0349,0.0038
713,0.0038,0.0412,0.0448,0.0039
714,0.0045,0.0291,0.0377,0.0036
715,0.0036,0.0240,0.0275,0.0024
716,0.0036,0.0240,0.0275,0.0024
717,0.0045,0.0291,0.0377,0.0036
718,0.0070,0.0498,0.0453,0.0042
719,0.0036,0.0240,0.0275,0.0024
720,0.0045,0.0291,0.0377,0.0036
721,0.0036,0.0240,0.0275,0.0024
722,0.0036,0.0240,0.0275,0.0024
723,0.0054,0.0331,0.0349,0.0038
724,0.0053,0.0295,0.0345,0.0030
725,0.0048,0.0228,0.0329,0.0029
726,0.0037,0.0282,0.0369,0.0032
727,0.0117,0.0190,0.0333,0.0058
728,0.0053,0.0377,0.0483,0.0038
729,0.0064,0.0474,0.0439,0.0038
730,0.0060,0.0332,0.0334,0.0040
731,0.0061,0.0407,0.0511,0.0038
732,0.0057,0.0386,0.0478,0.0036
733,0.0047,0.0318,0.0444,0.0042
734,0.0049,0.0278,0.0313,0.0039
735,0.0053,0.0295,0.0345,0.0030
736,0.0038,0.0269,0.0313,0.0026
737,0.0043,0.0260,0.0324,0.0035
738,0.0042,0.0256,0.0275,0.0027
739,0.0045,0.0326,0.0339,0.0027
740,0.0061,0.0468,0.0452,0.0037
741,0.0048,0.0393,0.0389,0.0027
742,0.0051,0.0361,0.0339,0.0033
743,0.0056,0.0342,0.0359,0.0040
744,0.0047,0.0361,0.0346,0.0027
745,0.0078,0.0537,0.0478,0.0050
746,0.0053,0.0295,0.0345,0.0030
747,0.0066,0.0306,0.0310,0.0042
748,0.0053,0.0365,0.0339,0.0040
749,0.0034,0.0422,0.0283,0.0270
750,0.0045,0.0386,0.0308,0.0338
751,0.0057,0.0387,0.0350,0.0156
752,0.0057,0.0387,0.0350,0.0156
753,0.0057,0.0387,0.0350,0.0156
754,0.0057,0.0387,0.0350,0.0156
755,0.0057,0.0387,0.0350,0.0156
756,0.0057,0.0387,0.0350,0.0156
757,0.0053,0.0295,0.0345,0.0030
758,0.0028,0.0237,0.0267,0.0029
759,0.0028,0.0237,0.0267,0.0029
760,0.0043,0.0244,0.0319,0.0036
761,0.0030,0.0257,0.0283,0.0026
762,0.0050,0.0362,0.0374,0.0037
763,0.0042,0.0216,0.0254,0.0038
764,0.0036,0.0294,0.0307,0.0027
765,0.0040,0.0341,0.0348,0.0026
766,0.0049,0.0269,0.0295,0.0037
767,0.0054,0.0408,0.0384,0.0040
768,0.0038,0.0412,0.0448,0.0039
769,0.0037,0.0322,0.0315,0.0026
770,0.0055,0.0294,0.0301,0.0037
771,0.0041,0.0334,0.0331,0.0036
772,0.0042,0.0339,0.0335,0.0047
773,0.0052,0.0394,0.0397,0.0037
774,0.0033,0.0346,0.0244,0.0203
775,0.0035,0.0419,0.0357,0.0209
776,0.0058,0.0227,0.0235,0.0204
777,0.0034,0.0334,0.0380,0.0154
778,0.0055,0.0346,0.0360,0.0097
779,0.0045,0.0540,0.0538,0.0304
780,0.0053,0.0295,0.0345,0.0030
781,0.0103,0.0307,0.0213,0.0089
782,0.0044,0.0252,0.0247,0.0063
783,0.0040,0.0257,0.0256,0.0054
784,0.0056,0.0199,0.0262,0.0056
785,0.0046,0.0297,0.0318,0.0037
786,0.0036,0.0294,0.0307,0.0027
787,0.0052,0.0283,0.0336,0.0038
788,0.0033,0.0254,0.0270,0.0034
789,0.0036,0.0266,0.0265,0.0044
790,0.0064,0.0467,0.0485,0.0113
791,0.0053,0.0295,0.0345,0.0030
792,0.0048,0.0303,0.0287,0.0080
793,0.0054,0.0354,0.0352,0.0117
794,0.0076,0.0334,0.0339,0.0136
795,0.0067,0.0569,0.0527,0.0223
796,0.0065,0.0518,0.0418,0.0278
797,0.0087,0.0651,0.0585,0.0293
798,0.0040,0.0341,0.0348,0.0026
799,0.0028,0.0237,0.0267,0.0029
800,0.0043,0.0244,0.0319,0.0036
801,0.0046,0.0311,0.0329,0.0037
802,0.0053,0.0295,0.0345,0.0030
803,0.0028,0.0237,0.0267,0.0029
804,0.0043,0.0244,0.0319,0.0036
805,0.0028,0.0237,0.0267,0.0029
806,0.0028,0.0237,0.0267,0.0029
807,0.0046,0.0311,0.0329,0.0037
808,0.0028,0.0237,0.0267,0.0029
809,0.0028,0.0237,0.0267,0.0029
810,0.0049,0.0269,0.0295,0.0037
811,0.0028,0.0237,0.0267,0.0029
812,0.0046,0.0311,0.0329,0.0037
813,0.0053,0.0295,0.0345,0.0030
814,0.0043,0.0244,0.0319,0.0036
815,0.0028,0.0237,0.0267,0.0029
816,0.0028,0.0237,0.0267,0.0029
817,0.0043,0.0244,0.0319,0.0036
818,0.0046,0.0311,0.0329,0.0037
819,0.0028,0.0237,0.0267,0.0029
820,0.0043,0.0244,0.0319,0.0036
821,0.0028,0.0237,0.0267,0.0029
822,0.0037,0.0328,0.0323,0.0025
823,0.0046,0.0311,0.0329,0.0037
824,0.0061,0.0555,0.0531,0.0039
825,0.0028,0.0237,0.0267,0.0029
826,0.0028,0.0237,0.0267,0.0029
827,0.0043,0.0244,0.0319,0.0036
828,0.0028,0.0237,0.0267,0.0029
829,0.0046,0.0311,0.0329,0.0037
830,0.0043,0.0244,0.0319,0.0036
831,0.0028,0.0237,0.0267,0.0029
832,0.0028,0.0237,0.0267,0.0029
833,0.0043,0.0244,0.0319,0.0036
834,0.0061,0.0421,0.0388,0.0046
835,0.0053,0.0295,0.0345,0.0030
836,0.0028,0.0237,0.0267,0.0029
837,0.0043,0.0244,0.0319,0.0036
838,0.0028,0.0237,0.0267,0.0029
839,0.0028,0.0237,0.0267,0.0029
840,0.0046,0.0311,0.0329,0.0037
841,0.0048,0.0186,0.0319,0.0032
842,0.0036,0.0226,0.0310,0.0036
843,0.0118,0.0224,0.0400,0.0040
844,0.0054,0.0319,0.0404,0.0039
845,0.0054,0.0408,0.0384,0.0040
846,0.0053,0.0295,0.0345,0.0030
847,0.0055,0.0294,0.0301,0.0037
848,0.0061,0.0346,0.0430,0.0040
849,0.0056,0.0329,0.0404,0.0039
850,0.0047,0.0262,0.0368,0.0036
851,0.0041,0.0297,0.0333,0.0037
852,0.0031,0.0237,0.0274,0.0032
853,0.0041,0.0222,0.0277,0.0037
854,0.0033,0.0252,0.0269,0.0026
855,0.0036,0.0294,0.0307,0.0027
856,0.0052,0.0404,0.0392,0.0037
857,0.0053,0.0295,0.0345,0.0030
858,0.0039,0.0340,0.0339,0.0026
859,0.0041,0.0334,0.0331,0.0036
860,0.0052,0.0309,0.0328,0.0037
861,0.0037,0.0322,0.0315,0.0026
862,0.0070,0.0455,0.0408,0.0057
863,0.0061,0.0300,0.0310,0.0041
864,0.0042,0.0339,0.0335,0.0047
865,0.0033,0.0346,0.0244,0.0203
866,0.0045,0.0333,0.0277,0.0270
867,0.0054,0.0335,0.0312,0.0129
868,0.0053,0.0295,0.0345,0.0030
869,0.0054,0.0335,0.0312,0.0129
870,0.0054,0.0335,0.0312,0.0129
871,0.0054,0.0335,0.0312,0.0129
872,0.0054,0.0335,0.0312,0.0129
873,0.0054,0.0335,0.0312,0.0129
874,0.0025,0.0213,0.0238,0.0036
875,0.0025,0.0213,0.0238,0.0036
876,0.0043,0.0159,0.0209,0.0038
877,0.0027,0.0232,0.0251,0.0033
878,0.0046,0.0261,0.0266,0.0037
879,0.0038,0.0412,0.0448,0.0039
880,0.0042,0.0172,0.0195,0.0046
881,0.0032,0.0207,0.0215,0.0027
882,0.0036,0.0248,0.0250,0.0027
883,0.0048,0.0199,0.0223,0.0038
884,0.0049,0.0270,0.0255,0.0042
885,0.0036,0.0229,0.0229,0.0031
886,0.0056,0.0213,0.0222,0.0040
887,0.0040,0.0288,0.0297,0.0048
888,0.0040,0.0303,0.0317,0.0061
889,0.0049,0.0289,0.0287,0.0036
890,0.0050,0.0457,0.0511,0.0253
891,0.0085,0.0284,0.0356,0.0039
892,0.0032,0.0222,0.0166,0.0139
893,0.0035,0.0299,0.0265,0.0121
894,0.0054,0.0156,0.0166,0.0120
895,0.0032,0.0236,0.0295,0.0094
896,0.0054,0.0243,0.0266,0.0076
897,0.0103,0.0326,0.0182,0.0091
898,0.0047,0.0208,0.0169,0.0073
899,0.0043,0.0227,0.0195,0.0070
900,0.0055,0.0155,0.0172,0.0052
901,0.0042,0.0219,0.0235,0.0039
902,0.0073,0.0355,0.0440,0.0040
903,0.0032,0.0207,0.0215,0.0027
904,0.0052,0.0190,0.0216,0.0039
905,0.0030,0.0239,0.0265,0.0029
906,0.0035,0.0249,0.0261,0.0040
907,0.0065,0.0349,0.0354,0.0073
908,0.0048,0.0247,0.0227,0.0063
909,0.0054,0.0285,0.0271,0.0079
910,0.0075,0.0287,0.0265,0.0081
911,0.0069,0.0466,0.0418,0.0136
912,0.0065,0.0467,0.0465,0.0223
913,0.0069,0.0414,0.0517,0.0042
914,0.0082,0.0566,0.0500,0.0187
915,0.0036,0.0248,0.0250,0.0027
916,0.0025,0.0213,0.0238,0.0036
917,0.0043,0.0159,0.0209,0.0038
918,0.0042,0.0224,0.0238,0.0037
919,0.0025,0.0213,0.0238,0.0036
920,0.0043,0.0159,0.0209,0.0038
921,0.0025,0.0213,0.0238,0.0036
922,0.0025,0.0213,0.0238,0.0036
923,0.0042,0.0224,0.0238,0.0037
924,0.0069,0.0468,0.0583,0.0044
925,0.0025,0.0213,0.0238,0.0036
926,0.0025,0.0213,0.0238,0.0036
927,0.0048,0.0199,0.0223,0.0038
928,0.0025,0.0213,0.0238,0.0036
929,0.0042,0.0224,0.0238,0.0037
930,0.0043,0.0159,0.0209,0.0038
931,0.0025,0.0213,0.0238,0.0036
932,0.0025,0.0213,0.0238,0.0036
933,0.0043,0.0159,0.0209,0.0038
934,0.0042,0.0224,0.0238,0.0037
935,0.0052,0.0538,0.0524,0.0038
936,0.0025,0.0213,0.0238,0.0036
937,0.0043,0.0159,0.0209,0.0038
938,0.0025,0.0213,0.0238,0.0036
939,0.0034,0.0223,0.0219,0.0028
940,0.0042,0.0224,0.0238,0.0037
941,0.0025,0.0213,0.0238,0.0036
942,0.0025,0.0213,0.0238,0.0036
943,0.0043,0.0159,0.0209,0.0038
944,0.0025,0.0213,0.0238,0.0036
945,0.0042,0.0224,0.0238,0.0037
946,0.0055,0.0410,0.0406,0.0034
947,0.0043,0.0159,0.0209,0.0038
948,0.0025,0.0213,0.0238,0.0036
949,0.0025,0.0213,0.0238,0.0036
950,0.0043,0.0159,0.0209,0.0038
951,0.0055,0.0286,0.0264,0.0049
952,0.0025,0.0213,0.0238,0.0036
953,0.0043,0.0159,0.0209,0.0038
954,0.0025,0.0213,0.0238,0.0036
955,0.0025,0.0213,0.0238,0.0036
956,0.0042,0.0224,0.0238,0.0037
957,0.0064,0.0503,0.0620,0.0043
958,0.0046,0.0180,0.0373,0.0038
959,0.0037,0.0153,0.0265,0.0039
960,0.0120,0.0341,0.0550,0.0039
961,0.0060,0.0195,0.0239,0.0040
962,0.0049,0.0270,0.0255,0.0042
963,0.0056,0.0213,0.0222,0.0040
964,0.0066,0.0225,0.0263,0.0040
965,0.0060,0.0210,0.0245,0.0039
966,0.0049,0.0156,0.0215,0.0033
967,0.0037,0.0290,0.0328,0.0038
968,0.0059,0.0486,0.0594,0.0041
969,0.0027,0.0174,0.0200,0.0037
970,0.0040,0.0155,0.0191,0.0043
971,0.0030,0.0187,0.0198,0.0029
972,0.0032,0.0207,0.0215,0.0027
973,0.0047,0.0275,0.0265,0.0037
974,0.0036,0.0241,0.0237,0.0026
975,0.0040,0.0288,0.0297,0.0048
976,0.0050,0.0233,0.0253,0.0036
977,0.0036,0.0229,0.0229,0.0031
978,0.0065,0.0303,0.0270,0.0060
979,0.0053,0.0451,0.0546,0.0037
980,0.0063,0.0260,0.0269,0.0050
981,0.0040,0.0303,0.0317,0.0061
982,0.0032,0.0222,0.0166,0.0139
983,0.0044,0.0232,0.0205,0.0162
984,0.0052,0.0223,0.0217,0.0115
985,0.0052,0.0223,0.0217,0.0115
986,0.0052,0.0223,0.0217,0.0115
987,0.0052,0.0223,0.0217,0.0115
988,0.0052,0.0223,0.0217,0.0115
989,0.0052,0.0223,0.0217,0.0115
990,0.0046,0.0336,0.0375,0.0040
991,0.0024,0.0191,0.0224,0.0033
992,0.0024,0.0191,0.0224,0.0033
993,0.0044,0.0110,0.0140,0.0042
994,0.0026,0.0194,0.0220,0.0030
995,0.0048,0.0153,0.0153,0.0036
996,0.0041,0.0166,0.0189,0.0049
997,0.0033,0.0123,0.0125,0.0025
998,0.0037,0.0151,0.0146,0.0025
999,0.0047,0.0147,0.0171,0.0036
1000,0.0049,0.0153,0.0154,0.0039
1001,0.0042,0.0507,0.0533,0.0165
1002,0.0050,0.0338,0.0402,0.0031
1003,0.0036,0.0163,0.0174,0.0030
1004,0.0055,0.0162,0.0177,0.0041
1005,0.0041,0.0251,0.0272,0.0049
1006,0.0041,0.0253,0.0281,0.0062
1007,0.0051,0.0178,0.0170,0.0036
1008,0.0032,0.0147,0.0138,0.0162
1009,0.0037,0.0178,0.0153,0.0092
1010,0.0051,0.0141,0.0116,0.0103
1011,0.0032,0.0115,0.0162,0.0070
1012,0.0054,0.0144,0.0161,0.0079
1013,0.0053,0.0293,0.0334,0.0031
1014,0.0099,0.0363,0.0209,0.0124
1015,0.0041,0.0191,0.0131,0.0084
1016,0.0038,0.0209,0.0166,0.0077
1017,0.0051,0.0184,0.0147,0.0065
1018,0.0041,0.0142,0.0160,0.0037
1019,0.0033,0.0123,0.0125,0.0025
1020,0.0056,0.0125,0.0141,0.0036
1021,0.0029,0.0201,0.0243,0.0032
1022,0.0034,0.0203,0.0231,0.0050
1023,0.0070,0.0227,0.0219,0.0058
1024,0.0052,0.0325,0.0365,0.0033
1025,0.0047,0.0205,0.0184,0.0078
1026,0.0056,0.0237,0.0207,0.0081
1027,0.0072,0.0282,0.0257,0.0087
1028,0.0072,0.0387,0.0335,0.0109
1029,0.0065,0.0474,0.0511,0.0279
1030,0.0081,0.0502,0.0439,0.0142
1031,0.0037,0.0151,0.0146,0.0025
1032,0.0024,0.0191,0.0224,0.0033
1033,0.0044,0.0110,0.0140,0.0042
1034,0.0043,0.0137,0.0152,0.0037
1035,0.0051,0.0409,0.0450,0.0036
1036,0.0024,0.0191,0.0224,0.0033
1037,0.0044,0.0110,0.0140,0.0042
1038,0.0024,0.0191,0.0224,0.0033
1039,0.0024,0.0191,0.0224,0.0033
1040,0.0043,0.0137,0.0152,0.0037
1041,0.0024,0.0191,0.0224,0.0033
1042,0.0024,0.0191,0.0224,0.0033
1043,0.0047,0.0147,0.0171,0.0036
1044,0.0024,0.0191,0.0224,0.0033
1045,0.0043,0.0137,0.0152,0.0037
1046,0.0044,0.0538,0.0543,0.0038
1047,0.0044,0.0110,0.0140,0.0042
1048,0.0024,0.0191,0.0224,0.0033
1049,0.0024,0.0191,0.0224,0.0033
1050,0.0044,0.0110,0.0140,0.0042
1051,0.0043,0.0137,0.0152,0.0037
1052,0.0024,0.0191,0.0224,0.0033
1053,0.0044,0.0110,0.0140,0.0042
1054,0.0024,0.0191,0.0224,0.0033
1055,0.0033,0.0133,0.0135,0.0026
1056,0.0043,0.0137,0.0152,0.0037
1057,0.0053,0.0473,0.0497,0.0038
1058,0.0024,0.0191,0.0224,0.0033
1059,0.0024,0.0191,0.0224,0.0033
1060,0.0044,0.0110,0.0140,0.0042
1061,0.0024,0.0191,0.0224,0.0033
1062,0.0043,0.0137,0.0152,0.0037
1063,0.0044,0.0110,0.0140,0.0042
1064,0.0024,0.0191,0.0224,0.0033
1065,0.0024,0.0191,0.0224,0.0033
1066,0.0044,0.0110,0.0140,0.0042
1067,0.0056,0.0163,0.0159,0.0046
1068,0.0057,0.0404,0.0392,0.0032
1069,0.0024,0.0191,0.0224,0.0033
1070,0.0044,0.0110,0.0140,0.0042
1071,0.0024,0.0191,0.0224,0.0033
1072,0.0024,0.0191,0.0224,0.0033
1073,0.0043,0.0137,0.0152,0.0037
1074,0.0045,0.0233,0.0468,0.0038
1075,0.0039,0.0163,0.0327,0.0039
1076,0.0120,0.0429,0.0668,0.0052
1077,0.0065,0.0105,0.0171,0.0040
1078,0.0049,0.0153,0.0154,0.0039
1079,0.0053,0.0452,0.0467,0.0038
1080,0.0055,0.0162,0.0177,0.0041
1081,0.0072,0.0110,0.0132,0.0039
1082,0.0066,0.0109,0.0128,0.0037
1083,0.0053,0.0088,0.0114,0.0036
1084,0.0036,0.0240,0.0288,0.0036
1085,0.0027,0.0148,0.0184,0.0034
1086,0.0040,0.0138,0.0165,0.0046
1087,0.0029,0.0119,0.0132,0.0026
1088,0.0033,0.0123,0.0125,0.0025
1089,0.0047,0.0159,0.0153,0.0035
1090,0.0054,0.0422,0.0428,0.0037
1091,0.0036,0.0146,0.0139,0.0025
1092,0.0041,0.0251,0.0272,0.0049
1093,0.0050,0.0166,0.0183,0.0035
1094,0.0036,0.0163,0.0174,0.0030
1095,0.0066,0.0177,0.0156,0.0057
1096,0.0064,0.0239,0.0252,0.0052
1097,0.0041,0.0253,0.0281,0.0062
1098,0.0032,0.0147,0.0138,0.0162
1099,0.0044,0.0142,0.0124,0.0114
1100,0.0052,0.0140,0.0144,0.0133
1101,0.0073,0.0596,0.0559,0.0044
1102,0.0052,0.0140,0.0144,0.0133
1103,0.0052,0.0140,0.0144,0.0133
1104,0.0052,0.0140,0.0144,0.0133
1105,0.0052,0.0140,0.0144,0.0133
1106,0.0052,0.0140,0.0144,0.0133
1107,0.0023,0.0210,0.0254,0.0032
1108,0.0023,0.0210,0.0254,0.0032
1109,0.0046,0.0119,0.0151,0.0043
1110,0.0024,0.0178,0.0211,0.0028
1111,0.0049,0.0105,0.0111,0.0037
1112,0.0053,0.0344,0.0403,0.0031
1113,0.0064,0.0315,0.0390,0.0146
1114,0.0057,0.0404,0.0392,0.0032
1115,0.0040,0.0192,0.0221,0.0050
1116,0.0033,0.0097,0.0105,0.0025
1117,0.0038,0.0112,0.0107,0.0025
1118,0.0047,0.0142,0.0166,0.0037
1119,0.0050,0.0119,0.0138,0.0038
1120,0.0034,0.0165,0.0183,0.0029
1121,0.0054,0.0165,0.0182,0.0041
1122,0.0040,0.0256,0.0282,0.0048
1123,0.0040,0.0266,0.0299,0.0062
1124,0.0053,0.0126,0.0119,0.0036
1125,0.0059,0.0406,0.0385,0.0031
1126,0.0033,0.0148,0.0160,0.0189
1127,0.0037,0.0125,0.0099,0.0102
1128,0.0051,0.0183,0.0136,0.0121
1129,0.0033,0.0078,0.0100,0.0078
1130,0.0055,0.0111,0.0121,0.0084
1131,0.0096,0.0390,0.0243,0.0140
1132,0.0037,0.0202,0.0137,0.0088
1133,0.0035,0.0223,0.0182,0.0082
1134,0.0049,0.0214,0.0174,0.0073
1135,0.0042,0.0133,0.0158,0.0037
1136,0.0048,0.0394,0.0273,0.0227
1137,0.0033,0.0097,0.0105,0.0025
1138,0.0058,0.0118,0.0148,0.0035
1139,0.0029,0.0205,0.0258,0.0037
1140,0.0034,0.0208,0.0246,0.0058
1141,0.0073,0.0164,0.0152,0.0060
1142,0.0048,0.0201,0.0183,0.0087
1143,0.0057,0.0231,0.0195,0.0092
1144,0.0071,0.0296,0.0276,0.0102
1145,0.0074,0.0369,0.0314,0.0114
1146,0.0065,0.0493,0.0535,0.0311
1147,0.0044,0.0488,0.0428,0.0265
1148,0.0081,0.0488,0.0425,0.0143
1149,0.0038,0.0112,0.0107,0.0025
1150,0.0023,0.0210,0.0254,0.0032
1151,0.0046,0.0119,0.0151,0.0043
1152,0.0043,0.0116,0.0142,0.0037
1153,0.0023,0.0210,0.0254,0.0032
1154,0.0046,0.0119,0.0151,0.0043
1155,0.0023,0.0210,0.0254,0.0032
1156,0.0023,0.0210,0.0254,0.0032
1157,0.0043,0.0116,0.0142,0.0037
1158,0.0040,0.0421,0.0398,0.0161
1159,0.0023,0.0210,0.0254,0.0032
1160,0.0023,0.0210,0.0254,0.0032
1161,0.0047,0.0142,0.0166,0.0037
1162,0.0023,0.0210,0.0254,0.0032
1163,0.0043,0.0116,0.0142,0.0037
1164,0.0046,0.0119,0.0151,0.0043
1165,0.0023,0.0210,0.0254,0.0032
1166,0.0023,0.0210,0.0254,0.0032
1167,0.0046,0.0119,0.0151,0.0043
1168,0.0043,0.0116,0.0142,0.0037
1169,0.0040,0.0421,0.0398,0.0161
1170,0.0023,0.0210,0.0254,0.0032
1171,0.0046,0.0119,0.0151,0.0043
1172,0.0023,0.0210,0.0254,0.0032
1173,0.0033,0.0119,0.0130,0.0025
1174,0.0043,0.0116,0.0142,0.0037
1175,0.0023,0.0210,0.0254,0.0032
1176,0.0023,0.0210,0.0254,0.0032
1177,0.0046,0.0119,0.0151,0.0043
1178,0.0023,0.0210,0.0254,0.0032
1179,0.0043,0.0116,0.0142,0.0037
1180,0.0040,0.0421,0.0398,0.0161
1181,0.0046,0.0119,0.0151,0.0043
1182,0.0023,0.0210,0.0254,0.0032
1183,0.0023,0.0210,0.0254,0.0032
1184,0.0046,0.0119,0.0151,0.0043
1185,0.0057,0.0121,0.0137,0.0045
1186,0.0023,0.0210,0.0254,0.0032
1187,0.0046,0.0119,0.0151,0.0043
1188,0.0023,0.0210,0.0254,0.0032
1189,0.0023,0.0210,0.0254,0.0032
1190,0.0043,0.0116,0.0142,0.0037
1191,0.0040,0.0421,0.0398,0.0161
1192,0.0045,0.0262,0.0515,0.0038
1193,0.0040,0.0188,0.0376,0.0038
1194,0.0119,0.0466,0.0719,0.0057
1195,0.0068,0.0102,0.0205,0.0040
1196,0.0050,0.0119,0.0138,0.0038
1197,0.0054,0.0165,0.0182,0.0041
1198,0.0076,0.0079,0.0132,0.0039
1199,0.0070,0.0077,0.0118,0.0037
1200,0.0056,0.0102,0.0137,0.0038
1201,0.0035,0.0236,0.0292,0.0036
1202,0.0040,0.0421,0.0398,0.0161
1203,0.0028,0.0158,0.0205,0.0032
1204,0.0040,0.0145,0.0177,0.0046
1205,0.0029,0.0117,0.0138,0.0025
1206,0.0033,0.0097,0.0105,0.0025
1207,0.0048,0.0111,0.0119,0.0035
1208,0.0036,0.0109,0.0106,0.0024
1209,0.0040,0.0256,0.0282,0.0048
1210,0.0050,0.0149,0.0168,0.0035
1211,0.0034,0.0165,0.0183,0.0029
1212,0.0068,0.0127,0.0128,0.0056
1213,0.0040,0.0421,0.0398,0.0161
1214,0.0064,0.0261,0.0276,0.0053
1215,0.0040,0.0266,0.0299,0.0062
1216,0.0033,0.0148,0.0160,0.0189
1217,0.0044,0.0139,0.0122,0.0119
1218,0.0053,0.0125,0.0131,0.0146
1219,0.0053,0.0125,0.0131,0.0146
1220,0.0053,0.0125,0.0131,0.0146
1221,0.0053,0.0125,0.0131,0.0146
1222,0.0053,0.0125,0.0131,0.0146
1223,0.0053,0.0125,0.0131,0.0146
1224,0.0064,0.0303,0.0375,0.0114
1225,0.0053,0.0208,0.0240,0.0031
1226,0.0053,0.0208,0.0240,0.0031
1227,0.0053,0.0208,0.0240,0.0031
1228,0.0054,0.0210,0.0239,0.0030
1229,0.0038,0.0376,0.0396,0.0039
1230,0.0051,0.0238,0.0269,0.0031
1231,0.0050,0.0312,0.0343,0.0033
1232,0.0051,0.0361,0.0387,0.0034
1233,0.0052,0.0365,0.0385,0.0034
1234,0.0051,0.0380,0.0366,0.0038
1235,0.0059,0.0306,0.0376,0.0089
1236,0.0055,0.0288,0.0295,0.0032
1237,0.0057,0.0273,0.0274,0.0031
1238,0.0059,0.0268,0.0261,0.0031
1239,0.0061,0.0275,0.0260,0.0034
1240,0.0040,0.0411,0.0425,0.0039
1241,0.0048,0.0261,0.0181,0.0141
1242,0.0044,0.0353,0.0317,0.0175
1243,0.0043,0.0360,0.0386,0.0181
1244,0.0045,0.0300,0.0371,0.0156
1245,0.0041,0.0334,0.0374,0.0101
1246,0.0054,0.0312,0.0379,0.0066
1247,0.0062,0.0186,0.0259,0.0094
1248,0.0065,0.0184,0.0232,0.0077
1249,0.0063,0.0189,0.0226,0.0064
1250,0.0057,0.0193,0.0229,0.0051
1251,0.0035,0.0300,0.0324,0.0041
1252,0.0050,0.0312,0.0343,0.0033
1253,0.0056,0.0212,0.0240,0.0029
1254,0.0061,0.0220,0.0245,0.0036
1255,0.0069,0.0224,0.0246,0.0048
1256,0.0059,0.0436,0.0463,0.0097
1257,0.0040,0.0430,0.0468,0.0047
1258,0.0081,0.0237,0.0268,0.0081
1259,0.0083,0.0277,0.0318,0.0105
1260,0.0085,0.0346,0.0377,0.0136
1261,0.0087,0.0404,0.0399,0.0162
1262,0.0057,0.0347,0.0321,0.0158
1263,0.0087,0.0425,0.0319,0.0163
1264,0.0051,0.0361,0.0387,0.0034
1265,0.0053,0.0208,0.0240,0.0031
1266,0.0053,0.0208,0.0240,0.0031
1267,0.0037,0.0315,0.0337,0.0039
1268,0.0052,0.0454,0.0496,0.0040
1269,0.0053,0.0208,0.0240,0.0031
1270,0.0053,0.0208,0.0240,0.0031
1271,0.0053,0.0208,0.0240,0.0031
1272,0.0053,0.0208,0.0240,0.0031
1273,0.0037,0.0315,0.0337,0.0039
1274,0.0053,0.0208,0.0240,0.0031
1275,0.0053,0.0208,0.0240,0.0031
1276,0.0052,0.0365,0.0385,0.0034
1277,0.0053,0.0208,0.0240,0.0031
1278,0.0037,0.0315,0.0337,0.0039
1279,0.0057,0.0346,0.0400,0.0029
1280,0.0053,0.0208,0.0240,0.0031
1281,0.0053,0.0208,0.0240,0.0031
1282,0.0053,0.0208,0.0240,0.0031
1283,0.0053,0.0208,0.0240,0.0031
1284,0.0037,0.0315,0.0337,0.0039
1285,0.0053,0.0208,0.0240,0.0031
1286,0.0053,0.0208,0.0240,0.0031
1287,0.0053,0.0208,0.0240,0.0031
1288,0.0053,0.0326,0.0339,0.0034
1289,0.0037,0.0315,0.0337,0.0039
1290,0.0062,0.0342,0.0395,0.0043
1291,0.0053,0.0208,0.0240,0.0031
1292,0.0053,0.0208,0.0240,0.0031
1293,0.0053,0.0208,0.0240,0.0031
1294,0.0053,0.0208,0.0240,0.0031
1295,0.0037,0.0315,0.0337,0.0039
1296,0.0053,0.0208,0.0240,0.0031
1297,0.0053,0.0208,0.0240,0.0031
1298,0.0053,0.0208,0.0240,0.0031
1299,0.0053,0.0208,0.0240,0.0031
1300,0.0060,0.0398,0.0373,0.0040
1301,0.0068,0.0343,0.0400,0.0063
1302,0.0053,0.0208,0.0240,0.0031
1303,0.0053,0.0208,0.0240,0.0031
1304,0.0053,0.0208,0.0240,0.0031
1305,0.0053,0.0208,0.0240,0.0031
1306,0.0037,0.0315,0.0337,0.0039
1307,0.0084,0.0176,0.0266,0.0038
1308,0.0075,0.0219,0.0264,0.0039
1309,0.0074,0.0264,0.0305,0.0041
1310,0.0076,0.0306,0.0351,0.0043
1311,0.0051,0.0380,0.0366,0.0038
1312,0.0057,0.0648,0.0705,0.0159
1313,0.0057,0.0273,0.0274,0.0031
1314,0.0071,0.0343,0.0394,0.0043
1315,0.0064,0.0332,0.0382,0.0040
1316,0.0056,0.0309,0.0356,0.0037
1317,0.0046,0.0266,0.0291,0.0039
1318,0.0049,0.0231,0.0269,0.0031
1319,0.0054,0.0210,0.0239,0.0030
1320,0.0051,0.0238,0.0269,0.0031
1321,0.0050,0.0312,0.0343,0.0033
1322,0.0043,0.0390,0.0391,0.0038
1323,0.0054,0.0328,0.0376,0.0034
1324,0.0081,0.0380,0.0454,0.0126
1325,0.0052,0.0365,0.0385,0.0034
1326,0.0059,0.0268,0.0261,0.0031
1327,0.0053,0.0326,0.0339,0.0034
1328,0.0055,0.0288,0.0295,0.0032
1329,0.0072,0.0424,0.0388,0.0046
1330,0.0059,0.0268,0.0261,0.0031
1331,0.0061,0.0275,0.0260,0.0034
1332,0.0048,0.0261,0.0181,0.0141
1333,0.0044,0.0353,0.0317,0.0175
1334,0.0039,0.0291,0.0287,0.0116
1335,0.0085,0.0437,0.0516,0.0177
1336,0.0039,0.0291,0.0287,0.0116
1337,0.0039,0.0291,0.0287,0.0116
1338,0.0039,0.0291,0.0287,0.0116
1339,0.0039,0.0291,0.0287,0.0116
1340,0.0039,0.0291,0.0287,0.0116
1341,0.0051,0.0145,0.0171,0.0029
1342,0.0051,0.0145,0.0171,0.0029
1343,0.0051,0.0145,0.0171,0.0029
1344,0.0051,0.0145,0.0168,0.0029
1345,0.0039,0.0242,0.0245,0.0041
1346,0.0086,0.0542,0.0601,0.0243
1347,0.0049,0.0152,0.0174,0.0030
1348,0.0049,0.0194,0.0212,0.0032
1349,0.0051,0.0234,0.0247,0.0033
1350,0.0052,0.0236,0.0247,0.0033
1351,0.0052,0.0230,0.0215,0.0038
1352,0.0054,0.0172,0.0181,0.0031
1353,0.0056,0.0171,0.0176,0.0030
1354,0.0058,0.0178,0.0179,0.0031
1355,0.0059,0.0182,0.0178,0.0035
1356,0.0042,0.0272,0.0272,0.0041
1357,0.0088,0.0640,0.0648,0.0305
1358,0.0048,0.0186,0.0141,0.0153
1359,0.0044,0.0225,0.0193,0.0136
1360,0.0043,0.0214,0.0237,0.0137
1361,0.0043,0.0155,0.0215,0.0122
1362,0.0040,0.0203,0.0235,0.0084
1363,0.0054,0.0117,0.0150,0.0088
1364,0.0057,0.0134,0.0139,0.0076
1365,0.0056,0.0146,0.0145,0.0065
1366,0.0052,0.0146,0.0154,0.0052
1367,0.0034,0.0199,0.0208,0.0040
1368,0.0059,0.0615,0.0495,0.0331
1369,0.0049,0.0194,0.0212,0.0032
1370,0.0055,0.0152,0.0181,0.0028
1371,0.0060,0.0158,0.0184,0.0039
1372,0.0067,0.0162,0.0182,0.0055
1373,0.0064,0.0286,0.0297,0.0081
1374,0.0079,0.0158,0.0171,0.0086
1375,0.0083,0.0175,0.0195,0.0098
1376,0.0086,0.0208,0.0222,0.0115
1377,0.0089,0.0257,0.0245,0.0129
1378,0.0055,0.0331,0.0361,0.0226
1379,0.0093,0.0701,0.0563,0.0382
1380,0.0086,0.0328,0.0256,0.0160
1381,0.0051,0.0234,0.0247,0.0033
1382,0.0051,0.0145,0.0171,0.0029
1383,0.0051,0.0145,0.0171,0.0029
1384,0.0037,0.0209,0.0216,0.0041
1385,0.0051,0.0145,0.0171,0.0029
1386,0.0051,0.0145,0.0171,0.0029
1387,0.0051,0.0145,0.0171,0.0029
1388,0.0051,0.0145,0.0171,0.0029
1389,0.0037,0.0209,0.0216,0.0041
1390,0.0053,0.0519,0.0554,0.0041
1391,0.0051,0.0145,0.0171,0.0029
1392,0.0051,0.0145,0.0171,0.0029
1393,0.0052,0.0236,0.0247,0.0033
1394,0.0051,0.0145,0.0171,0.0029
1395,0.0037,0.0209,0.0216,0.0041
1396,0.0051,0.0145,0.0171,0.0029
1397,0.0051,0.0145,0.0171,0.0029
1398,0.0051,0.0145,0.0171,0.0029
1399,0.0051,0.0145,0.0171,0.0029
1400,0.0037,0.0209,0.0216,0.0041
1401,0.0053,0.0344,0.0403,0.0031
1402,0.0051,0.0145,0.0171,0.0029
1403,0.0051,0.0145,0.0171,0.0029
1404,0.0051,0.0145,0.0171,0.0029
1405,0.0052,0.0200,0.0211,0.0032
1406,0.0037,0.0209,0.0216,0.0041
1407,0.0051,0.0145,0.0171,0.0029
1408,0.0051,0.0145,0.0171,0.0029
1409,0.0051,0.0145,0.0171,0.0029
1410,0.0051,0.0145,0.0171,0.0029
1411,0.0037,0.0209,0.0216,0.0041
1412,0.0053,0.0344,0.0403,0.0031
1413,0.0051,0.0145,0.0171,0.0029
1414,0.0051,0.0145,0.0171,0.0029
1415,0.0051,0.0145,0.0171,0.0029
1416,0.0051,0.0145,0.0171,0.0029
1417,0.0061,0.0244,0.0220,0.0040
1418,0.0051,0.0145,0.0171,0.0029
1419,0.0051,0.0145,0.0171,0.0029
1420,0.0051,0.0145,0.0171,0.0029
1421,0.0051,0.0145,0.0171,0.0029
1422,0.0037,0.0209,0.0216,0.0041
1423,0.0042,0.0451,0.0493,0.0040
1424,0.0084,0.0155,0.0321,0.0038
1425,0.0077,0.0138,0.0229,0.0039
1426,0.0078,0.0150,0.0190,0.0041
1427,0.0080,0.0168,0.0182,0.0043
1428,0.0052,0.0230,0.0215,0.0038
1429,0.0056,0.0171,0.0176,0.0030
1430,0.0077,0.0190,0.0193,0.0043
1431,0.0071,0.0188,0.0192,0.0040
1432,0.0062,0.0174,0.0181,0.0036
1433,0.0044,0.0207,0.0230,0.0040
1434,0.0042,0.0539,0.0576,0.0040
1435,0.0053,0.0344,0.0403,0.0031
1436,0.0049,0.0137,0.0159,0.0030
1437,0.0051,0.0145,0.0168,0.0029
1438,0.0049,0.0152,0.0174,0.0030
1439,0.0049,0.0194,0.0212,0.0032
1440,0.0044,0.0248,0.0242,0.0039
1441,0.0052,0.0236,0.0247,0.0033
1442,0.0058,0.0178,0.0179,0.0031
1443,0.0052,0.0200,0.0211,0.0032
1444,0.0054,0.0172,0.0181,0.0031
1445,0.0075,0.0269,0.0232,0.0045
1446,0.0053,0.0344,0.0403,0.0031
1447,0.0058,0.0178,0.0179,0.0031
1448,0.0059,0.0182,0.0178,0.0035
1449,0.0048,0.0186,0.0141,0.0153
1450,0.0044,0.0225,0.0193,0.0136
1451,0.0039,0.0171,0.0174,0.0113
1452,0.0039,0.0171,0.0174,0.0113
1453,0.0039,0.0171,0.0174,0.0113
1454,0.0039,0.0171,0.0174,0.0113
1455,0.0039,0.0171,0.0174,0.0113
1456,0.0039,0.0171,0.0174,0.0113
1457,0.0053,0.0344,0.0403,0.0031
1458,0.0050,0.0147,0.0179,0.0029
1459,0.0050,0.0147,0.0179,0.0029
1460,0.0050,0.0147,0.0179,0.0029
1461,0.0049,0.0129,0.0155,0.0029
1462,0.0040,0.0176,0.0174,0.0042
1463,0.0048,0.0116,0.0135,0.0030
1464,0.0049,0.0137,0.0152,0.0032
1465,0.0052,0.0166,0.0177,0.0033
1466,0.0052,0.0169,0.0178,0.0033
1467,0.0053,0.0164,0.0151,0.0038
1468,0.0053,0.0344,0.0403,0.0031
1469,0.0053,0.0141,0.0152,0.0031
1470,0.0055,0.0151,0.0161,0.0030
1471,0.0057,0.0166,0.0172,0.0031
1472,0.0058,0.0166,0.0169,0.0036
1473,0.0045,0.0199,0.0193,0.0042
1474,0.0048,0.0185,0.0163,0.0180
1475,0.0044,0.0170,0.0135,0.0138
1476,0.0043,0.0144,0.0158,0.0131
1477,0.0043,0.0095,0.0141,0.0118
1478,0.0041,0.0141,0.0164,0.0085
1479,0.0042,0.0451,0.0493,0.0040
1480,0.0051,0.0114,0.0106,0.0091
1481,0.0054,0.0146,0.0117,0.0082
1482,0.0053,0.0154,0.0133,0.0069
1483,0.0050,0.0149,0.0147,0.0054
1484,0.0034,0.0160,0.0165,0.0040
1485,0.0049,0.0137,0.0152,0.0032
1486,0.0054,0.0155,0.0194,0.0030
1487,0.0059,0.0153,0.0189,0.0044
1488,0.0067,0.0156,0.0184,0.0062
1489,0.0066,0.0204,0.0207,0.0082
1490,0.0053,0.0344,0.0403,0.0031
1491,0.0079,0.0138,0.0143,0.0094
1492,0.0084,0.0138,0.0140,0.0104
1493,0.0086,0.0162,0.0158,0.0120
1494,0.0089,0.0208,0.0183,0.0133
1495,0.0054,0.0351,0.0390,0.0265
1496,0.0086,0.0312,0.0258,0.0186
1497,0.0052,0.0166,0.0177,0.0033
1498,0.0050,0.0147,0.0179,0.0029
1499,0.0050,0.0147,0.0179,0.0029
1500,0.0038,0.0161,0.0163,0.0043
1501,0.0053,0.0344,0.0403,0.0031
1502,0.0050,0.0147,0.0179,0.0029
1503,0.0050,0.0147,0.0179,0.0029
1504,0.0050,0.0147,0.0179,0.0029
1505,0.0050,0.0147,0.0179,0.0029
1506,0.0038,0.0161,0.0163,0.0043
1507,0.0050,0.0147,0.0179,0.0029
1508,0.0050,0.0147,0.0179,0.0029
1509,0.0052,0.0169,0.0178,0.0033
1510,0.0050,0.0147,0.0179,0.0029
1511,0.0038,0.0161,0.0163,0.0043
1512,0.0054,0.0537,0.0562,0.0043
1513,0.0050,0.0147,0.0179,0.0029
1514,0.0050,0.0147,0.0179,0.0029
1515,0.0050,0.0147,0.0179,0.0029
1516,0.0050,0.0147,0.0179,0.0029
1517,0.0038,0.0161,0.0163,0.0043
1518,0.0050,0.0147,0.0179,0.0029
1519,0.0050,0.0147,0.0179,0.0029
1520,0.0050,0.0147,0.0179,0.0029
1521,0.0052,0.0146,0.0159,0.0032
1522,0.0038,0.0161,0.0163,0.0043
1523,0.0053,0.0344,0.0403,0.0031
1524,0.0050,0.0147,0.0179,0.0029
1525,0.0050,0.0147,0.0179,0.0029
1526,0.0050,0.0147,0.0179,0.0029
1527,0.0050,0.0147,0.0179,0.0029
1528,0.0038,0.0161,0.0163,0.0043
1529,0.0050,0.0147,0.0179,0.0029
1530,0.0050,0.0147,0.0179,0.0029
1531,0.0050,0.0147,0.0179,0.0029
1532,0.0050,0.0147,0.0179,0.0029
1533,0.0063,0.0172,0.0150,0.0040
1534,0.0042,0.0451,0.0493,0.0040
1535,0.0050,0.0147,0.0179,0.0029
1536,0.0050,0.0147,0.0179,0.0029
1537,0.0050,0.0147,0.0179,0.0029
1538,0.0050,0.0147,0.0179,0.0029
1539,0.0038,0.0161,0.0163,0.0043
1540,0.0084,0.0171,0.0371,0.0038
1541,0.0078,0.0135,0.0270,0.0039
1542,0.0079,0.0123,0.0204,0.0041
1543,0.0083,0.0124,0.0167,0.0044
1544,0.0053,0.0164,0.0151,0.0038
1545,0.0053,0.0363,0.0406,0.0037
1546,0.0053,0.0344,0.0403,0.0031
1547,0.0055,0.0151,0.0161,0.0030
1548,0.0081,0.0131,0.0135,0.0043
1549,0.0074,0.0128,0.0127,0.0040
1550,0.0064,0.0118,0.0123,0.0036
1551,0.0043,0.0196,0.0224,0.0041
1552,0.0049,0.0115,0.0143,0.0029
1553,0.0049,0.0129,0.0155,0.0029
1554,0.0048,0.0116,0.0135,0.0030
1555,0.0049,0.0137,0.0152,0.0032
1556,0.0045,0.0173,0.0167,0.0040
1557,0.0053,0.0344,0.0403,0.0031
1558,0.0052,0.0169,0.0178,0.0033
1559,0.0057,0.0166,0.0172,0.0031
1560,0.0052,0.0146,0.0159,0.0032
1561,0.0053,0.0141,0.0152,0.0031
1562,0.0077,0.0192,0.0158,0.0045
1563,0.0057,0.0166,0.0172,0.0031
1564,0.0058,0.0166,0.0169,0.0036
1565,0.0048,0.0185,0.0163,0.0180
1566,0.0044,0.0170,0.0135,0.0138
1567,0.0039,0.0129,0.0132,0.0125
1568,0.0053,0.0344,0.0403,0.0031
1569,0.0039,0.0129,0.0132,0.0125
1570,0.0039,0.0129,0.0132,0.0125
1571,0.0039,0.0129,0.0132,0.0125
1572,0.0039,0.0129,0.0132,0.0125
1573,0.0039,0.0129,0.0132,0.0125
1574,0.0039,0.0240,0.0271,0.0028
1575,0.0039,0.0240,0.0271,0.0028
1576,0.0037,0.0344,0.0431,0.0043
1577,0.0040,0.0224,0.0249,0.0035
1578,0.0046,0.0392,0.0408,0.0044
1579,0.0053,0.0344,0.0403,0.0031
1580,0.0039,0.0247,0.0298,0.0040
1581,0.0044,0.0318,0.0334,0.0040
1582,0.0047,0.0365,0.0376,0.0041
1583,0.0048,0.0280,0.0310,0.0050
1584,0.0058,0.0455,0.0434,0.0044
1585,0.0048,0.0348,0.0341,0.0047
1586,0.0056,0.0327,0.0336,0.0056
1587,0.0052,0.0346,0.0329,0.0045
1588,0.0054,0.0356,0.0334,0.0043
1589,0.0050,0.0431,0.0441,0.0044
1590,0.0042,0.0451,0.0493,0.0040
1591,0.0035,0.0328,0.0258,0.0254
1592,0.0033,0.0380,0.0301,0.0246
1593,0.0072,0.0229,0.0210,0.0235
1594,0.0038,0.0320,0.0346,0.0185
1595,0.0046,0.0375,0.0380,0.0123
1596,0.0111,0.0275,0.0216,0.0130
1597,0.0048,0.0232,0.0252,0.0079
1598,0.0043,0.0227,0.0254,0.0062
1599,0.0055,0.0228,0.0339,0.0088
1600,0.0043,0.0300,0.0317,0.0047
1601,0.0053,0.0344,0.0403,0.0031
1602,0.0044,0.0318,0.0334,0.0040
1603,0.0047,0.0393,0.0456,0.0029
1604,0.0043,0.0234,0.0259,0.0037
1605,0.0045,0.0235,0.0256,0.0050
1606,0.0051,0.0474,0.0516,0.0114
1607,0.0056,0.0275,0.0297,0.0091
1608,0.0062,0.0331,0.0362,0.0132
1609,0.0085,0.0312,0.0358,0.0163
1610,0.0071,0.0527,0.0504,0.0246
1611,0.0060,0.0585,0.0520,0.0365
1612,0.0053,0.0344,0.0403,0.0031
1613,0.0109,0.0594,0.0541,0.0327
1614,0.0047,0.0365,0.0376,0.0041
1615,0.0039,0.0240,0.0271,0.0028
1616,0.0037,0.0344,0.0431,0.0043
1617,0.0043,0.0316,0.0334,0.0045
1618,0.0039,0.0240,0.0271,0.0028
1619,0.0037,0.0344,0.0431,0.0043
1620,0.0039,0.0240,0.0271,0.0028
1621,0.0039,0.0240,0.0271,0.0028
1622,0.0043,0.0316,0.0334,0.0045
1623,0.0053,0.0344,0.0403,0.0031
1624,0.0039,0.0240,0.0271,0.0028
1625,0.0039,0.0240,0.0271,0.0028
1626,0.0048,0.0280,0.0310,0.0050
1627,0.0039,0.0240,0.0271,0.0028
1628,0.0043,0.0316,0.0334,0.0045
1629,0.0037,0.0344,0.0431,0.0043
1630,0.0039,0.0240,0.0271,0.0028
1631,0.0039,0.0240,0.0271,0.0028
1632,0.0037,0.0344,0.0431,0.0043
1633,0.0043,0.0316,0.0334,0.0045
1634,0.0054,0.0519,0.0533,0.0044
1635,0.0039,0.0240,0.0271,0.0028
1636,0.0037,0.0344,0.0431,0.0043
1637,0.0039,0.0240,0.0271,0.0028
1638,0.0047,0.0363,0.0361,0.0045
1639,0.0043,0.0316,0.0334,0.0045
1640,0.0039,0.0240,0.0271,0.0028
1641,0.0039,0.0240,0.0271,0.0028
1642,0.0037,0.0344,0.0431,0.0043
1643,0.0039,0.0240,0.0271,0.0028
1644,0.0043,0.0316,0.0334,0.0045
1645,0.0042,0.0451,0.0493,0.0040
1646,0.0037,0.0344,0.0431,0.0043
1647,0.0039,0.0240,0.0271,0.0028
1648,0.0039,0.0240,0.0271,0.0028
1649,0.0037,0.0344,0.0431,0.0043
1650,0.0065,0.0477,0.0449,0.0041
1651,0.0039,0.0240,0.0271,0.0028
1652,0.0037,0.0344,0.0431,0.0043
1653,0.0039,0.0240,0.0271,0.0028
1654,0.0039,0.0240,0.0271,0.0028
1655,0.0043,0.0316,0.0334,0.0045
1656,0.0052,0.0454,0.0496,0.0040
1657,0.0053,0.0344,0.0403,0.0031
1658,0.0046,0.0313,0.0362,0.0035
1659,0.0043,0.0381,0.0452,0.0033
1660,0.0103,0.0175,0.0247,0.0078
1661,0.0058,0.0480,0.0585,0.0034
1662,0.0058,0.0455,0.0434,0.0044
1663,0.0056,0.0327,0.0336,0.0056
1664,0.0061,0.0497,0.0598,0.0033
1665,0.0056,0.0464,0.0551,0.0031
1666,0.0040,0.0410,0.0541,0.0055
1667,0.0040,0.0263,0.0294,0.0043
1668,0.0053,0.0344,0.0403,0.0031
1669,0.0038,0.0284,0.0322,0.0025
1670,0.0036,0.0298,0.0366,0.0041
1671,0.0042,0.0247,0.0265,0.0038
1672,0.0044,0.0318,0.0334,0.0040
1673,0.0052,0.0445,0.0440,0.0046
1674,0.0048,0.0379,0.0383,0.0043
1675,0.0052,0.0346,0.0329,0.0045
1676,0.0051,0.0345,0.0369,0.0054
1677,0.0048,0.0348,0.0341,0.0047
1678,0.0076,0.0515,0.0477,0.0040
1679,0.0053,0.0344,0.0403,0.0031
1680,0.0062,0.0301,0.0306,0.0056
1681,0.0054,0.0356,0.0334,0.0043
1682,0.0035,0.0328,0.0258,0.0254
1683,0.0051,0.0277,0.0220,0.0299
1684,0.0046,0.0352,0.0318,0.0157
1685,0.0046,0.0352,0.0318,0.0157
1686,0.0046,0.0352,0.0318,0.0157
1687,0.0046,0.0352,0.0318,0.0157
1688,0.0046,0.0352,0.0318,0.0157
1689,0.0046,0.0352,0.0318,0.0157
1690,0.0053,0.0344,0.0403,0.0031
1691,0.0033,0.0214,0.0245,0.0025
1692,0.0033,0.0214,0.0245,0.0025
1693,0.0036,0.0286,0.0362,0.0037
1694,0.0035,0.0223,0.0248,0.0027
1695,0.0039,0.0341,0.0354,0.0041
1696,0.0038,0.0206,0.0251,0.0036
1697,0.0038,0.0276,0.0291,0.0033
1698,0.0041,0.0316,0.0327,0.0034
1699,0.0044,0.0259,0.0290,0.0042
1700,0.0050,0.0381,0.0365,0.0038
1701,0.0042,0.0451,0.0493,0.0040
1702,0.0041,0.0302,0.0297,0.0034
1703,0.0052,0.0286,0.0299,0.0043
1704,0.0045,0.0318,0.0308,0.0030
1705,0.0046,0.0324,0.0312,0.0030
1706,0.0042,0.0372,0.0379,0.0041
1707,0.0034,0.0271,0.0257,0.0195
1708,0.0033,0.0316,0.0260,0.0187
1709,0.0070,0.0218,0.0193,0.0180
1710,0.0038,0.0279,0.0316,0.0147
1711,0.0043,0.0326,0.0339,0.0099
1712,0.0053,0.0344,0.0403,0.0031
1713,0.0114,0.0305,0.0207,0.0096
1714,0.0051,0.0227,0.0227,0.0064
1715,0.0046,0.0226,0.0231,0.0051
1716,0.0056,0.0188,0.0281,0.0067
1717,0.0035,0.0275,0.0292,0.0040
1718,0.0038,0.0276,0.0291,0.0033
1719,0.0045,0.0331,0.0378,0.0031
1720,0.0039,0.0227,0.0246,0.0034
1721,0.0044,0.0237,0.0239,0.0046
1722,0.0049,0.0405,0.0429,0.0092
1723,0.0053,0.0344,0.0403,0.0031
1724,0.0057,0.0270,0.0248,0.0075
1725,0.0062,0.0303,0.0294,0.0102
1726,0.0086,0.0279,0.0288,0.0124
1727,0.0070,0.0458,0.0415,0.0185
1728,0.0062,0.0461,0.0384,0.0283
1729,0.0104,0.0547,0.0480,0.0255
1730,0.0041,0.0316,0.0327,0.0034
1731,0.0033,0.0214,0.0245,0.0025
1732,0.0036,0.0286,0.0362,0.0037
1733,0.0035,0.0288,0.0303,0.0041
1734,0.0053,0.0344,0.0403,0.0031
1735,0.0033,0.0214,0.0245,0.0025
1736,0.0036,0.0286,0.0362,0.0037
1737,0.0033,0.0214,0.0245,0.0025
1738,0.0033,0.0214,0.0245,0.0025
1739,0.0035,0.0288,0.0303,0.0041
1740,0.0033,0.0214,0.0245,0.0025
1741,0.0033,0.0214,0.0245,0.0025
1742,0.0044,0.0259,0.0290,0.0042
1743,0.0033,0.0214,0.0245,0.0025
1744,0.0035,0.0288,0.0303,0.0041
1745,0.0053,0.0344,0.0403,0.0031
1746,0.0036,0.0286,0.0362,0.0037
1747,0.0033,0.0214,0.0245,0.0025
1748,0.0033,0.0214,0.0245,0.0025
1749,0.0036,0.0286,0.0362,0.0037
1750,0.0035,0.0288,0.0303,0.0041
1751,0.0033,0.0214,0.0245,0.0025
1752,0.0036,0.0286,0.0362,0.0037
1753,0.0033,0.0214,0.0245,0.0025
1754,0.0041,0.0308,0.0308,0.0035
1755,0.0035,0.0288,0.0303,0.0041
1756,0.0064,0.0643,0.0616,0.0039
1757,0.0033,0.0214,0.0245,0.0025
1758,0.0033,0.0214,0.0245,0.0025
1759,0.0036,0.0286,0.0362,0.0037
1760,0.0033,0.0214,0.0245,0.0025
1761,0.0035,0.0288,0.0303,0.0041
1762,0.0036,0.0286,0.0362,0.0037
1763,0.0033,0.0214,0.0245,0.0025
1764,0.0033,0.0214,0.0245,0.0025
1765,0.0036,0.0286,0.0362,0.0037
1766,0.0057,0.0392,0.0370,0.0037
1767,0.0053,0.0519,0.0554,0.0041
1768,0.0053,0.0344,0.0403,0.0031
1769,0.0033,0.0214,0.0245,0.0025
1770,0.0036,0.0286,0.0362,0.0037
1771,0.0033,0.0214,0.0245,0.0025
1772,0.0033,0.0214,0.0245,0.0025
1773,0.0035,0.0288,0.0303,0.0041
1774,0.0046,0.0241,0.0294,0.0033
1775,0.0044,0.0307,0.0357,0.0032
1776,0.0103,0.0147,0.0265,0.0061
1777,0.0061,0.0410,0.0488,0.0033
1778,0.0050,0.0381,0.0365,0.0038
1779,0.0053,0.0344,0.0403,0.0031
1780,0.0052,0.0286,0.0299,0.0043
1781,0.0062,0.0428,0.0505,0.0033
1782,0.0056,0.0397,0.0464,0.0032
1783,0.0041,0.0344,0.0452,0.0045
1784,0.0033,0.0262,0.0295,0.0039
1785,0.0033,0.0231,0.0264,0.0026
1786,0.0035,0.0241,0.0300,0.0036
1787,0.0036,0.0230,0.0248,0.0030
1788,0.0038,0.0276,0.0291,0.0033
1789,0.0044,0.0375,0.0370,0.0041
1790,0.0053,0.0344,0.0403,0.0031
1791,0.0041,0.0321,0.0326,0.0035
1792,0.0045,0.0318,0.0308,0.0030
1793,0.0047,0.0304,0.0330,0.0045
1794,0.0041,0.0302,0.0297,0.0034
1795,0.0068,0.0423,0.0390,0.0038
1796,0.0059,0.0289,0.0296,0.0041
1797,0.0046,0.0324,0.0312,0.0030
1798,0.0034,0.0271,0.0257,0.0195
1799,0.0051,0.0237,0.0204,0.0227
1800,0.0043,0.0300,0.0283,0.0128
1801,0.0053,0.0344,0.0403,0.0031
1802,0.0043,0.0300,0.0283,0.0128
1803,0.0043,0.0300,0.0283,0.0128
1804,0.0043,0.0300,0.0283,0.0128
1805,0.0043,0.0300,0.0283,0.0128
1806,0.0043,0.0300,0.0283,0.0128
1807,0.0032,0.0194,0.0225,0.0030
1808,0.0032,0.0194,0.0225,0.0030
1809,0.0036,0.0177,0.0224,0.0034
1810,0.0034,0.0215,0.0239,0.0029
1811,0.0035,0.0233,0.0240,0.0041
1812,0.0042,0.0451,0.0493,0.0040
1813,0.0038,0.0158,0.0191,0.0041
1814,0.0036,0.0186,0.0196,0.0030
1815,0.0038,0.0212,0.0218,0.0031
1816,0.0044,0.0192,0.0221,0.0039
1817,0.0045,0.0251,0.0242,0.0036
1818,0.0042,0.0232,0.0231,0.0028
1819,0.0054,0.0212,0.0226,0.0038
1820,0.0046,0.0303,0.0299,0.0028
1821,0.0046,0.0320,0.0317,0.0035
1822,0.0039,0.0254,0.0256,0.0041
1823,0.0085,0.0351,0.0434,0.0041
1824,0.0034,0.0227,0.0259,0.0182
1825,0.0032,0.0197,0.0167,0.0118
1826,0.0067,0.0221,0.0173,0.0120
1827,0.0035,0.0175,0.0217,0.0092
1828,0.0043,0.0217,0.0235,0.0077
1829,0.0115,0.0354,0.0211,0.0099
1830,0.0054,0.0207,0.0164,0.0071
1831,0.0049,0.0211,0.0184,0.0063
1832,0.0054,0.0129,0.0172,0.0052
1833,0.0031,0.0206,0.0220,0.0039
1834,0.0073,0.0428,0.0540,0.0041
1835,0.0036,0.0186,0.0196,0.0030
1836,0.0046,0.0217,0.0232,0.0032
1837,0.0038,0.0227,0.0259,0.0035
1838,0.0044,0.0248,0.0264,0.0052
1839,0.0050,0.0272,0.0280,0.0070
1840,0.0057,0.0248,0.0219,0.0080
1841,0.0060,0.0248,0.0218,0.0089
1842,0.0085,0.0248,0.0224,0.0083
1843,0.0069,0.0361,0.0307,0.0122
1844,0.0062,0.0508,0.0521,0.0273
1845,0.0068,0.0486,0.0620,0.0043
1846,0.0096,0.0467,0.0398,0.0157
1847,0.0038,0.0212,0.0218,0.0031
1848,0.0032,0.0194,0.0225,0.0030
1849,0.0036,0.0177,0.0224,0.0034
1850,0.0031,0.0210,0.0223,0.0041
1851,0.0032,0.0194,0.0225,0.0030
1852,0.0036,0.0177,0.0224,0.0034
1853,0.0032,0.0194,0.0225,0.0030
1854,0.0032,0.0194,0.0225,0.0030
1855,0.0031,0.0210,0.0223,0.0041
1856,0.0067,0.0539,0.0686,0.0045
1857,0.0032,0.0194,0.0225,0.0030
1858,0.0032,0.0194,0.0225,0.0030
1859,0.0044,0.0192,0.0221,0.0039
1860,0.0032,0.0194,0.0225,0.0030
1861,0.0031,0.0210,0.0223,0.0041
1862,0.0036,0.0177,0.0224,0.0034
1863,0.0032,0.0194,0.0225,0.0030
1864,0.0032,0.0194,0.0225,0.0030
1865,0.0036,0.0177,0.0224,0.0034
1866,0.0031,0.0210,0.0223,0.0041
1867,0.0055,0.0621,0.0606,0.0039
1868,0.0032,0.0194,0.0225,0.0030
1869,0.0036,0.0177,0.0224,0.0034
1870,0.0032,0.0194,0.0225,0.0030
1871,0.0039,0.0208,0.0208,0.0029
1872,0.0031,0.0210,0.0223,0.0041
1873,0.0032,0.0194,0.0225,0.0030
1874,0.0032,0.0194,0.0225,0.0030
1875,0.0036,0.0177,0.0224,0.0034
1876,0.0032,0.0194,0.0225,0.0030
1877,0.0031,0.0210,0.0223,0.0041
1878,0.0054,0.0537,0.0562,0.0043
1879,0.0056,0.0479,0.0473,0.0042
1880,0.0036,0.0177,0.0224,0.0034
1881,0.0032,0.0194,0.0225,0.0030
1882,0.0032,0.0194,0.0225,0.0030
1883,0.0036,0.0177,0.0224,0.0034
1884,0.0053,0.0259,0.0246,0.0036
1885,0.0032,0.0194,0.0225,0.0030
1886,0.0036,0.0177,0.0224,0.0034
1887,0.0032,0.0194,0.0225,0.0030
1888,0.0032,0.0194,0.0225,0.0030
1889,0.0031,0.0210,0.0223,0.0041
1890,0.0062,0.0574,0.0718,0.0044
1891,0.0046,0.0136,0.0266,0.0032
1892,0.0048,0.0171,0.0220,0.0032
1893,0.0102,0.0210,0.0391,0.0045
1894,0.0069,0.0255,0.0275,0.0033
1895,0.0045,0.0251,0.0242,0.0036
1896,0.0054,0.0212,0.0226,0.0038
1897,0.0069,0.0279,0.0301,0.0033
1898,0.0061,0.0255,0.0275,0.0032
1899,0.0046,0.0206,0.0259,0.0033
1900,0.0030,0.0269,0.0310,0.0038
1901,0.0058,0.0557,0.0690,0.0041
1902,0.0030,0.0152,0.0177,0.0030
1903,0.0034,0.0154,0.0195,0.0037
1904,0.0035,0.0182,0.0196,0.0029
1905,0.0036,0.0186,0.0196,0.0030
1906,0.0040,0.0243,0.0239,0.0040
1907,0.0039,0.0213,0.0216,0.0031
1908,0.0046,0.0303,0.0299,0.0028
1909,0.0046,0.0222,0.0247,0.0040
1910,0.0042,0.0232,0.0231,0.0028
1911,0.0064,0.0269,0.0249,0.0040
1912,0.0054,0.0511,0.0626,0.0037
1913,0.0063,0.0274,0.0278,0.0039
1914,0.0046,0.0320,0.0317,0.0035
1915,0.0034,0.0227,0.0259,0.0182
1916,0.0049,0.0189,0.0173,0.0140
1917,0.0041,0.0207,0.0204,0.0125
1918,0.0041,0.0207,0.0204,0.0125
1919,0.0041,0.0207,0.0204,0.0125
1920,0.0041,0.0207,0.0204,0.0125
1921,0.0041,0.0207,0.0204,0.0125
1922,0.0041,0.0207,0.0204,0.0125
1923,0.0048,0.0371,0.0418,0.0040
1924,0.0031,0.0203,0.0250,0.0029
1925,0.0031,0.0203,0.0250,0.0029
1926,0.0038,0.0105,0.0139,0.0037
1927,0.0033,0.0208,0.0244,0.0028
1928,0.0036,0.0135,0.0143,0.0043
1929,0.0037,0.0172,0.0210,0.0046
1930,0.0035,0.0115,0.0129,0.0029
1931,0.0038,0.0121,0.0128,0.0030
1932,0.0043,0.0153,0.0183,0.0039
1933,0.0045,0.0164,0.0174,0.0036
1934,0.0051,0.0398,0.0473,0.0031
1935,0.0042,0.0212,0.0219,0.0027
1936,0.0054,0.0192,0.0210,0.0039
1937,0.0047,0.0308,0.0314,0.0030
1938,0.0047,0.0313,0.0322,0.0038
1939,0.0040,0.0144,0.0146,0.0043
1940,0.0034,0.0268,0.0304,0.0243
1941,0.0033,0.0137,0.0119,0.0135
1942,0.0063,0.0271,0.0208,0.0148
1943,0.0033,0.0102,0.0105,0.0092
1944,0.0042,0.0142,0.0147,0.0087
1945,0.0054,0.0328,0.0376,0.0034
1946,0.0111,0.0417,0.0275,0.0141
1947,0.0048,0.0213,0.0154,0.0087
1948,0.0044,0.0222,0.0188,0.0077
1949,0.0050,0.0167,0.0146,0.0064
1950,0.0030,0.0158,0.0178,0.0038
1951,0.0035,0.0115,0.0129,0.0029
1952,0.0050,0.0133,0.0144,0.0032
1953,0.0037,0.0226,0.0281,0.0044
1954,0.0043,0.0241,0.0280,0.0068
1955,0.0054,0.0160,0.0156,0.0082
1956,0.0053,0.0363,0.0406,0.0037
1957,0.0055,0.0237,0.0220,0.0108
1958,0.0059,0.0226,0.0186,0.0116
1959,0.0083,0.0277,0.0262,0.0112
1960,0.0068,0.0322,0.0261,0.0145
1961,0.0058,0.0604,0.0660,0.0364
1962,0.0091,0.0434,0.0369,0.0153
1963,0.0038,0.0121,0.0128,0.0030
1964,0.0031,0.0203,0.0250,0.0029
1965,0.0038,0.0105,0.0139,0.0037
1966,0.0031,0.0146,0.0167,0.0043
1967,0.0052,0.0454,0.0496,0.0040
1968,0.0031,0.0203,0.0250,0.0029
1969,0.0038,0.0105,0.0139,0.0037
1970,0.0031,0.0203,0.0250,0.0029
1971,0.0031,0.0203,0.0250,0.0029
1972,0.0031,0.0146,0.0167,0.0043
1973,0.0031,0.0203,0.0250,0.0029
1974,0.0031,0.0203,0.0250,0.0029
1975,0.0043,0.0153,0.0183,0.0039
1976,0.0031,0.0203,0.0250,0.0029
1977,0.0031,0.0146,0.0167,0.0043
1978,0.0047,0.0610,0.0617,0.0040
1979,0.0038,0.0105,0.0139,0.0037
1980,0.0031,0.0203,0.0250,0.0029
1981,0.0031,0.0203,0.0250,0.0029
1982,0.0038,0.0105,0.0139,0.0037
1983,0.0031,0.0146,0.0167,0.0043
1984,0.0031,0.0203,0.0250,0.0029
1985,0.0038,0.0105,0.0139,0.0037
1986,0.0031,0.0203,0.0250,0.0029
1987,0.0039,0.0150,0.0160,0.0028
1988,0.0031,0.0146,0.0167,0.0043
1989,0.0055,0.0621,0.0606,0.0039
1990,0.0054,0.0537,0.0562,0.0043
1991,0.0031,0.0203,0.0250,0.0029
1992,0.0031,0.0203,0.0250,0.0029
1993,0.0038,0.0105,0.0139,0.0037
1994,0.0031,0.0203,0.0250,0.0029
1995,0.0031,0.0146,0.0167,0.0043
1996,0.0038,0.0105,0.0139,0.0037
1997,0.0031,0.0203,0.0250,0.0029
1998,0.0031,0.0203,0.0250,0.0029
1999,0.0038,0.0105,0.0139,0.0037
2000,0.0053,0.0162,0.0172,0.0036
2001,0.0058,0.0471,0.0456,0.0039
2002,0.0031,0.0203,0.0250,0.0029
2003,0.0038,0.0105,0.0139,0.0037
2004,0.0031,0.0203,0.0250,0.0029
2005,0.0031,0.0203,0.0250,0.0029
2006,0.0031,0.0146,0.0167,0.0043
2007,0.0047,0.0143,0.0364,0.0032
2008,0.0052,0.0108,0.0252,0.0032
2009,0.0100,0.0303,0.0529,0.0045
2010,0.0074,0.0124,0.0151,0.0034
2011,0.0045,0.0164,0.0174,0.0036
2012,0.0054,0.0519,0.0533,0.0044
2013,0.0054,0.0192,0.0210,0.0039
2014,0.0076,0.0138,0.0133,0.0034
2015,0.0068,0.0127,0.0125,0.0032
2016,0.0051,0.0090,0.0109,0.0031
2017,0.0028,0.0250,0.0305,0.0039
2018,0.0031,0.0137,0.0184,0.0029
2019,0.0034,0.0128,0.0166,0.0042
2020,0.0033,0.0135,0.0158,0.0028
2021,0.0035,0.0115,0.0129,0.0029
2022,0.0040,0.0145,0.0151,0.0042
2023,0.0055,0.0493,0.0497,0.0044
2024,0.0039,0.0126,0.0132,0.0030
2025,0.0047,0.0308,0.0314,0.0030
2026,0.0046,0.0162,0.0188,0.0039
2027,0.0042,0.0212,0.0219,0.0027
2028,0.0065,0.0157,0.0160,0.0040
2029,0.0064,0.0288,0.0295,0.0042
2030,0.0047,0.0313,0.0322,0.0038
2031,0.0034,0.0268,0.0304,0.0243
2032,0.0048,0.0227,0.0212,0.0155
2033,0.0041,0.0176,0.0177,0.0155
2034,0.0076,0.0685,0.0645,0.0042
2035,0.0041,0.0176,0.0177,0.0155
2036,0.0041,0.0176,0.0177,0.0155
2037,0.0041,0.0176,0.0177,0.0155
2038,0.0041,0.0176,0.0177,0.0155
2039,0.0041,0.0176,0.0177,0.0155
2040,0.0030,0.0227,0.0285,0.0029
2041,0.0030,0.0227,0.0285,0.0029
2042,0.0040,0.0112,0.0156,0.0040
2043,0.0031,0.0211,0.0256,0.0027
2044,0.0037,0.0111,0.0131,0.0045
2045,0.0058,0.0471,0.0456,0.0039
2046,0.0036,0.0198,0.0242,0.0047
2047,0.0035,0.0112,0.0134,0.0029
2048,0.0039,0.0100,0.0115,0.0030
2049,0.0042,0.0162,0.0194,0.0040
2050,0.0046,0.0162,0.0185,0.0037
2051,0.0041,0.0223,0.0236,0.0027
2052,0.0052,0.0208,0.0228,0.0039
2053,0.0046,0.0329,0.0340,0.0031
2054,0.0046,0.0334,0.0349,0.0039
2055,0.0041,0.0105,0.0116,0.0045
2056,0.0060,0.0481,0.0455,0.0036
2057,0.0034,0.0307,0.0340,0.0277
2058,0.0033,0.0155,0.0142,0.0161
2059,0.0063,0.0326,0.0260,0.0179
2060,0.0032,0.0120,0.0087,0.0106
2061,0.0043,0.0135,0.0132,0.0096
2062,0.0108,0.0441,0.0306,0.0158
2063,0.0044,0.0240,0.0183,0.0097
2064,0.0041,0.0248,0.0219,0.0084
2065,0.0048,0.0210,0.0186,0.0073
2066,0.0030,0.0167,0.0196,0.0038
2067,0.0048,0.0471,0.0317,0.0297
2068,0.0035,0.0112,0.0134,0.0029
2069,0.0053,0.0120,0.0155,0.0031
2070,0.0036,0.0241,0.0308,0.0050
2071,0.0042,0.0254,0.0305,0.0077
2072,0.0056,0.0121,0.0113,0.0094
2073,0.0054,0.0247,0.0238,0.0122
2074,0.0059,0.0239,0.0200,0.0133
2075,0.0081,0.0296,0.0288,0.0130
2076,0.0069,0.0326,0.0264,0.0166
2077,0.0056,0.0645,0.0707,0.0408
2078,0.0044,0.0552,0.0471,0.0322
2079,0.0090,0.0440,0.0377,0.0176
2080,0.0039,0.0100,0.0115,0.0030
2081,0.0030,0.0227,0.0285,0.0029
2082,0.0040,0.0112,0.0156,0.0040
2083,0.0031,0.0150,0.0182,0.0045
2084,0.0030,0.0227,0.0285,0.0029
2085,0.0040,0.0112,0.0156,0.0040
2086,0.0030,0.0227,0.0285,0.0029
2087,0.0030,0.0227,0.0285,0.0029
2088,0.0031,0.0150,0.0182,0.0045
2089,0.0041,0.0486,0.0448,0.0200
2090,0.0030,0.0227,0.0285,0.0029
2091,0.0030,0.0227,0.0285,0.0029
2092,0.0042,0.0162,0.0194,0.0040
2093,0.0030,0.0227,0.0285,0.0029
2094,0.0031,0.0150,0.0182,0.0045
2095,0.0040,0.0112,0.0156,0.0040
2096,0.0030,0.0227,0.0285,0.0029
2097,0.0030,0.0227,0.0285,0.0029
2098,0.0040,0.0112,0.0156,0.0040
2099,0.0031,0.0150,0.0182,0.0045
Total Error Summary
Vdc  RMSE=  0.0049
Idc  RMSE=  0.0277
Id   RMSE=  0.0297
Iq   RMSE=  0.0085
