Read Model from: ./ucf9/
Export Model to: ./ucf9/ucf9_fhf.json
idx_in [0, 1, 2, 3, 4, 5, 6]
idx_out [7, 8, 9, 10]
make_mimo_block iir
H1s[0][0]  Real Poles: [-1494.34108019   -41.30863666] Freqs [Hz]: []
H1s[0][1]  Real Poles: [-1334.96708144  -523.27572834] Freqs [Hz]: []
H1s[0][2]  Real Poles: [-1333.67343082  -444.49044929] Freqs [Hz]: []
H1s[0][3]  Real Poles: [-1332.49000245  -499.81218047] Freqs [Hz]: []
H1s[1][0]  Real Poles: [-1404.39794211  -356.01673277] Freqs [Hz]: []
H1s[1][1]  Real Poles: [-1285.89639117  -564.32408045] Freqs [Hz]: []
H1s[1][2]  Real Poles: [-1398.36520612  -294.53679264] Freqs [Hz]: []
H1s[1][3]  Real Poles: [-1062.72610277 -1062.72610277] Freqs [Hz]: [58.39736861130082]
H1s[2][0]  Real Poles: [-1350.71260908  -471.02754137] Freqs [Hz]: []
H1s[2][1]  Real Poles: [-1502.77010573   -39.75807654] Freqs [Hz]: []
H1s[2][2]  Real Poles: [-1416.12124553  -244.71112975] Freqs [Hz]: []
H1s[2][3]  Real Poles: [-1373.07224541  -390.98461599] Freqs [Hz]: []
H1s[3][0]  Real Poles: [-1234.06597107  -681.15336568] Freqs [Hz]: []
H1s[3][1]  Real Poles: [-1329.01627998  -499.56627508] Freqs [Hz]: []
H1s[3][2]  Real Poles: [-1243.63963606  -692.68394707] Freqs [Hz]: []
H1s[3][3]  Real Poles: [-1492.74169965   -48.93783168] Freqs [Hz]: []
model_folder = ./ucf9/
model_root = ucf9
data_path = d:/data/ucf3/ucf9.hdf5
idx_in [0, 1, 2, 3, 4, 5, 6]
idx_out [7, 8, 9, 10]
read 2100 dataframes
dt=0.001000 data_len=4001 n_io=11 n_case=2100
['G', 'Ud', 'Uq', 'Vd', 'Vq', 'GVrms', 'Ctrl'] ['Vdc', 'Idc', 'Id', 'Iq'] (2100, 4001, 11)
make_mimo_block iir
Idx,Vdc,Idc,Id,Iq,Vdc,Idc,Id,Iq
,RMSE,RMSE,RMSE,RMSE,MAE,MAE,MAE,MAE
Total,0.0225,0.0149,0.0153,0.0057,0.0036,0.0071,0.0070,0.0026
0,0.0224,0.0126,0.0120,0.0018,0.0037,0.0048,0.0046,0.0010
1,0.0224,0.0126,0.0120,0.0018,0.0037,0.0048,0.0046,0.0010
2,0.0227,0.0170,0.0141,0.0024,0.0047,0.0066,0.0066,0.0016
3,0.0218,0.0290,0.0239,0.0123,0.0049,0.0135,0.0127,0.0066
4,0.0223,0.0095,0.0114,0.0016,0.0030,0.0038,0.0037,0.0007
5,0.0239,0.0118,0.0148,0.0022,0.0046,0.0064,0.0069,0.0015
6,0.0223,0.0095,0.0114,0.0016,0.0030,0.0038,0.0037,0.0007
7,0.0225,0.0106,0.0130,0.0028,0.0034,0.0054,0.0063,0.0021
8,0.0214,0.0093,0.0100,0.0023,0.0032,0.0045,0.0042,0.0014
9,0.0223,0.0095,0.0114,0.0016,0.0030,0.0038,0.0037,0.0007
10,0.0223,0.0095,0.0114,0.0016,0.0030,0.0038,0.0037,0.0007
11,0.0239,0.0118,0.0148,0.0022,0.0046,0.0064,0.0069,0.0015
12,0.0223,0.0095,0.0114,0.0016,0.0030,0.0038,0.0037,0.0007
13,0.0214,0.0093,0.0100,0.0023,0.0032,0.0045,0.0042,0.0014
14,0.0218,0.0290,0.0239,0.0123,0.0049,0.0135,0.0127,0.0066
15,0.0239,0.0118,0.0148,0.0022,0.0046,0.0064,0.0069,0.0015
16,0.0223,0.0095,0.0114,0.0016,0.0030,0.0038,0.0037,0.0007
17,0.0223,0.0095,0.0114,0.0016,0.0030,0.0038,0.0037,0.0007
18,0.0239,0.0118,0.0148,0.0022,0.0046,0.0064,0.0069,0.0015
19,0.0216,0.0106,0.0104,0.0042,0.0034,0.0060,0.0047,0.0033
20,0.0223,0.0095,0.0114,0.0016,0.0030,0.0038,0.0037,0.0007
21,0.0239,0.0118,0.0148,0.0022,0.0046,0.0064,0.0069,0.0015
22,0.0223,0.0095,0.0114,0.0016,0.0030,0.0038,0.0037,0.0007
23,0.0223,0.0095,0.0114,0.0016,0.0030,0.0038,0.0037,0.0007
24,0.0214,0.0093,0.0100,0.0023,0.0032,0.0045,0.0042,0.0014
25,0.0218,0.0290,0.0239,0.0123,0.0049,0.0135,0.0127,0.0066
26,0.0228,0.0134,0.0180,0.0023,0.0053,0.0086,0.0112,0.0015
27,0.0226,0.0137,0.0190,0.0022,0.0047,0.0089,0.0120,0.0015
28,0.0239,0.0141,0.0195,0.0031,0.0048,0.0084,0.0120,0.0024
29,0.0224,0.0122,0.0167,0.0026,0.0039,0.0074,0.0099,0.0018
30,0.0216,0.0097,0.0099,0.0037,0.0041,0.0050,0.0040,0.0029
31,0.0241,0.0110,0.0151,0.0025,0.0047,0.0049,0.0065,0.0017
32,0.0224,0.0104,0.0134,0.0028,0.0038,0.0053,0.0064,0.0019
33,0.0224,0.0096,0.0118,0.0028,0.0038,0.0043,0.0047,0.0019
34,0.0239,0.0124,0.0166,0.0023,0.0049,0.0070,0.0093,0.0016
35,0.0215,0.0092,0.0101,0.0030,0.0034,0.0046,0.0044,0.0024
36,0.0218,0.0290,0.0239,0.0123,0.0049,0.0135,0.0127,0.0066
37,0.0223,0.0090,0.0110,0.0018,0.0030,0.0031,0.0032,0.0011
38,0.0239,0.0114,0.0145,0.0026,0.0050,0.0057,0.0061,0.0019
39,0.0223,0.0095,0.0111,0.0020,0.0035,0.0039,0.0033,0.0013
40,0.0223,0.0108,0.0128,0.0019,0.0027,0.0056,0.0059,0.0012
41,0.0217,0.0135,0.0139,0.0030,0.0051,0.0092,0.0087,0.0023
42,0.0224,0.0103,0.0124,0.0021,0.0034,0.0053,0.0056,0.0015
43,0.0225,0.0100,0.0118,0.0021,0.0029,0.0044,0.0044,0.0014
44,0.0239,0.0110,0.0146,0.0024,0.0040,0.0048,0.0058,0.0016
45,0.0225,0.0101,0.0121,0.0028,0.0032,0.0047,0.0048,0.0021
46,0.0218,0.0157,0.0151,0.0030,0.0050,0.0103,0.0091,0.0021
47,0.0218,0.0290,0.0239,0.0123,0.0049,0.0135,0.0127,0.0066
48,0.0243,0.0148,0.0189,0.0043,0.0059,0.0097,0.0117,0.0033
49,0.0226,0.0133,0.0140,0.0033,0.0032,0.0079,0.0071,0.0025
50,0.0224,0.0336,0.0336,0.0212,0.0036,0.0227,0.0226,0.0142
51,0.0238,0.0273,0.0259,0.0171,0.0035,0.0191,0.0176,0.0119
52,0.0215,0.0203,0.0209,0.0117,0.0035,0.0141,0.0142,0.0080
53,0.0215,0.0203,0.0209,0.0117,0.0035,0.0141,0.0142,0.0080
54,0.0215,0.0203,0.0209,0.0117,0.0035,0.0141,0.0142,0.0080
55,0.0215,0.0203,0.0209,0.0117,0.0035,0.0141,0.0142,0.0080
56,0.0215,0.0203,0.0209,0.0117,0.0035,0.0141,0.0142,0.0080
57,0.0215,0.0203,0.0209,0.0117,0.0035,0.0141,0.0142,0.0080
58,0.0224,0.0115,0.0116,0.0018,0.0036,0.0042,0.0042,0.0009
59,0.0223,0.0124,0.0122,0.0016,0.0029,0.0056,0.0051,0.0008
60,0.0223,0.0124,0.0122,0.0016,0.0029,0.0056,0.0051,0.0008
61,0.0236,0.0130,0.0147,0.0032,0.0034,0.0057,0.0062,0.0024
62,0.0223,0.0131,0.0133,0.0017,0.0032,0.0064,0.0058,0.0009
63,0.0216,0.0144,0.0114,0.0025,0.0035,0.0070,0.0057,0.0017
64,0.0237,0.0140,0.0152,0.0024,0.0039,0.0068,0.0065,0.0016
65,0.0223,0.0145,0.0132,0.0018,0.0031,0.0075,0.0063,0.0010
66,0.0224,0.0145,0.0133,0.0019,0.0033,0.0069,0.0061,0.0011
67,0.0238,0.0140,0.0151,0.0022,0.0041,0.0061,0.0061,0.0014
68,0.0216,0.0168,0.0119,0.0030,0.0041,0.0070,0.0055,0.0023
69,0.0224,0.0115,0.0116,0.0018,0.0036,0.0042,0.0042,0.0009
70,0.0225,0.0156,0.0132,0.0022,0.0033,0.0065,0.0057,0.0015
71,0.0240,0.0160,0.0171,0.0026,0.0044,0.0080,0.0083,0.0018
72,0.0225,0.0200,0.0184,0.0027,0.0034,0.0105,0.0098,0.0018
73,0.0227,0.0201,0.0187,0.0030,0.0040,0.0114,0.0101,0.0022
74,0.0217,0.0159,0.0133,0.0034,0.0042,0.0086,0.0075,0.0025
75,0.0227,0.0282,0.0238,0.0174,0.0044,0.0154,0.0144,0.0099
76,0.0223,0.0250,0.0202,0.0134,0.0032,0.0129,0.0110,0.0073
77,0.0237,0.0258,0.0242,0.0154,0.0036,0.0140,0.0137,0.0095
78,0.0225,0.0251,0.0241,0.0095,0.0038,0.0159,0.0155,0.0061
79,0.0216,0.0221,0.0196,0.0061,0.0039,0.0121,0.0117,0.0038
80,0.0224,0.0115,0.0116,0.0018,0.0036,0.0042,0.0042,0.0009
81,0.0239,0.0181,0.0191,0.0110,0.0050,0.0098,0.0094,0.0079
82,0.0225,0.0188,0.0183,0.0031,0.0038,0.0118,0.0115,0.0020
83,0.0223,0.0158,0.0145,0.0026,0.0030,0.0085,0.0079,0.0018
84,0.0237,0.0141,0.0166,0.0068,0.0034,0.0059,0.0079,0.0049
85,0.0215,0.0146,0.0126,0.0024,0.0037,0.0085,0.0074,0.0014
86,0.0223,0.0145,0.0132,0.0018,0.0031,0.0075,0.0063,0.0010
87,0.0237,0.0129,0.0151,0.0025,0.0036,0.0051,0.0063,0.0019
88,0.0222,0.0131,0.0122,0.0029,0.0024,0.0055,0.0046,0.0022
89,0.0223,0.0152,0.0144,0.0036,0.0030,0.0075,0.0069,0.0025
90,0.0215,0.0247,0.0252,0.0069,0.0040,0.0124,0.0124,0.0039
91,0.0225,0.0131,0.0132,0.0021,0.0042,0.0071,0.0066,0.0013
92,0.0225,0.0174,0.0171,0.0064,0.0038,0.0084,0.0084,0.0038
93,0.0224,0.0193,0.0197,0.0079,0.0032,0.0093,0.0096,0.0047
94,0.0238,0.0217,0.0238,0.0099,0.0044,0.0115,0.0125,0.0065
95,0.0223,0.0277,0.0284,0.0114,0.0029,0.0137,0.0139,0.0066
96,0.0217,0.0440,0.0443,0.0204,0.0045,0.0248,0.0251,0.0118
97,0.0238,0.0231,0.0242,0.0128,0.0044,0.0125,0.0130,0.0084
98,0.0224,0.0145,0.0133,0.0019,0.0033,0.0069,0.0061,0.0011
99,0.0223,0.0124,0.0122,0.0016,0.0029,0.0056,0.0051,0.0008
100,0.0236,0.0130,0.0147,0.0032,0.0034,0.0057,0.0062,0.0024
101,0.0215,0.0129,0.0105,0.0023,0.0037,0.0056,0.0046,0.0014
102,0.0216,0.0148,0.0133,0.0027,0.0038,0.0069,0.0071,0.0019
103,0.0223,0.0124,0.0122,0.0016,0.0029,0.0056,0.0051,0.0008
104,0.0236,0.0130,0.0147,0.0032,0.0034,0.0057,0.0062,0.0024
105,0.0223,0.0124,0.0122,0.0016,0.0029,0.0056,0.0051,0.0008
106,0.0223,0.0124,0.0122,0.0016,0.0029,0.0056,0.0051,0.0008
107,0.0215,0.0129,0.0105,0.0023,0.0037,0.0056,0.0046,0.0014
108,0.0223,0.0124,0.0122,0.0016,0.0029,0.0056,0.0051,0.0008
109,0.0223,0.0124,0.0122,0.0016,0.0029,0.0056,0.0051,0.0008
110,0.0238,0.0140,0.0151,0.0022,0.0041,0.0061,0.0061,0.0014
111,0.0223,0.0124,0.0122,0.0016,0.0029,0.0056,0.0051,0.0008
112,0.0215,0.0129,0.0105,0.0023,0.0037,0.0056,0.0046,0.0014
113,0.0227,0.0201,0.0160,0.0030,0.0044,0.0084,0.0077,0.0022
114,0.0225,0.0128,0.0123,0.0025,0.0045,0.0062,0.0052,0.0015
115,0.0236,0.0130,0.0147,0.0032,0.0034,0.0057,0.0062,0.0024
116,0.0223,0.0124,0.0122,0.0016,0.0029,0.0056,0.0051,0.0008
117,0.0223,0.0124,0.0122,0.0016,0.0029,0.0056,0.0051,0.0008
118,0.0236,0.0130,0.0147,0.0032,0.0034,0.0057,0.0062,0.0024
119,0.0215,0.0129,0.0105,0.0023,0.0037,0.0056,0.0046,0.0014
120,0.0223,0.0124,0.0122,0.0016,0.0029,0.0056,0.0051,0.0008
121,0.0236,0.0130,0.0147,0.0032,0.0034,0.0057,0.0062,0.0024
122,0.0223,0.0124,0.0122,0.0016,0.0029,0.0056,0.0051,0.0008
123,0.0225,0.0149,0.0130,0.0022,0.0036,0.0065,0.0057,0.0014
124,0.0215,0.0129,0.0105,0.0023,0.0037,0.0056,0.0046,0.0014
125,0.0225,0.0131,0.0126,0.0027,0.0040,0.0053,0.0053,0.0016
126,0.0223,0.0124,0.0122,0.0016,0.0029,0.0056,0.0051,0.0008
127,0.0223,0.0124,0.0122,0.0016,0.0029,0.0056,0.0051,0.0008
128,0.0236,0.0130,0.0147,0.0032,0.0034,0.0057,0.0062,0.0024
129,0.0223,0.0124,0.0122,0.0016,0.0029,0.0056,0.0051,0.0008
130,0.0215,0.0129,0.0105,0.0023,0.0037,0.0056,0.0046,0.0014
131,0.0236,0.0130,0.0147,0.0032,0.0034,0.0057,0.0062,0.0024
132,0.0223,0.0124,0.0122,0.0016,0.0029,0.0056,0.0051,0.0008
133,0.0223,0.0124,0.0122,0.0016,0.0029,0.0056,0.0051,0.0008
134,0.0236,0.0130,0.0147,0.0032,0.0034,0.0057,0.0062,0.0024
135,0.0216,0.0178,0.0131,0.0044,0.0038,0.0084,0.0072,0.0035
136,0.0225,0.0140,0.0132,0.0027,0.0039,0.0051,0.0056,0.0016
137,0.0223,0.0124,0.0122,0.0016,0.0029,0.0056,0.0051,0.0008
138,0.0236,0.0130,0.0147,0.0032,0.0034,0.0057,0.0062,0.0024
139,0.0223,0.0124,0.0122,0.0016,0.0029,0.0056,0.0051,0.0008
140,0.0223,0.0124,0.0122,0.0016,0.0029,0.0056,0.0051,0.0008
141,0.0215,0.0129,0.0105,0.0023,0.0037,0.0056,0.0046,0.0014
142,0.0225,0.0115,0.0140,0.0028,0.0038,0.0056,0.0059,0.0021
143,0.0224,0.0120,0.0138,0.0024,0.0036,0.0061,0.0060,0.0016
144,0.0242,0.0138,0.0154,0.0046,0.0061,0.0075,0.0062,0.0037
145,0.0224,0.0118,0.0130,0.0023,0.0033,0.0054,0.0054,0.0016
146,0.0216,0.0168,0.0119,0.0030,0.0041,0.0070,0.0055,0.0023
147,0.0226,0.0148,0.0136,0.0025,0.0042,0.0063,0.0064,0.0017
148,0.0240,0.0160,0.0171,0.0026,0.0044,0.0080,0.0083,0.0018
149,0.0223,0.0115,0.0122,0.0026,0.0030,0.0042,0.0046,0.0019
150,0.0223,0.0117,0.0120,0.0026,0.0029,0.0044,0.0043,0.0018
151,0.0238,0.0133,0.0147,0.0041,0.0043,0.0066,0.0059,0.0028
152,0.0215,0.0134,0.0116,0.0028,0.0035,0.0075,0.0064,0.0021
153,0.0223,0.0128,0.0129,0.0018,0.0027,0.0055,0.0056,0.0011
154,0.0237,0.0141,0.0160,0.0027,0.0036,0.0073,0.0076,0.0021
155,0.0223,0.0130,0.0126,0.0018,0.0034,0.0058,0.0049,0.0010
156,0.0223,0.0145,0.0132,0.0018,0.0031,0.0075,0.0063,0.0010
157,0.0220,0.0158,0.0125,0.0032,0.0059,0.0079,0.0068,0.0025
158,0.0218,0.0170,0.0130,0.0032,0.0051,0.0075,0.0064,0.0022
159,0.0224,0.0139,0.0128,0.0020,0.0036,0.0063,0.0057,0.0012
160,0.0225,0.0200,0.0184,0.0027,0.0034,0.0105,0.0098,0.0018
161,0.0238,0.0146,0.0153,0.0027,0.0042,0.0061,0.0063,0.0020
162,0.0225,0.0156,0.0132,0.0022,0.0033,0.0065,0.0057,0.0015
163,0.0221,0.0191,0.0144,0.0068,0.0052,0.0098,0.0086,0.0049
164,0.0241,0.0168,0.0184,0.0033,0.0052,0.0093,0.0102,0.0025
165,0.0227,0.0201,0.0187,0.0030,0.0040,0.0114,0.0101,0.0022
166,0.0227,0.0282,0.0238,0.0174,0.0044,0.0154,0.0144,0.0099
167,0.0238,0.0277,0.0221,0.0192,0.0043,0.0170,0.0119,0.0125
168,0.0214,0.0257,0.0227,0.0110,0.0031,0.0148,0.0145,0.0071
169,0.0227,0.0152,0.0136,0.0021,0.0047,0.0065,0.0066,0.0013
170,0.0214,0.0257,0.0227,0.0110,0.0031,0.0148,0.0145,0.0071
171,0.0214,0.0257,0.0227,0.0110,0.0031,0.0148,0.0145,0.0071
172,0.0214,0.0257,0.0227,0.0110,0.0031,0.0148,0.0145,0.0071
173,0.0214,0.0257,0.0227,0.0110,0.0031,0.0148,0.0145,0.0071
174,0.0214,0.0257,0.0227,0.0110,0.0031,0.0148,0.0145,0.0071
175,0.0223,0.0115,0.0117,0.0016,0.0027,0.0049,0.0044,0.0008
176,0.0223,0.0115,0.0117,0.0016,0.0027,0.0049,0.0044,0.0008
177,0.0236,0.0122,0.0143,0.0025,0.0033,0.0053,0.0053,0.0019
178,0.0223,0.0116,0.0118,0.0018,0.0030,0.0052,0.0044,0.0010
179,0.0214,0.0137,0.0121,0.0026,0.0031,0.0072,0.0067,0.0018
180,0.0227,0.0181,0.0155,0.0025,0.0044,0.0082,0.0077,0.0018
181,0.0237,0.0130,0.0146,0.0025,0.0037,0.0059,0.0056,0.0019
182,0.0223,0.0141,0.0136,0.0018,0.0029,0.0076,0.0067,0.0010
183,0.0223,0.0132,0.0126,0.0019,0.0030,0.0060,0.0054,0.0011
184,0.0238,0.0127,0.0143,0.0021,0.0039,0.0049,0.0049,0.0013
185,0.0216,0.0148,0.0113,0.0028,0.0042,0.0067,0.0053,0.0019
186,0.0225,0.0147,0.0133,0.0022,0.0032,0.0065,0.0058,0.0014
187,0.0240,0.0144,0.0162,0.0024,0.0044,0.0073,0.0076,0.0017
188,0.0225,0.0159,0.0144,0.0021,0.0033,0.0077,0.0070,0.0013
189,0.0226,0.0154,0.0138,0.0023,0.0038,0.0080,0.0066,0.0015
190,0.0215,0.0143,0.0128,0.0034,0.0037,0.0077,0.0070,0.0025
191,0.0228,0.0181,0.0150,0.0026,0.0044,0.0082,0.0074,0.0018
192,0.0225,0.0266,0.0251,0.0150,0.0039,0.0159,0.0160,0.0086
193,0.0223,0.0224,0.0193,0.0115,0.0029,0.0125,0.0108,0.0067
194,0.0237,0.0248,0.0243,0.0143,0.0034,0.0146,0.0145,0.0085
195,0.0225,0.0239,0.0233,0.0101,0.0038,0.0155,0.0149,0.0068
196,0.0216,0.0200,0.0186,0.0067,0.0039,0.0113,0.0111,0.0044
197,0.0239,0.0162,0.0183,0.0081,0.0048,0.0083,0.0093,0.0051
198,0.0224,0.0169,0.0174,0.0034,0.0037,0.0108,0.0108,0.0025
199,0.0223,0.0139,0.0134,0.0025,0.0029,0.0075,0.0068,0.0018
200,0.0236,0.0137,0.0175,0.0041,0.0033,0.0066,0.0098,0.0032
201,0.0214,0.0133,0.0117,0.0024,0.0034,0.0077,0.0066,0.0015
202,0.0229,0.0155,0.0129,0.0023,0.0048,0.0067,0.0060,0.0015
203,0.0223,0.0141,0.0136,0.0018,0.0029,0.0076,0.0067,0.0010
204,0.0237,0.0124,0.0153,0.0024,0.0035,0.0054,0.0069,0.0018
205,0.0222,0.0120,0.0119,0.0033,0.0024,0.0050,0.0043,0.0024
206,0.0223,0.0129,0.0129,0.0039,0.0032,0.0060,0.0056,0.0027
207,0.0215,0.0226,0.0237,0.0062,0.0039,0.0120,0.0122,0.0035
208,0.0224,0.0157,0.0157,0.0062,0.0036,0.0077,0.0076,0.0038
209,0.0223,0.0169,0.0175,0.0073,0.0031,0.0085,0.0087,0.0045
210,0.0238,0.0194,0.0214,0.0086,0.0043,0.0103,0.0111,0.0055
211,0.0223,0.0241,0.0251,0.0100,0.0028,0.0122,0.0123,0.0059
212,0.0217,0.0378,0.0386,0.0179,0.0043,0.0224,0.0225,0.0110
213,0.0216,0.0153,0.0132,0.0034,0.0041,0.0068,0.0065,0.0026
214,0.0238,0.0204,0.0218,0.0121,0.0044,0.0114,0.0117,0.0081
215,0.0223,0.0132,0.0126,0.0019,0.0030,0.0060,0.0054,0.0011
216,0.0223,0.0115,0.0117,0.0016,0.0027,0.0049,0.0044,0.0008
217,0.0236,0.0122,0.0143,0.0025,0.0033,0.0053,0.0053,0.0019
218,0.0214,0.0121,0.0104,0.0023,0.0033,0.0055,0.0046,0.0014
219,0.0223,0.0115,0.0117,0.0016,0.0027,0.0049,0.0044,0.0008
220,0.0236,0.0122,0.0143,0.0025,0.0033,0.0053,0.0053,0.0019
221,0.0223,0.0115,0.0117,0.0016,0.0027,0.0049,0.0044,0.0008
222,0.0223,0.0115,0.0117,0.0016,0.0027,0.0049,0.0044,0.0008
223,0.0214,0.0121,0.0104,0.0023,0.0033,0.0055,0.0046,0.0014
224,0.0228,0.0208,0.0165,0.0032,0.0044,0.0097,0.0086,0.0023
225,0.0228,0.0266,0.0233,0.0158,0.0059,0.0135,0.0146,0.0088
226,0.0223,0.0115,0.0117,0.0016,0.0027,0.0049,0.0044,0.0008
227,0.0223,0.0115,0.0117,0.0016,0.0027,0.0049,0.0044,0.0008
228,0.0238,0.0127,0.0143,0.0021,0.0039,0.0049,0.0049,0.0013
229,0.0223,0.0115,0.0117,0.0016,0.0027,0.0049,0.0044,0.0008
230,0.0214,0.0121,0.0104,0.0023,0.0033,0.0055,0.0046,0.0014
231,0.0236,0.0122,0.0143,0.0025,0.0033,0.0053,0.0053,0.0019
232,0.0223,0.0115,0.0117,0.0016,0.0027,0.0049,0.0044,0.0008
233,0.0223,0.0115,0.0117,0.0016,0.0027,0.0049,0.0044,0.0008
234,0.0236,0.0122,0.0143,0.0025,0.0033,0.0053,0.0053,0.0019
235,0.0214,0.0121,0.0104,0.0023,0.0033,0.0055,0.0046,0.0014
236,0.0224,0.0260,0.0214,0.0145,0.0034,0.0118,0.0108,0.0077
237,0.0223,0.0115,0.0117,0.0016,0.0027,0.0049,0.0044,0.0008
238,0.0236,0.0122,0.0143,0.0025,0.0033,0.0053,0.0053,0.0019
239,0.0223,0.0115,0.0117,0.0016,0.0027,0.0049,0.0044,0.0008
240,0.0224,0.0133,0.0124,0.0023,0.0035,0.0058,0.0051,0.0016
241,0.0214,0.0121,0.0104,0.0023,0.0033,0.0055,0.0046,0.0014
242,0.0223,0.0115,0.0117,0.0016,0.0027,0.0049,0.0044,0.0008
243,0.0223,0.0115,0.0117,0.0016,0.0027,0.0049,0.0044,0.0008
244,0.0236,0.0122,0.0143,0.0025,0.0033,0.0053,0.0053,0.0019
245,0.0223,0.0115,0.0117,0.0016,0.0027,0.0049,0.0044,0.0008
246,0.0214,0.0121,0.0104,0.0023,0.0033,0.0055,0.0046,0.0014
247,0.0224,0.0239,0.0213,0.0119,0.0036,0.0108,0.0106,0.0062
248,0.0236,0.0122,0.0143,0.0025,0.0033,0.0053,0.0053,0.0019
249,0.0223,0.0115,0.0117,0.0016,0.0027,0.0049,0.0044,0.0008
250,0.0223,0.0115,0.0117,0.0016,0.0027,0.0049,0.0044,0.0008
251,0.0236,0.0122,0.0143,0.0025,0.0033,0.0053,0.0053,0.0019
252,0.0215,0.0152,0.0113,0.0039,0.0036,0.0073,0.0056,0.0031
253,0.0223,0.0115,0.0117,0.0016,0.0027,0.0049,0.0044,0.0008
254,0.0236,0.0122,0.0143,0.0025,0.0033,0.0053,0.0053,0.0019
255,0.0223,0.0115,0.0117,0.0016,0.0027,0.0049,0.0044,0.0008
256,0.0223,0.0115,0.0117,0.0016,0.0027,0.0049,0.0044,0.0008
257,0.0214,0.0121,0.0104,0.0023,0.0033,0.0055,0.0046,0.0014
258,0.0225,0.0209,0.0195,0.0093,0.0038,0.0116,0.0115,0.0057
259,0.0225,0.0115,0.0139,0.0029,0.0037,0.0060,0.0064,0.0021
260,0.0224,0.0112,0.0133,0.0024,0.0035,0.0056,0.0058,0.0016
261,0.0241,0.0135,0.0152,0.0040,0.0058,0.0073,0.0064,0.0032
262,0.0223,0.0113,0.0129,0.0022,0.0031,0.0056,0.0058,0.0015
263,0.0216,0.0148,0.0113,0.0028,0.0042,0.0067,0.0053,0.0019
264,0.0240,0.0144,0.0162,0.0024,0.0044,0.0073,0.0076,0.0017
265,0.0223,0.0109,0.0121,0.0025,0.0029,0.0044,0.0047,0.0018
266,0.0223,0.0111,0.0119,0.0025,0.0028,0.0043,0.0043,0.0018
267,0.0237,0.0129,0.0148,0.0033,0.0040,0.0065,0.0062,0.0024
268,0.0214,0.0115,0.0104,0.0028,0.0031,0.0059,0.0048,0.0021
269,0.0219,0.0254,0.0232,0.0091,0.0052,0.0128,0.0122,0.0052
270,0.0223,0.0114,0.0116,0.0017,0.0025,0.0042,0.0040,0.0010
271,0.0237,0.0126,0.0147,0.0022,0.0035,0.0058,0.0060,0.0016
272,0.0223,0.0116,0.0115,0.0018,0.0032,0.0049,0.0039,0.0011
273,0.0223,0.0141,0.0136,0.0018,0.0029,0.0076,0.0067,0.0010
274,0.0219,0.0144,0.0117,0.0031,0.0056,0.0071,0.0059,0.0024
275,0.0224,0.0132,0.0126,0.0021,0.0034,0.0061,0.0055,0.0014
276,0.0225,0.0159,0.0144,0.0021,0.0033,0.0077,0.0070,0.0013
277,0.0238,0.0131,0.0146,0.0024,0.0040,0.0048,0.0052,0.0017
278,0.0225,0.0147,0.0133,0.0022,0.0032,0.0065,0.0058,0.0014
279,0.0219,0.0175,0.0128,0.0062,0.0049,0.0088,0.0066,0.0046
280,0.0225,0.0212,0.0206,0.0068,0.0044,0.0134,0.0132,0.0045
281,0.0241,0.0151,0.0175,0.0035,0.0052,0.0082,0.0092,0.0026
282,0.0226,0.0154,0.0138,0.0023,0.0038,0.0080,0.0066,0.0015
283,0.0225,0.0266,0.0251,0.0150,0.0039,0.0159,0.0160,0.0086
284,0.0237,0.0238,0.0209,0.0148,0.0041,0.0134,0.0112,0.0093
285,0.0214,0.0239,0.0218,0.0119,0.0031,0.0145,0.0141,0.0079
286,0.0214,0.0239,0.0218,0.0119,0.0031,0.0145,0.0141,0.0079
287,0.0214,0.0239,0.0218,0.0119,0.0031,0.0145,0.0141,0.0079
288,0.0214,0.0239,0.0218,0.0119,0.0031,0.0145,0.0141,0.0079
289,0.0214,0.0239,0.0218,0.0119,0.0031,0.0145,0.0141,0.0079
290,0.0214,0.0239,0.0218,0.0119,0.0031,0.0145,0.0141,0.0079
291,0.0225,0.0166,0.0159,0.0044,0.0043,0.0094,0.0092,0.0028
292,0.0222,0.0103,0.0116,0.0016,0.0024,0.0045,0.0044,0.0007
293,0.0222,0.0103,0.0116,0.0016,0.0024,0.0045,0.0044,0.0007
294,0.0236,0.0115,0.0142,0.0021,0.0034,0.0053,0.0048,0.0013
295,0.0223,0.0103,0.0114,0.0018,0.0028,0.0049,0.0041,0.0011
296,0.0214,0.0141,0.0152,0.0027,0.0026,0.0090,0.0092,0.0019
297,0.0237,0.0116,0.0142,0.0030,0.0036,0.0050,0.0050,0.0024
298,0.0223,0.0125,0.0136,0.0019,0.0026,0.0072,0.0070,0.0011
299,0.0223,0.0148,0.0165,0.0019,0.0028,0.0087,0.0092,0.0011
300,0.0237,0.0115,0.0145,0.0021,0.0036,0.0048,0.0055,0.0013
301,0.0216,0.0125,0.0110,0.0033,0.0042,0.0062,0.0051,0.0025
302,0.0225,0.0150,0.0140,0.0033,0.0038,0.0076,0.0072,0.0021
303,0.0224,0.0111,0.0117,0.0024,0.0031,0.0049,0.0043,0.0017
304,0.0239,0.0122,0.0152,0.0026,0.0043,0.0056,0.0061,0.0019
305,0.0225,0.0126,0.0129,0.0019,0.0033,0.0063,0.0058,0.0011
306,0.0226,0.0155,0.0150,0.0028,0.0035,0.0092,0.0077,0.0021
307,0.0214,0.0142,0.0151,0.0034,0.0032,0.0093,0.0097,0.0025
308,0.0223,0.0272,0.0274,0.0158,0.0031,0.0181,0.0176,0.0101
309,0.0223,0.0194,0.0183,0.0107,0.0031,0.0124,0.0108,0.0069
310,0.0236,0.0275,0.0270,0.0170,0.0031,0.0186,0.0174,0.0116
311,0.0224,0.0246,0.0246,0.0121,0.0037,0.0167,0.0158,0.0081
312,0.0216,0.0158,0.0164,0.0063,0.0038,0.0096,0.0097,0.0043
313,0.0225,0.0138,0.0134,0.0027,0.0043,0.0073,0.0071,0.0018
314,0.0238,0.0159,0.0202,0.0106,0.0045,0.0100,0.0118,0.0076
315,0.0224,0.0154,0.0175,0.0063,0.0034,0.0103,0.0109,0.0041
316,0.0223,0.0115,0.0127,0.0045,0.0028,0.0060,0.0058,0.0030
317,0.0237,0.0119,0.0173,0.0036,0.0036,0.0057,0.0095,0.0028
318,0.0214,0.0118,0.0119,0.0024,0.0031,0.0074,0.0070,0.0016
319,0.0223,0.0125,0.0136,0.0019,0.0026,0.0072,0.0070,0.0011
320,0.0237,0.0113,0.0148,0.0024,0.0034,0.0045,0.0059,0.0018
321,0.0223,0.0103,0.0116,0.0037,0.0026,0.0041,0.0041,0.0027
322,0.0223,0.0107,0.0120,0.0040,0.0031,0.0045,0.0044,0.0027
323,0.0215,0.0180,0.0198,0.0046,0.0035,0.0113,0.0117,0.0027
324,0.0217,0.0150,0.0130,0.0032,0.0045,0.0089,0.0078,0.0022
325,0.0223,0.0119,0.0131,0.0050,0.0031,0.0059,0.0059,0.0032
326,0.0223,0.0128,0.0142,0.0055,0.0026,0.0064,0.0066,0.0036
327,0.0237,0.0159,0.0184,0.0068,0.0041,0.0083,0.0090,0.0042
328,0.0223,0.0168,0.0183,0.0078,0.0026,0.0093,0.0093,0.0050
329,0.0215,0.0302,0.0308,0.0173,0.0039,0.0194,0.0189,0.0111
330,0.0238,0.0157,0.0175,0.0123,0.0042,0.0090,0.0089,0.0085
331,0.0223,0.0148,0.0165,0.0019,0.0028,0.0087,0.0092,0.0011
332,0.0222,0.0103,0.0116,0.0016,0.0024,0.0045,0.0044,0.0007
333,0.0236,0.0115,0.0142,0.0021,0.0034,0.0053,0.0048,0.0013
334,0.0214,0.0103,0.0103,0.0023,0.0029,0.0051,0.0047,0.0013
335,0.0229,0.0194,0.0146,0.0028,0.0047,0.0088,0.0073,0.0020
336,0.0225,0.0131,0.0126,0.0027,0.0040,0.0053,0.0053,0.0016
337,0.0222,0.0103,0.0116,0.0016,0.0024,0.0045,0.0044,0.0007
338,0.0236,0.0115,0.0142,0.0021,0.0034,0.0053,0.0048,0.0013
339,0.0222,0.0103,0.0116,0.0016,0.0024,0.0045,0.0044,0.0007
340,0.0222,0.0103,0.0116,0.0016,0.0024,0.0045,0.0044,0.0007
341,0.0214,0.0103,0.0103,0.0023,0.0029,0.0051,0.0047,0.0013
342,0.0222,0.0103,0.0116,0.0016,0.0024,0.0045,0.0044,0.0007
343,0.0222,0.0103,0.0116,0.0016,0.0024,0.0045,0.0044,0.0007
344,0.0237,0.0115,0.0145,0.0021,0.0036,0.0048,0.0055,0.0013
345,0.0222,0.0103,0.0116,0.0016,0.0024,0.0045,0.0044,0.0007
346,0.0214,0.0103,0.0103,0.0023,0.0029,0.0051,0.0047,0.0013
347,0.0224,0.0125,0.0122,0.0023,0.0037,0.0049,0.0049,0.0017
348,0.0236,0.0115,0.0142,0.0021,0.0034,0.0053,0.0048,0.0013
349,0.0222,0.0103,0.0116,0.0016,0.0024,0.0045,0.0044,0.0007
350,0.0222,0.0103,0.0116,0.0016,0.0024,0.0045,0.0044,0.0007
351,0.0236,0.0115,0.0142,0.0021,0.0034,0.0053,0.0048,0.0013
352,0.0214,0.0103,0.0103,0.0023,0.0029,0.0051,0.0047,0.0013
353,0.0222,0.0103,0.0116,0.0016,0.0024,0.0045,0.0044,0.0007
354,0.0236,0.0115,0.0142,0.0021,0.0034,0.0053,0.0048,0.0013
355,0.0222,0.0103,0.0116,0.0016,0.0024,0.0045,0.0044,0.0007
356,0.0224,0.0113,0.0116,0.0026,0.0033,0.0048,0.0042,0.0019
357,0.0214,0.0103,0.0103,0.0023,0.0029,0.0051,0.0047,0.0013
358,0.0225,0.0141,0.0138,0.0037,0.0041,0.0060,0.0065,0.0027
359,0.0222,0.0103,0.0116,0.0016,0.0024,0.0045,0.0044,0.0007
360,0.0222,0.0103,0.0116,0.0016,0.0024,0.0045,0.0044,0.0007
361,0.0236,0.0115,0.0142,0.0021,0.0034,0.0053,0.0048,0.0013
362,0.0222,0.0103,0.0116,0.0016,0.0024,0.0045,0.0044,0.0007
363,0.0214,0.0103,0.0103,0.0023,0.0029,0.0051,0.0047,0.0013
364,0.0236,0.0115,0.0142,0.0021,0.0034,0.0053,0.0048,0.0013
365,0.0222,0.0103,0.0116,0.0016,0.0024,0.0045,0.0044,0.0007
366,0.0222,0.0103,0.0116,0.0016,0.0024,0.0045,0.0044,0.0007
367,0.0236,0.0115,0.0142,0.0021,0.0034,0.0053,0.0048,0.0013
368,0.0215,0.0131,0.0115,0.0035,0.0032,0.0072,0.0058,0.0024
369,0.0225,0.0132,0.0139,0.0046,0.0044,0.0056,0.0067,0.0033
370,0.0222,0.0103,0.0116,0.0016,0.0024,0.0045,0.0044,0.0007
371,0.0236,0.0115,0.0142,0.0021,0.0034,0.0053,0.0048,0.0013
372,0.0222,0.0103,0.0116,0.0016,0.0024,0.0045,0.0044,0.0007
373,0.0222,0.0103,0.0116,0.0016,0.0024,0.0045,0.0044,0.0007
374,0.0214,0.0103,0.0103,0.0023,0.0029,0.0051,0.0047,0.0013
375,0.0224,0.0105,0.0130,0.0027,0.0033,0.0054,0.0061,0.0019
376,0.0224,0.0106,0.0134,0.0023,0.0031,0.0056,0.0065,0.0015
377,0.0240,0.0133,0.0157,0.0034,0.0052,0.0072,0.0073,0.0027
378,0.0223,0.0100,0.0125,0.0024,0.0029,0.0047,0.0055,0.0017
379,0.0216,0.0125,0.0110,0.0033,0.0042,0.0062,0.0051,0.0025
380,0.0217,0.0316,0.0361,0.0101,0.0045,0.0180,0.0208,0.0062
381,0.0239,0.0122,0.0152,0.0026,0.0043,0.0056,0.0061,0.0019
382,0.0223,0.0103,0.0125,0.0026,0.0027,0.0047,0.0056,0.0019
383,0.0223,0.0098,0.0115,0.0026,0.0027,0.0040,0.0042,0.0018
384,0.0237,0.0125,0.0155,0.0024,0.0037,0.0065,0.0070,0.0017
385,0.0214,0.0100,0.0100,0.0030,0.0028,0.0049,0.0042,0.0023
386,0.0222,0.0102,0.0118,0.0017,0.0025,0.0044,0.0047,0.0010
387,0.0237,0.0114,0.0141,0.0024,0.0036,0.0049,0.0047,0.0018
388,0.0223,0.0102,0.0112,0.0019,0.0029,0.0042,0.0035,0.0012
389,0.0223,0.0125,0.0136,0.0019,0.0026,0.0072,0.0070,0.0011
390,0.0218,0.0123,0.0114,0.0029,0.0053,0.0072,0.0060,0.0022
391,0.0226,0.0169,0.0189,0.0059,0.0046,0.0065,0.0082,0.0035
392,0.0224,0.0111,0.0120,0.0022,0.0033,0.0052,0.0050,0.0015
393,0.0225,0.0126,0.0129,0.0019,0.0033,0.0063,0.0058,0.0011
394,0.0238,0.0132,0.0163,0.0023,0.0037,0.0066,0.0078,0.0016
395,0.0224,0.0111,0.0117,0.0024,0.0031,0.0049,0.0043,0.0017
396,0.0217,0.0168,0.0151,0.0042,0.0042,0.0108,0.0091,0.0034
397,0.0241,0.0133,0.0167,0.0042,0.0051,0.0074,0.0083,0.0033
398,0.0226,0.0155,0.0150,0.0028,0.0035,0.0092,0.0077,0.0021
399,0.0223,0.0272,0.0274,0.0158,0.0031,0.0181,0.0176,0.0101
400,0.0237,0.0208,0.0201,0.0115,0.0035,0.0125,0.0110,0.0069
401,0.0214,0.0224,0.0222,0.0134,0.0030,0.0152,0.0149,0.0088
402,0.0226,0.0207,0.0242,0.0068,0.0046,0.0092,0.0123,0.0033
403,0.0214,0.0224,0.0222,0.0134,0.0030,0.0152,0.0149,0.0088
404,0.0214,0.0224,0.0222,0.0134,0.0030,0.0152,0.0149,0.0088
405,0.0214,0.0224,0.0222,0.0134,0.0030,0.0152,0.0149,0.0088
406,0.0214,0.0224,0.0222,0.0134,0.0030,0.0152,0.0149,0.0088
407,0.0214,0.0224,0.0222,0.0134,0.0030,0.0152,0.0149,0.0088
408,0.0223,0.0096,0.0113,0.0016,0.0026,0.0041,0.0038,0.0007
409,0.0223,0.0096,0.0113,0.0016,0.0026,0.0041,0.0038,0.0007
410,0.0237,0.0116,0.0144,0.0021,0.0037,0.0060,0.0058,0.0015
411,0.0223,0.0096,0.0112,0.0018,0.0029,0.0044,0.0036,0.0010
412,0.0214,0.0137,0.0156,0.0026,0.0025,0.0091,0.0095,0.0018
413,0.0227,0.0293,0.0338,0.0099,0.0049,0.0155,0.0190,0.0043
414,0.0237,0.0111,0.0141,0.0032,0.0040,0.0047,0.0047,0.0026
415,0.0223,0.0118,0.0137,0.0018,0.0026,0.0070,0.0072,0.0011
416,0.0223,0.0143,0.0165,0.0017,0.0028,0.0087,0.0092,0.0009
417,0.0237,0.0108,0.0142,0.0021,0.0038,0.0041,0.0048,0.0013
418,0.0216,0.0105,0.0101,0.0038,0.0042,0.0057,0.0044,0.0030
419,0.0224,0.0100,0.0115,0.0026,0.0031,0.0044,0.0039,0.0019
420,0.0239,0.0114,0.0151,0.0026,0.0041,0.0051,0.0059,0.0020
421,0.0225,0.0109,0.0121,0.0020,0.0032,0.0055,0.0049,0.0013
422,0.0226,0.0140,0.0140,0.0032,0.0035,0.0086,0.0071,0.0024
423,0.0214,0.0132,0.0147,0.0031,0.0030,0.0090,0.0094,0.0023
424,0.0229,0.0352,0.0391,0.0135,0.0054,0.0185,0.0215,0.0062
425,0.0223,0.0308,0.0301,0.0194,0.0026,0.0208,0.0200,0.0129
426,0.0223,0.0192,0.0181,0.0120,0.0035,0.0127,0.0107,0.0079
427,0.0236,0.0320,0.0302,0.0207,0.0029,0.0223,0.0203,0.0145
428,0.0224,0.0268,0.0266,0.0134,0.0037,0.0182,0.0176,0.0091
429,0.0215,0.0138,0.0155,0.0053,0.0036,0.0088,0.0093,0.0038
430,0.0238,0.0185,0.0234,0.0141,0.0043,0.0123,0.0148,0.0099
431,0.0223,0.0150,0.0182,0.0068,0.0032,0.0100,0.0113,0.0044
432,0.0223,0.0111,0.0134,0.0054,0.0029,0.0064,0.0070,0.0036
433,0.0237,0.0123,0.0195,0.0054,0.0039,0.0067,0.0118,0.0041
434,0.0214,0.0107,0.0113,0.0024,0.0032,0.0064,0.0062,0.0016
435,0.0219,0.0449,0.0398,0.0210,0.0055,0.0198,0.0174,0.0100
436,0.0223,0.0118,0.0137,0.0018,0.0026,0.0070,0.0072,0.0011
437,0.0237,0.0109,0.0146,0.0026,0.0036,0.0045,0.0054,0.0020
438,0.0222,0.0097,0.0116,0.0041,0.0024,0.0042,0.0042,0.0030
439,0.0223,0.0098,0.0119,0.0041,0.0028,0.0043,0.0046,0.0028
440,0.0214,0.0147,0.0163,0.0036,0.0033,0.0098,0.0100,0.0023
441,0.0223,0.0107,0.0129,0.0045,0.0027,0.0056,0.0060,0.0030
442,0.0222,0.0115,0.0132,0.0056,0.0023,0.0065,0.0064,0.0038
443,0.0237,0.0150,0.0187,0.0067,0.0041,0.0082,0.0099,0.0044
444,0.0223,0.0131,0.0140,0.0085,0.0026,0.0075,0.0066,0.0056
445,0.0215,0.0308,0.0301,0.0203,0.0036,0.0207,0.0191,0.0134
446,0.0217,0.0167,0.0134,0.0032,0.0043,0.0073,0.0063,0.0025
447,0.0231,0.0352,0.0333,0.0182,0.0059,0.0166,0.0154,0.0090
448,0.0237,0.0158,0.0175,0.0149,0.0037,0.0097,0.0093,0.0105
449,0.0223,0.0143,0.0165,0.0017,0.0028,0.0087,0.0092,0.0009
450,0.0223,0.0096,0.0113,0.0016,0.0026,0.0041,0.0038,0.0007
451,0.0237,0.0116,0.0144,0.0021,0.0037,0.0060,0.0058,0.0015
452,0.0214,0.0097,0.0106,0.0023,0.0030,0.0053,0.0053,0.0013
453,0.0223,0.0096,0.0113,0.0016,0.0026,0.0041,0.0038,0.0007
454,0.0237,0.0116,0.0144,0.0021,0.0037,0.0060,0.0058,0.0015
455,0.0223,0.0096,0.0113,0.0016,0.0026,0.0041,0.0038,0.0007
456,0.0223,0.0096,0.0113,0.0016,0.0026,0.0041,0.0038,0.0007
457,0.0214,0.0097,0.0106,0.0023,0.0030,0.0053,0.0053,0.0013
458,0.0225,0.0140,0.0132,0.0027,0.0039,0.0051,0.0056,0.0016
459,0.0223,0.0096,0.0113,0.0016,0.0026,0.0041,0.0038,0.0007
460,0.0223,0.0096,0.0113,0.0016,0.0026,0.0041,0.0038,0.0007
461,0.0237,0.0108,0.0142,0.0021,0.0038,0.0041,0.0048,0.0013
462,0.0223,0.0096,0.0113,0.0016,0.0026,0.0041,0.0038,0.0007
463,0.0214,0.0097,0.0106,0.0023,0.0030,0.0053,0.0053,0.0013
464,0.0237,0.0116,0.0144,0.0021,0.0037,0.0060,0.0058,0.0015
465,0.0223,0.0096,0.0113,0.0016,0.0026,0.0041,0.0038,0.0007
466,0.0223,0.0096,0.0113,0.0016,0.0026,0.0041,0.0038,0.0007
467,0.0237,0.0116,0.0144,0.0021,0.0037,0.0060,0.0058,0.0015
468,0.0214,0.0097,0.0106,0.0023,0.0030,0.0053,0.0053,0.0013
469,0.0224,0.0115,0.0116,0.0018,0.0036,0.0042,0.0042,0.0009
470,0.0223,0.0096,0.0113,0.0016,0.0026,0.0041,0.0038,0.0007
471,0.0237,0.0116,0.0144,0.0021,0.0037,0.0060,0.0058,0.0015
472,0.0223,0.0096,0.0113,0.0016,0.0026,0.0041,0.0038,0.0007
473,0.0224,0.0098,0.0114,0.0027,0.0034,0.0043,0.0038,0.0020
474,0.0214,0.0097,0.0106,0.0023,0.0030,0.0053,0.0053,0.0013
475,0.0223,0.0096,0.0113,0.0016,0.0026,0.0041,0.0038,0.0007
476,0.0223,0.0096,0.0113,0.0016,0.0026,0.0041,0.0038,0.0007
477,0.0237,0.0116,0.0144,0.0021,0.0037,0.0060,0.0058,0.0015
478,0.0223,0.0096,0.0113,0.0016,0.0026,0.0041,0.0038,0.0007
479,0.0214,0.0097,0.0106,0.0023,0.0030,0.0053,0.0053,0.0013
480,0.0224,0.0115,0.0116,0.0018,0.0036,0.0042,0.0042,0.0009
481,0.0237,0.0116,0.0144,0.0021,0.0037,0.0060,0.0058,0.0015
482,0.0223,0.0096,0.0113,0.0016,0.0026,0.0041,0.0038,0.0007
483,0.0223,0.0096,0.0113,0.0016,0.0026,0.0041,0.0038,0.0007
484,0.0237,0.0116,0.0144,0.0021,0.0037,0.0060,0.0058,0.0015
485,0.0215,0.0113,0.0109,0.0042,0.0031,0.0069,0.0054,0.0033
486,0.0223,0.0096,0.0113,0.0016,0.0026,0.0041,0.0038,0.0007
487,0.0237,0.0116,0.0144,0.0021,0.0037,0.0060,0.0058,0.0015
488,0.0223,0.0096,0.0113,0.0016,0.0026,0.0041,0.0038,0.0007
489,0.0223,0.0096,0.0113,0.0016,0.0026,0.0041,0.0038,0.0007
490,0.0214,0.0097,0.0106,0.0023,0.0030,0.0053,0.0053,0.0013
491,0.0216,0.0140,0.0119,0.0025,0.0040,0.0064,0.0056,0.0017
492,0.0224,0.0112,0.0157,0.0026,0.0031,0.0063,0.0082,0.0017
493,0.0224,0.0107,0.0148,0.0024,0.0030,0.0059,0.0076,0.0017
494,0.0239,0.0138,0.0178,0.0032,0.0048,0.0076,0.0092,0.0024
495,0.0223,0.0101,0.0138,0.0027,0.0027,0.0052,0.0070,0.0020
496,0.0216,0.0105,0.0101,0.0038,0.0042,0.0057,0.0044,0.0030
497,0.0239,0.0114,0.0151,0.0026,0.0041,0.0051,0.0059,0.0020
498,0.0223,0.0096,0.0124,0.0030,0.0029,0.0044,0.0055,0.0022
499,0.0223,0.0096,0.0120,0.0029,0.0029,0.0043,0.0049,0.0020
500,0.0237,0.0124,0.0159,0.0022,0.0040,0.0063,0.0075,0.0015
501,0.0214,0.0093,0.0101,0.0032,0.0028,0.0050,0.0046,0.0025
502,0.0224,0.0115,0.0116,0.0018,0.0036,0.0042,0.0042,0.0009
503,0.0223,0.0093,0.0112,0.0018,0.0026,0.0035,0.0035,0.0011
504,0.0237,0.0114,0.0144,0.0027,0.0039,0.0055,0.0054,0.0021
505,0.0223,0.0095,0.0112,0.0019,0.0031,0.0040,0.0036,0.0012
506,0.0223,0.0118,0.0137,0.0018,0.0026,0.0070,0.0072,0.0011
507,0.0218,0.0110,0.0111,0.0029,0.0052,0.0068,0.0059,0.0022
508,0.0224,0.0106,0.0122,0.0021,0.0034,0.0055,0.0054,0.0014
509,0.0225,0.0109,0.0121,0.0020,0.0032,0.0055,0.0049,0.0013
510,0.0238,0.0125,0.0160,0.0023,0.0039,0.0065,0.0076,0.0016
511,0.0224,0.0100,0.0115,0.0026,0.0031,0.0044,0.0039,0.0019
512,0.0216,0.0164,0.0154,0.0031,0.0038,0.0109,0.0093,0.0022
513,0.0224,0.0115,0.0116,0.0018,0.0036,0.0042,0.0042,0.0009
514,0.0241,0.0130,0.0170,0.0045,0.0050,0.0076,0.0089,0.0036
515,0.0226,0.0140,0.0140,0.0032,0.0035,0.0086,0.0071,0.0024
516,0.0223,0.0308,0.0301,0.0194,0.0026,0.0208,0.0200,0.0129
517,0.0236,0.0244,0.0227,0.0149,0.0032,0.0166,0.0142,0.0103
518,0.0214,0.0213,0.0216,0.0131,0.0028,0.0146,0.0144,0.0086
519,0.0214,0.0213,0.0216,0.0131,0.0028,0.0146,0.0144,0.0086
520,0.0214,0.0213,0.0216,0.0131,0.0028,0.0146,0.0144,0.0086
521,0.0214,0.0213,0.0216,0.0131,0.0028,0.0146,0.0144,0.0086
522,0.0214,0.0213,0.0216,0.0131,0.0028,0.0146,0.0144,0.0086
523,0.0214,0.0213,0.0216,0.0131,0.0028,0.0146,0.0144,0.0086
524,0.0224,0.0115,0.0116,0.0018,0.0036,0.0042,0.0042,0.0009
525,0.0223,0.0095,0.0113,0.0016,0.0027,0.0040,0.0038,0.0007
526,0.0223,0.0095,0.0113,0.0016,0.0027,0.0040,0.0038,0.0007
527,0.0237,0.0114,0.0144,0.0021,0.0039,0.0057,0.0056,0.0015
528,0.0223,0.0094,0.0112,0.0017,0.0032,0.0040,0.0036,0.0009
529,0.0214,0.0105,0.0118,0.0025,0.0025,0.0064,0.0066,0.0017
530,0.0237,0.0112,0.0142,0.0033,0.0041,0.0051,0.0051,0.0027
531,0.0223,0.0109,0.0128,0.0017,0.0027,0.0061,0.0062,0.0010
532,0.0223,0.0124,0.0146,0.0017,0.0029,0.0074,0.0078,0.0008
533,0.0238,0.0106,0.0139,0.0020,0.0039,0.0038,0.0042,0.0012
534,0.0216,0.0097,0.0099,0.0041,0.0042,0.0051,0.0041,0.0032
535,0.0224,0.0115,0.0116,0.0018,0.0036,0.0042,0.0042,0.0009
536,0.0224,0.0099,0.0116,0.0027,0.0031,0.0045,0.0041,0.0020
537,0.0239,0.0112,0.0151,0.0026,0.0039,0.0048,0.0061,0.0019
538,0.0225,0.0103,0.0119,0.0020,0.0031,0.0051,0.0046,0.0013
539,0.0226,0.0148,0.0146,0.0033,0.0034,0.0094,0.0077,0.0025
540,0.0214,0.0138,0.0155,0.0030,0.0030,0.0096,0.0101,0.0022
541,0.0222,0.0337,0.0323,0.0217,0.0025,0.0229,0.0215,0.0145
542,0.0224,0.0216,0.0200,0.0139,0.0035,0.0146,0.0125,0.0093
543,0.0236,0.0367,0.0343,0.0237,0.0029,0.0255,0.0232,0.0164
544,0.0224,0.0284,0.0283,0.0141,0.0036,0.0195,0.0189,0.0095
545,0.0215,0.0132,0.0154,0.0050,0.0035,0.0088,0.0095,0.0036
546,0.0216,0.0140,0.0119,0.0025,0.0040,0.0064,0.0056,0.0017
547,0.0238,0.0195,0.0245,0.0150,0.0042,0.0131,0.0155,0.0104
548,0.0223,0.0153,0.0191,0.0068,0.0032,0.0103,0.0122,0.0045
549,0.0223,0.0108,0.0134,0.0053,0.0030,0.0062,0.0071,0.0035
550,0.0237,0.0120,0.0193,0.0057,0.0041,0.0063,0.0117,0.0043
551,0.0214,0.0102,0.0110,0.0023,0.0034,0.0060,0.0059,0.0015
552,0.0223,0.0109,0.0128,0.0017,0.0027,0.0061,0.0062,0.0010
553,0.0237,0.0108,0.0145,0.0028,0.0037,0.0042,0.0052,0.0021
554,0.0222,0.0095,0.0118,0.0042,0.0024,0.0042,0.0045,0.0031
555,0.0223,0.0097,0.0122,0.0042,0.0026,0.0044,0.0051,0.0029
556,0.0214,0.0115,0.0124,0.0029,0.0033,0.0069,0.0069,0.0019
557,0.0230,0.0314,0.0243,0.0206,0.0063,0.0156,0.0142,0.0118
558,0.0224,0.0115,0.0116,0.0018,0.0036,0.0042,0.0042,0.0009
559,0.0223,0.0108,0.0134,0.0046,0.0025,0.0057,0.0065,0.0030
560,0.0222,0.0117,0.0138,0.0059,0.0022,0.0068,0.0070,0.0040
561,0.0237,0.0151,0.0196,0.0070,0.0040,0.0085,0.0111,0.0047
562,0.0223,0.0138,0.0140,0.0097,0.0027,0.0085,0.0070,0.0065
563,0.0215,0.0332,0.0317,0.0224,0.0036,0.0224,0.0205,0.0149
564,0.0237,0.0188,0.0202,0.0174,0.0034,0.0123,0.0121,0.0121
565,0.0223,0.0124,0.0146,0.0017,0.0029,0.0074,0.0078,0.0008
566,0.0223,0.0095,0.0113,0.0016,0.0027,0.0040,0.0038,0.0007
567,0.0237,0.0114,0.0144,0.0021,0.0039,0.0057,0.0056,0.0015
568,0.0214,0.0089,0.0098,0.0023,0.0030,0.0043,0.0041,0.0013
569,0.0224,0.0115,0.0116,0.0018,0.0036,0.0042,0.0042,0.0009
570,0.0223,0.0095,0.0113,0.0016,0.0027,0.0040,0.0038,0.0007
571,0.0237,0.0114,0.0144,0.0021,0.0039,0.0057,0.0056,0.0015
572,0.0223,0.0095,0.0113,0.0016,0.0027,0.0040,0.0038,0.0007
573,0.0223,0.0095,0.0113,0.0016,0.0027,0.0040,0.0038,0.0007
574,0.0214,0.0089,0.0098,0.0023,0.0030,0.0043,0.0041,0.0013
575,0.0223,0.0095,0.0113,0.0016,0.0027,0.0040,0.0038,0.0007
576,0.0223,0.0095,0.0113,0.0016,0.0027,0.0040,0.0038,0.0007
577,0.0238,0.0106,0.0139,0.0020,0.0039,0.0038,0.0042,0.0012
578,0.0223,0.0095,0.0113,0.0016,0.0027,0.0040,0.0038,0.0007
579,0.0214,0.0089,0.0098,0.0023,0.0030,0.0043,0.0041,0.0013
580,0.0226,0.0148,0.0136,0.0025,0.0042,0.0063,0.0064,0.0017
581,0.0237,0.0114,0.0144,0.0021,0.0039,0.0057,0.0056,0.0015
582,0.0223,0.0095,0.0113,0.0016,0.0027,0.0040,0.0038,0.0007
583,0.0223,0.0095,0.0113,0.0016,0.0027,0.0040,0.0038,0.0007
584,0.0237,0.0114,0.0144,0.0021,0.0039,0.0057,0.0056,0.0015
585,0.0214,0.0089,0.0098,0.0023,0.0030,0.0043,0.0041,0.0013
586,0.0223,0.0095,0.0113,0.0016,0.0027,0.0040,0.0038,0.0007
587,0.0237,0.0114,0.0144,0.0021,0.0039,0.0057,0.0056,0.0015
588,0.0223,0.0095,0.0113,0.0016,0.0027,0.0040,0.0038,0.0007
589,0.0224,0.0102,0.0121,0.0027,0.0035,0.0051,0.0050,0.0020
590,0.0214,0.0089,0.0098,0.0023,0.0030,0.0043,0.0041,0.0013
591,0.0224,0.0115,0.0116,0.0018,0.0036,0.0042,0.0042,0.0009
592,0.0223,0.0095,0.0113,0.0016,0.0027,0.0040,0.0038,0.0007
593,0.0223,0.0095,0.0113,0.0016,0.0027,0.0040,0.0038,0.0007
594,0.0237,0.0114,0.0144,0.0021,0.0039,0.0057,0.0056,0.0015
595,0.0223,0.0095,0.0113,0.0016,0.0027,0.0040,0.0038,0.0007
596,0.0214,0.0089,0.0098,0.0023,0.0030,0.0043,0.0041,0.0013
597,0.0237,0.0114,0.0144,0.0021,0.0039,0.0057,0.0056,0.0015
598,0.0223,0.0095,0.0113,0.0016,0.0027,0.0040,0.0038,0.0007
599,0.0223,0.0095,0.0113,0.0016,0.0027,0.0040,0.0038,0.0007
600,0.0237,0.0114,0.0144,0.0021,0.0039,0.0057,0.0056,0.0015
601,0.0215,0.0113,0.0109,0.0046,0.0030,0.0071,0.0055,0.0036
602,0.0216,0.0140,0.0119,0.0025,0.0040,0.0064,0.0056,0.0017
603,0.0223,0.0095,0.0113,0.0016,0.0027,0.0040,0.0038,0.0007
604,0.0237,0.0114,0.0144,0.0021,0.0039,0.0057,0.0056,0.0015
605,0.0223,0.0095,0.0113,0.0016,0.0027,0.0040,0.0038,0.0007
606,0.0223,0.0095,0.0113,0.0016,0.0027,0.0040,0.0038,0.0007
607,0.0214,0.0089,0.0098,0.0023,0.0030,0.0043,0.0041,0.0013
608,0.0224,0.0113,0.0164,0.0026,0.0031,0.0065,0.0090,0.0018
609,0.0224,0.0119,0.0175,0.0025,0.0029,0.0070,0.0097,0.0018
610,0.0239,0.0148,0.0200,0.0032,0.0046,0.0084,0.0110,0.0023
611,0.0223,0.0113,0.0161,0.0028,0.0028,0.0063,0.0087,0.0021
612,0.0216,0.0097,0.0099,0.0041,0.0042,0.0051,0.0041,0.0032
613,0.0224,0.0115,0.0116,0.0018,0.0036,0.0042,0.0042,0.0009
614,0.0239,0.0112,0.0151,0.0026,0.0039,0.0048,0.0061,0.0019
615,0.0223,0.0102,0.0135,0.0032,0.0030,0.0051,0.0067,0.0023
616,0.0223,0.0094,0.0119,0.0031,0.0031,0.0041,0.0048,0.0022
617,0.0237,0.0126,0.0165,0.0021,0.0041,0.0066,0.0082,0.0014
618,0.0214,0.0089,0.0100,0.0033,0.0030,0.0046,0.0043,0.0026
619,0.0223,0.0091,0.0111,0.0019,0.0027,0.0034,0.0034,0.0013
620,0.0237,0.0110,0.0141,0.0026,0.0041,0.0048,0.0047,0.0020
621,0.0223,0.0093,0.0110,0.0018,0.0033,0.0038,0.0031,0.0011
622,0.0223,0.0109,0.0128,0.0017,0.0027,0.0061,0.0062,0.0010
623,0.0218,0.0128,0.0131,0.0028,0.0051,0.0085,0.0078,0.0021
624,0.0224,0.0115,0.0116,0.0018,0.0036,0.0042,0.0042,0.0009
625,0.0224,0.0109,0.0127,0.0020,0.0035,0.0060,0.0059,0.0013
626,0.0225,0.0103,0.0119,0.0020,0.0031,0.0051,0.0046,0.0013
627,0.0238,0.0107,0.0142,0.0022,0.0039,0.0040,0.0046,0.0015
628,0.0224,0.0099,0.0116,0.0027,0.0031,0.0045,0.0041,0.0020
629,0.0216,0.0171,0.0159,0.0031,0.0038,0.0116,0.0100,0.0022
630,0.0241,0.0144,0.0183,0.0046,0.0050,0.0089,0.0104,0.0036
631,0.0226,0.0148,0.0146,0.0033,0.0034,0.0094,0.0077,0.0025
632,0.0222,0.0337,0.0323,0.0217,0.0025,0.0229,0.0215,0.0145
633,0.0236,0.0290,0.0264,0.0184,0.0032,0.0201,0.0174,0.0126
634,0.0214,0.0221,0.0224,0.0132,0.0028,0.0152,0.0152,0.0089
635,0.0224,0.0115,0.0116,0.0018,0.0036,0.0042,0.0042,0.0009
636,0.0214,0.0221,0.0224,0.0132,0.0028,0.0152,0.0152,0.0089
637,0.0214,0.0221,0.0224,0.0132,0.0028,0.0152,0.0152,0.0089
638,0.0214,0.0221,0.0224,0.0132,0.0028,0.0152,0.0152,0.0089
639,0.0214,0.0221,0.0224,0.0132,0.0028,0.0152,0.0152,0.0089
640,0.0214,0.0221,0.0224,0.0132,0.0028,0.0152,0.0152,0.0089
641,0.0223,0.0122,0.0118,0.0017,0.0027,0.0051,0.0045,0.0008
642,0.0223,0.0122,0.0118,0.0017,0.0027,0.0051,0.0045,0.0008
643,0.0237,0.0127,0.0144,0.0029,0.0037,0.0052,0.0054,0.0023
644,0.0223,0.0143,0.0146,0.0018,0.0031,0.0076,0.0068,0.0010
645,0.0215,0.0144,0.0113,0.0025,0.0036,0.0061,0.0049,0.0016
646,0.0224,0.0115,0.0116,0.0018,0.0036,0.0042,0.0042,0.0009
647,0.0237,0.0136,0.0149,0.0023,0.0040,0.0064,0.0061,0.0016
648,0.0223,0.0143,0.0129,0.0018,0.0032,0.0069,0.0058,0.0010
649,0.0224,0.0141,0.0125,0.0018,0.0034,0.0059,0.0051,0.0010
650,0.0238,0.0154,0.0164,0.0022,0.0041,0.0077,0.0075,0.0015
651,0.0217,0.0177,0.0125,0.0028,0.0049,0.0072,0.0059,0.0021
652,0.0225,0.0158,0.0131,0.0022,0.0038,0.0063,0.0054,0.0015
653,0.0240,0.0174,0.0180,0.0027,0.0044,0.0091,0.0094,0.0018
654,0.0226,0.0195,0.0166,0.0029,0.0038,0.0096,0.0088,0.0019
655,0.0227,0.0182,0.0154,0.0029,0.0042,0.0091,0.0077,0.0021
656,0.0217,0.0156,0.0124,0.0032,0.0044,0.0075,0.0062,0.0024
657,0.0216,0.0140,0.0119,0.0025,0.0040,0.0064,0.0056,0.0017
658,0.0226,0.0278,0.0213,0.0177,0.0039,0.0139,0.0119,0.0100
659,0.0223,0.0258,0.0202,0.0139,0.0032,0.0122,0.0101,0.0069
660,0.0237,0.0249,0.0240,0.0142,0.0038,0.0139,0.0145,0.0086
661,0.0224,0.0268,0.0261,0.0094,0.0036,0.0172,0.0169,0.0061
662,0.0216,0.0237,0.0211,0.0067,0.0038,0.0135,0.0133,0.0040
663,0.0239,0.0184,0.0206,0.0101,0.0050,0.0106,0.0119,0.0072
664,0.0225,0.0233,0.0230,0.0029,0.0039,0.0149,0.0147,0.0017
665,0.0223,0.0192,0.0183,0.0023,0.0030,0.0117,0.0112,0.0014
666,0.0237,0.0150,0.0185,0.0063,0.0037,0.0082,0.0108,0.0046
667,0.0215,0.0150,0.0128,0.0024,0.0037,0.0082,0.0071,0.0014
668,0.0224,0.0305,0.0238,0.0179,0.0036,0.0135,0.0115,0.0095
669,0.0224,0.0115,0.0116,0.0018,0.0036,0.0042,0.0042,0.0009
670,0.0223,0.0143,0.0129,0.0018,0.0032,0.0069,0.0058,0.0010
671,0.0237,0.0133,0.0157,0.0024,0.0037,0.0052,0.0072,0.0018
672,0.0222,0.0136,0.0126,0.0028,0.0024,0.0057,0.0047,0.0021
673,0.0223,0.0159,0.0148,0.0035,0.0032,0.0075,0.0066,0.0024
674,0.0216,0.0269,0.0287,0.0075,0.0041,0.0128,0.0134,0.0039
675,0.0225,0.0182,0.0180,0.0064,0.0040,0.0085,0.0084,0.0037
676,0.0224,0.0201,0.0211,0.0077,0.0033,0.0091,0.0098,0.0043
677,0.0238,0.0244,0.0270,0.0111,0.0047,0.0136,0.0147,0.0073
678,0.0223,0.0304,0.0323,0.0121,0.0028,0.0138,0.0146,0.0060
679,0.0217,0.0468,0.0427,0.0225,0.0044,0.0234,0.0220,0.0115
680,0.0224,0.0115,0.0116,0.0018,0.0036,0.0042,0.0042,0.0009
681,0.0239,0.0241,0.0259,0.0122,0.0047,0.0120,0.0128,0.0075
682,0.0224,0.0141,0.0125,0.0018,0.0034,0.0059,0.0051,0.0010
683,0.0223,0.0122,0.0118,0.0017,0.0027,0.0051,0.0045,0.0008
684,0.0237,0.0127,0.0144,0.0029,0.0037,0.0052,0.0054,0.0023
685,0.0215,0.0137,0.0111,0.0024,0.0037,0.0059,0.0050,0.0014
686,0.0223,0.0122,0.0118,0.0017,0.0027,0.0051,0.0045,0.0008
687,0.0237,0.0127,0.0144,0.0029,0.0037,0.0052,0.0054,0.0023
688,0.0223,0.0122,0.0118,0.0017,0.0027,0.0051,0.0045,0.0008
689,0.0223,0.0122,0.0118,0.0017,0.0027,0.0051,0.0045,0.0008
690,0.0215,0.0137,0.0111,0.0024,0.0037,0.0059,0.0050,0.0014
691,0.0224,0.0115,0.0116,0.0018,0.0036,0.0042,0.0042,0.0009
692,0.0223,0.0122,0.0118,0.0017,0.0027,0.0051,0.0045,0.0008
693,0.0223,0.0122,0.0118,0.0017,0.0027,0.0051,0.0045,0.0008
694,0.0238,0.0154,0.0164,0.0022,0.0041,0.0077,0.0075,0.0015
695,0.0223,0.0122,0.0118,0.0017,0.0027,0.0051,0.0045,0.0008
696,0.0215,0.0137,0.0111,0.0024,0.0037,0.0059,0.0050,0.0014
697,0.0237,0.0127,0.0144,0.0029,0.0037,0.0052,0.0054,0.0023
698,0.0223,0.0122,0.0118,0.0017,0.0027,0.0051,0.0045,0.0008
699,0.0223,0.0122,0.0118,0.0017,0.0027,0.0051,0.0045,0.0008
700,0.0237,0.0127,0.0144,0.0029,0.0037,0.0052,0.0054,0.0023
701,0.0215,0.0137,0.0111,0.0024,0.0037,0.0059,0.0050,0.0014
702,0.0227,0.0142,0.0132,0.0022,0.0047,0.0060,0.0063,0.0014
703,0.0223,0.0122,0.0118,0.0017,0.0027,0.0051,0.0045,0.0008
704,0.0237,0.0127,0.0144,0.0029,0.0037,0.0052,0.0054,0.0023
705,0.0223,0.0122,0.0118,0.0017,0.0027,0.0051,0.0045,0.0008
706,0.0225,0.0151,0.0126,0.0020,0.0039,0.0061,0.0050,0.0013
707,0.0215,0.0137,0.0111,0.0024,0.0037,0.0059,0.0050,0.0014
708,0.0223,0.0122,0.0118,0.0017,0.0027,0.0051,0.0045,0.0008
709,0.0223,0.0122,0.0118,0.0017,0.0027,0.0051,0.0045,0.0008
710,0.0237,0.0127,0.0144,0.0029,0.0037,0.0052,0.0054,0.0023
711,0.0223,0.0122,0.0118,0.0017,0.0027,0.0051,0.0045,0.0008
712,0.0215,0.0137,0.0111,0.0024,0.0037,0.0059,0.0050,0.0014
713,0.0216,0.0140,0.0119,0.0025,0.0040,0.0064,0.0056,0.0017
714,0.0237,0.0127,0.0144,0.0029,0.0037,0.0052,0.0054,0.0023
715,0.0223,0.0122,0.0118,0.0017,0.0027,0.0051,0.0045,0.0008
716,0.0223,0.0122,0.0118,0.0017,0.0027,0.0051,0.0045,0.0008
717,0.0237,0.0127,0.0144,0.0029,0.0037,0.0052,0.0054,0.0023
718,0.0216,0.0184,0.0129,0.0042,0.0039,0.0083,0.0067,0.0034
719,0.0223,0.0122,0.0118,0.0017,0.0027,0.0051,0.0045,0.0008
720,0.0237,0.0127,0.0144,0.0029,0.0037,0.0052,0.0054,0.0023
721,0.0223,0.0122,0.0118,0.0017,0.0027,0.0051,0.0045,0.0008
722,0.0223,0.0122,0.0118,0.0017,0.0027,0.0051,0.0045,0.0008
723,0.0215,0.0137,0.0111,0.0024,0.0037,0.0059,0.0050,0.0014
724,0.0224,0.0115,0.0116,0.0018,0.0036,0.0042,0.0042,0.0009
725,0.0232,0.0120,0.0154,0.0033,0.0059,0.0053,0.0065,0.0025
726,0.0230,0.0123,0.0147,0.0027,0.0055,0.0055,0.0061,0.0020
727,0.0253,0.0151,0.0158,0.0039,0.0089,0.0085,0.0067,0.0030
728,0.0227,0.0122,0.0137,0.0023,0.0048,0.0052,0.0056,0.0016
729,0.0217,0.0177,0.0125,0.0028,0.0049,0.0072,0.0059,0.0021
730,0.0240,0.0174,0.0180,0.0027,0.0044,0.0091,0.0094,0.0018
731,0.0225,0.0119,0.0127,0.0026,0.0041,0.0044,0.0051,0.0019
732,0.0224,0.0120,0.0126,0.0025,0.0037,0.0045,0.0049,0.0018
733,0.0240,0.0138,0.0147,0.0039,0.0056,0.0070,0.0059,0.0027
734,0.0215,0.0144,0.0122,0.0027,0.0034,0.0081,0.0068,0.0020
735,0.0224,0.0115,0.0116,0.0018,0.0036,0.0042,0.0042,0.0009
736,0.0223,0.0127,0.0129,0.0018,0.0025,0.0051,0.0055,0.0010
737,0.0237,0.0134,0.0153,0.0024,0.0038,0.0064,0.0066,0.0019
738,0.0224,0.0139,0.0137,0.0018,0.0034,0.0066,0.0060,0.0010
739,0.0223,0.0143,0.0129,0.0018,0.0032,0.0069,0.0058,0.0010
740,0.0222,0.0170,0.0133,0.0031,0.0064,0.0083,0.0072,0.0024
741,0.0225,0.0144,0.0127,0.0019,0.0038,0.0062,0.0053,0.0011
742,0.0226,0.0195,0.0166,0.0029,0.0038,0.0096,0.0088,0.0019
743,0.0238,0.0155,0.0159,0.0028,0.0042,0.0073,0.0070,0.0021
744,0.0225,0.0158,0.0131,0.0022,0.0038,0.0063,0.0054,0.0015
745,0.0219,0.0190,0.0129,0.0070,0.0046,0.0087,0.0068,0.0050
746,0.0224,0.0115,0.0116,0.0018,0.0036,0.0042,0.0042,0.0009
747,0.0241,0.0177,0.0194,0.0030,0.0048,0.0101,0.0111,0.0023
748,0.0227,0.0182,0.0154,0.0029,0.0042,0.0091,0.0077,0.0021
749,0.0226,0.0278,0.0213,0.0177,0.0039,0.0139,0.0119,0.0100
750,0.0238,0.0273,0.0213,0.0193,0.0044,0.0160,0.0110,0.0121
751,0.0214,0.0264,0.0230,0.0107,0.0030,0.0145,0.0144,0.0065
752,0.0214,0.0264,0.0230,0.0107,0.0030,0.0145,0.0144,0.0065
753,0.0214,0.0264,0.0230,0.0107,0.0030,0.0145,0.0144,0.0065
754,0.0214,0.0264,0.0230,0.0107,0.0030,0.0145,0.0144,0.0065
755,0.0214,0.0264,0.0230,0.0107,0.0030,0.0145,0.0144,0.0065
756,0.0214,0.0264,0.0230,0.0107,0.0030,0.0145,0.0144,0.0065
757,0.0224,0.0115,0.0116,0.0018,0.0036,0.0042,0.0042,0.0009
758,0.0222,0.0113,0.0114,0.0017,0.0025,0.0046,0.0037,0.0008
759,0.0222,0.0113,0.0114,0.0017,0.0025,0.0046,0.0037,0.0008
760,0.0237,0.0122,0.0141,0.0023,0.0036,0.0055,0.0047,0.0017
761,0.0223,0.0124,0.0126,0.0018,0.0029,0.0062,0.0053,0.0010
762,0.0214,0.0133,0.0116,0.0026,0.0032,0.0059,0.0056,0.0017
763,0.0237,0.0127,0.0143,0.0026,0.0039,0.0055,0.0051,0.0020
764,0.0223,0.0131,0.0125,0.0017,0.0029,0.0064,0.0054,0.0009
765,0.0223,0.0130,0.0120,0.0018,0.0031,0.0050,0.0043,0.0010
766,0.0238,0.0136,0.0150,0.0021,0.0039,0.0065,0.0061,0.0014
767,0.0217,0.0159,0.0122,0.0027,0.0049,0.0072,0.0060,0.0018
768,0.0216,0.0140,0.0119,0.0025,0.0040,0.0064,0.0056,0.0017
769,0.0225,0.0149,0.0131,0.0020,0.0038,0.0063,0.0054,0.0013
770,0.0240,0.0158,0.0171,0.0024,0.0043,0.0084,0.0086,0.0016
771,0.0226,0.0161,0.0139,0.0023,0.0040,0.0074,0.0066,0.0014
772,0.0227,0.0152,0.0129,0.0021,0.0041,0.0074,0.0058,0.0014
773,0.0216,0.0138,0.0119,0.0033,0.0039,0.0066,0.0059,0.0024
774,0.0224,0.0246,0.0214,0.0139,0.0035,0.0135,0.0130,0.0077
775,0.0223,0.0227,0.0189,0.0113,0.0030,0.0115,0.0099,0.0060
776,0.0237,0.0241,0.0242,0.0132,0.0035,0.0149,0.0149,0.0081
777,0.0224,0.0249,0.0245,0.0100,0.0037,0.0164,0.0158,0.0067
778,0.0216,0.0210,0.0193,0.0071,0.0038,0.0121,0.0119,0.0044
779,0.0224,0.0267,0.0226,0.0138,0.0035,0.0115,0.0110,0.0072
780,0.0224,0.0115,0.0116,0.0018,0.0036,0.0042,0.0042,0.0009
781,0.0239,0.0180,0.0214,0.0081,0.0048,0.0113,0.0129,0.0046
782,0.0224,0.0214,0.0220,0.0041,0.0037,0.0140,0.0140,0.0029
783,0.0223,0.0172,0.0168,0.0029,0.0029,0.0107,0.0102,0.0021
784,0.0237,0.0159,0.0208,0.0038,0.0035,0.0095,0.0128,0.0029
785,0.0214,0.0132,0.0116,0.0024,0.0034,0.0074,0.0062,0.0014
786,0.0223,0.0131,0.0125,0.0017,0.0029,0.0064,0.0054,0.0009
787,0.0237,0.0127,0.0159,0.0023,0.0037,0.0054,0.0077,0.0018
788,0.0223,0.0124,0.0122,0.0032,0.0026,0.0051,0.0043,0.0024
789,0.0224,0.0132,0.0131,0.0037,0.0034,0.0058,0.0053,0.0025
790,0.0216,0.0248,0.0273,0.0069,0.0040,0.0129,0.0139,0.0036
791,0.0224,0.0115,0.0116,0.0018,0.0036,0.0042,0.0042,0.0009
792,0.0224,0.0161,0.0162,0.0061,0.0037,0.0076,0.0074,0.0036
793,0.0223,0.0176,0.0188,0.0068,0.0031,0.0082,0.0086,0.0040
794,0.0238,0.0221,0.0245,0.0099,0.0045,0.0127,0.0135,0.0065
795,0.0223,0.0271,0.0295,0.0105,0.0028,0.0128,0.0139,0.0054
796,0.0216,0.0388,0.0356,0.0183,0.0041,0.0205,0.0190,0.0100
797,0.0239,0.0212,0.0234,0.0108,0.0048,0.0107,0.0115,0.0069
798,0.0223,0.0130,0.0120,0.0018,0.0031,0.0050,0.0043,0.0010
799,0.0222,0.0113,0.0114,0.0017,0.0025,0.0046,0.0037,0.0008
800,0.0237,0.0122,0.0141,0.0023,0.0036,0.0055,0.0047,0.0017
801,0.0214,0.0128,0.0109,0.0024,0.0033,0.0056,0.0048,0.0015
802,0.0224,0.0115,0.0116,0.0018,0.0036,0.0042,0.0042,0.0009
803,0.0222,0.0113,0.0114,0.0017,0.0025,0.0046,0.0037,0.0008
804,0.0237,0.0122,0.0141,0.0023,0.0036,0.0055,0.0047,0.0017
805,0.0222,0.0113,0.0114,0.0017,0.0025,0.0046,0.0037,0.0008
806,0.0222,0.0113,0.0114,0.0017,0.0025,0.0046,0.0037,0.0008
807,0.0214,0.0128,0.0109,0.0024,0.0033,0.0056,0.0048,0.0015
808,0.0222,0.0113,0.0114,0.0017,0.0025,0.0046,0.0037,0.0008
809,0.0222,0.0113,0.0114,0.0017,0.0025,0.0046,0.0037,0.0008
810,0.0238,0.0136,0.0150,0.0021,0.0039,0.0065,0.0061,0.0014
811,0.0222,0.0113,0.0114,0.0017,0.0025,0.0046,0.0037,0.0008
812,0.0214,0.0128,0.0109,0.0024,0.0033,0.0056,0.0048,0.0015
813,0.0224,0.0115,0.0116,0.0018,0.0036,0.0042,0.0042,0.0009
814,0.0237,0.0122,0.0141,0.0023,0.0036,0.0055,0.0047,0.0017
815,0.0222,0.0113,0.0114,0.0017,0.0025,0.0046,0.0037,0.0008
816,0.0222,0.0113,0.0114,0.0017,0.0025,0.0046,0.0037,0.0008
817,0.0237,0.0122,0.0141,0.0023,0.0036,0.0055,0.0047,0.0017
818,0.0214,0.0128,0.0109,0.0024,0.0033,0.0056,0.0048,0.0015
819,0.0222,0.0113,0.0114,0.0017,0.0025,0.0046,0.0037,0.0008
820,0.0237,0.0122,0.0141,0.0023,0.0036,0.0055,0.0047,0.0017
821,0.0222,0.0113,0.0114,0.0017,0.0025,0.0046,0.0037,0.0008
822,0.0225,0.0137,0.0121,0.0020,0.0038,0.0056,0.0046,0.0013
823,0.0214,0.0128,0.0109,0.0024,0.0033,0.0056,0.0048,0.0015
824,0.0219,0.0172,0.0125,0.0040,0.0050,0.0078,0.0064,0.0032
825,0.0222,0.0113,0.0114,0.0017,0.0025,0.0046,0.0037,0.0008
826,0.0222,0.0113,0.0114,0.0017,0.0025,0.0046,0.0037,0.0008
827,0.0237,0.0122,0.0141,0.0023,0.0036,0.0055,0.0047,0.0017
828,0.0222,0.0113,0.0114,0.0017,0.0025,0.0046,0.0037,0.0008
829,0.0214,0.0128,0.0109,0.0024,0.0033,0.0056,0.0048,0.0015
830,0.0237,0.0122,0.0141,0.0023,0.0036,0.0055,0.0047,0.0017
831,0.0222,0.0113,0.0114,0.0017,0.0025,0.0046,0.0037,0.0008
832,0.0222,0.0113,0.0114,0.0017,0.0025,0.0046,0.0037,0.0008
833,0.0237,0.0122,0.0141,0.0023,0.0036,0.0055,0.0047,0.0017
834,0.0215,0.0163,0.0122,0.0036,0.0037,0.0079,0.0063,0.0029
835,0.0224,0.0115,0.0116,0.0018,0.0036,0.0042,0.0042,0.0009
836,0.0222,0.0113,0.0114,0.0017,0.0025,0.0046,0.0037,0.0008
837,0.0237,0.0122,0.0141,0.0023,0.0036,0.0055,0.0047,0.0017
838,0.0222,0.0113,0.0114,0.0017,0.0025,0.0046,0.0037,0.0008
839,0.0222,0.0113,0.0114,0.0017,0.0025,0.0046,0.0037,0.0008
840,0.0214,0.0128,0.0109,0.0024,0.0033,0.0056,0.0048,0.0015
841,0.0231,0.0117,0.0153,0.0033,0.0058,0.0055,0.0071,0.0025
842,0.0229,0.0114,0.0141,0.0027,0.0054,0.0050,0.0060,0.0019
843,0.0251,0.0147,0.0157,0.0035,0.0086,0.0082,0.0070,0.0026
844,0.0226,0.0117,0.0135,0.0023,0.0047,0.0053,0.0060,0.0015
845,0.0217,0.0159,0.0122,0.0027,0.0049,0.0072,0.0060,0.0018
846,0.0224,0.0115,0.0116,0.0018,0.0036,0.0042,0.0042,0.0009
847,0.0240,0.0158,0.0171,0.0024,0.0043,0.0084,0.0086,0.0016
848,0.0225,0.0115,0.0128,0.0025,0.0041,0.0047,0.0053,0.0018
849,0.0224,0.0114,0.0124,0.0024,0.0037,0.0044,0.0048,0.0017
850,0.0240,0.0137,0.0151,0.0031,0.0054,0.0070,0.0065,0.0022
851,0.0214,0.0121,0.0105,0.0028,0.0030,0.0064,0.0050,0.0021
852,0.0222,0.0115,0.0117,0.0017,0.0023,0.0041,0.0040,0.0009
853,0.0237,0.0124,0.0144,0.0022,0.0036,0.0051,0.0052,0.0014
854,0.0223,0.0116,0.0117,0.0018,0.0032,0.0051,0.0042,0.0010
855,0.0223,0.0131,0.0125,0.0017,0.0029,0.0064,0.0054,0.0009
856,0.0221,0.0148,0.0117,0.0030,0.0062,0.0069,0.0056,0.0023
857,0.0224,0.0115,0.0116,0.0018,0.0036,0.0042,0.0042,0.0009
858,0.0224,0.0131,0.0120,0.0019,0.0037,0.0055,0.0046,0.0012
859,0.0226,0.0161,0.0139,0.0023,0.0040,0.0074,0.0066,0.0014
860,0.0238,0.0135,0.0147,0.0025,0.0040,0.0058,0.0055,0.0018
861,0.0225,0.0149,0.0131,0.0020,0.0038,0.0063,0.0054,0.0013
862,0.0217,0.0177,0.0126,0.0062,0.0042,0.0086,0.0064,0.0046
863,0.0241,0.0158,0.0180,0.0030,0.0047,0.0088,0.0098,0.0023
864,0.0227,0.0152,0.0129,0.0021,0.0041,0.0074,0.0058,0.0014
865,0.0224,0.0246,0.0214,0.0139,0.0035,0.0135,0.0130,0.0077
866,0.0237,0.0231,0.0200,0.0146,0.0041,0.0127,0.0105,0.0092
867,0.0214,0.0242,0.0219,0.0112,0.0030,0.0140,0.0139,0.0071
868,0.0224,0.0115,0.0116,0.0018,0.0036,0.0042,0.0042,0.0009
869,0.0214,0.0242,0.0219,0.0112,0.0030,0.0140,0.0139,0.0071
870,0.0214,0.0242,0.0219,0.0112,0.0030,0.0140,0.0139,0.0071
871,0.0214,0.0242,0.0219,0.0112,0.0030,0.0140,0.0139,0.0071
872,0.0214,0.0242,0.0219,0.0112,0.0030,0.0140,0.0139,0.0071
873,0.0214,0.0242,0.0219,0.0112,0.0030,0.0140,0.0139,0.0071
874,0.0222,0.0101,0.0113,0.0017,0.0023,0.0042,0.0038,0.0008
875,0.0222,0.0101,0.0113,0.0017,0.0023,0.0042,0.0038,0.0008
876,0.0236,0.0116,0.0141,0.0020,0.0032,0.0058,0.0050,0.0013
877,0.0223,0.0109,0.0118,0.0018,0.0027,0.0056,0.0046,0.0011
878,0.0214,0.0136,0.0149,0.0028,0.0028,0.0081,0.0087,0.0019
879,0.0216,0.0140,0.0119,0.0025,0.0040,0.0064,0.0056,0.0017
880,0.0237,0.0115,0.0140,0.0032,0.0036,0.0051,0.0046,0.0025
881,0.0223,0.0116,0.0127,0.0018,0.0026,0.0060,0.0059,0.0010
882,0.0223,0.0134,0.0150,0.0018,0.0029,0.0073,0.0077,0.0010
883,0.0237,0.0114,0.0141,0.0021,0.0036,0.0045,0.0046,0.0014
884,0.0218,0.0129,0.0114,0.0032,0.0050,0.0064,0.0056,0.0024
885,0.0225,0.0114,0.0118,0.0021,0.0038,0.0050,0.0044,0.0014
886,0.0239,0.0126,0.0151,0.0024,0.0041,0.0057,0.0060,0.0016
887,0.0226,0.0134,0.0135,0.0018,0.0040,0.0068,0.0064,0.0009
888,0.0227,0.0153,0.0151,0.0023,0.0044,0.0087,0.0076,0.0016
889,0.0214,0.0134,0.0144,0.0034,0.0035,0.0084,0.0089,0.0024
890,0.0225,0.0232,0.0211,0.0101,0.0038,0.0122,0.0123,0.0056
891,0.0226,0.0125,0.0178,0.0031,0.0047,0.0067,0.0104,0.0020
892,0.0223,0.0209,0.0208,0.0111,0.0026,0.0135,0.0131,0.0071
893,0.0223,0.0170,0.0158,0.0081,0.0034,0.0100,0.0086,0.0051
894,0.0236,0.0265,0.0264,0.0155,0.0032,0.0180,0.0169,0.0106
895,0.0224,0.0246,0.0246,0.0113,0.0036,0.0166,0.0159,0.0075
896,0.0215,0.0160,0.0163,0.0062,0.0037,0.0098,0.0100,0.0041
897,0.0238,0.0200,0.0248,0.0122,0.0045,0.0133,0.0155,0.0087
898,0.0223,0.0194,0.0215,0.0072,0.0034,0.0130,0.0137,0.0046
899,0.0223,0.0139,0.0149,0.0052,0.0027,0.0088,0.0086,0.0033
900,0.0236,0.0141,0.0205,0.0044,0.0030,0.0084,0.0125,0.0034
901,0.0214,0.0110,0.0108,0.0024,0.0031,0.0062,0.0055,0.0015
902,0.0226,0.0124,0.0168,0.0029,0.0048,0.0066,0.0096,0.0017
903,0.0223,0.0116,0.0127,0.0018,0.0026,0.0060,0.0059,0.0010
904,0.0237,0.0115,0.0153,0.0024,0.0037,0.0046,0.0066,0.0018
905,0.0223,0.0107,0.0121,0.0036,0.0028,0.0043,0.0047,0.0026
906,0.0224,0.0112,0.0125,0.0037,0.0033,0.0044,0.0046,0.0025
907,0.0215,0.0206,0.0239,0.0059,0.0038,0.0124,0.0136,0.0032
908,0.0223,0.0121,0.0133,0.0043,0.0031,0.0055,0.0054,0.0028
909,0.0223,0.0136,0.0156,0.0045,0.0026,0.0063,0.0071,0.0029
910,0.0238,0.0183,0.0204,0.0079,0.0042,0.0105,0.0104,0.0049
911,0.0223,0.0192,0.0222,0.0067,0.0028,0.0104,0.0118,0.0039
912,0.0216,0.0251,0.0233,0.0121,0.0039,0.0151,0.0136,0.0077
913,0.0227,0.0127,0.0161,0.0029,0.0049,0.0070,0.0092,0.0016
914,0.0238,0.0152,0.0179,0.0090,0.0046,0.0080,0.0086,0.0062
915,0.0223,0.0134,0.0150,0.0018,0.0029,0.0073,0.0077,0.0010
916,0.0222,0.0101,0.0113,0.0017,0.0023,0.0042,0.0038,0.0008
917,0.0236,0.0116,0.0141,0.0020,0.0032,0.0058,0.0050,0.0013
918,0.0214,0.0105,0.0103,0.0023,0.0029,0.0045,0.0043,0.0014
919,0.0222,0.0101,0.0113,0.0017,0.0023,0.0042,0.0038,0.0008
920,0.0236,0.0116,0.0141,0.0020,0.0032,0.0058,0.0050,0.0013
921,0.0222,0.0101,0.0113,0.0017,0.0023,0.0042,0.0038,0.0008
922,0.0222,0.0101,0.0113,0.0017,0.0023,0.0042,0.0038,0.0008
923,0.0214,0.0105,0.0103,0.0023,0.0029,0.0045,0.0043,0.0014
924,0.0228,0.0122,0.0148,0.0027,0.0051,0.0062,0.0079,0.0017
925,0.0222,0.0101,0.0113,0.0017,0.0023,0.0042,0.0038,0.0008
926,0.0222,0.0101,0.0113,0.0017,0.0023,0.0042,0.0038,0.0008
927,0.0237,0.0114,0.0141,0.0021,0.0036,0.0045,0.0046,0.0014
928,0.0222,0.0101,0.0113,0.0017,0.0023,0.0042,0.0038,0.0008
929,0.0214,0.0105,0.0103,0.0023,0.0029,0.0045,0.0043,0.0014
930,0.0236,0.0116,0.0141,0.0020,0.0032,0.0058,0.0050,0.0013
931,0.0222,0.0101,0.0113,0.0017,0.0023,0.0042,0.0038,0.0008
932,0.0222,0.0101,0.0113,0.0017,0.0023,0.0042,0.0038,0.0008
933,0.0236,0.0116,0.0141,0.0020,0.0032,0.0058,0.0050,0.0013
934,0.0214,0.0105,0.0103,0.0023,0.0029,0.0045,0.0043,0.0014
935,0.0218,0.0170,0.0130,0.0032,0.0051,0.0075,0.0064,0.0022
936,0.0222,0.0101,0.0113,0.0017,0.0023,0.0042,0.0038,0.0008
937,0.0236,0.0116,0.0141,0.0020,0.0032,0.0058,0.0050,0.0013
938,0.0222,0.0101,0.0113,0.0017,0.0023,0.0042,0.0038,0.0008
939,0.0225,0.0115,0.0116,0.0023,0.0039,0.0049,0.0040,0.0016
940,0.0214,0.0105,0.0103,0.0023,0.0029,0.0045,0.0043,0.0014
941,0.0222,0.0101,0.0113,0.0017,0.0023,0.0042,0.0038,0.0008
942,0.0222,0.0101,0.0113,0.0017,0.0023,0.0042,0.0038,0.0008
943,0.0236,0.0116,0.0141,0.0020,0.0032,0.0058,0.0050,0.0013
944,0.0222,0.0101,0.0113,0.0017,0.0023,0.0042,0.0038,0.0008
945,0.0214,0.0105,0.0103,0.0023,0.0029,0.0045,0.0043,0.0014
946,0.0227,0.0181,0.0155,0.0025,0.0044,0.0082,0.0077,0.0018
947,0.0236,0.0116,0.0141,0.0020,0.0032,0.0058,0.0050,0.0013
948,0.0222,0.0101,0.0113,0.0017,0.0023,0.0042,0.0038,0.0008
949,0.0222,0.0101,0.0113,0.0017,0.0023,0.0042,0.0038,0.0008
950,0.0236,0.0116,0.0141,0.0020,0.0032,0.0058,0.0050,0.0013
951,0.0215,0.0138,0.0121,0.0033,0.0038,0.0075,0.0064,0.0023
952,0.0222,0.0101,0.0113,0.0017,0.0023,0.0042,0.0038,0.0008
953,0.0236,0.0116,0.0141,0.0020,0.0032,0.0058,0.0050,0.0013
954,0.0222,0.0101,0.0113,0.0017,0.0023,0.0042,0.0038,0.0008
955,0.0222,0.0101,0.0113,0.0017,0.0023,0.0042,0.0038,0.0008
956,0.0214,0.0105,0.0103,0.0023,0.0029,0.0045,0.0043,0.0014
957,0.0230,0.0119,0.0133,0.0025,0.0055,0.0048,0.0059,0.0017
958,0.0229,0.0103,0.0137,0.0030,0.0054,0.0047,0.0066,0.0022
959,0.0228,0.0104,0.0135,0.0025,0.0050,0.0048,0.0063,0.0017
960,0.0248,0.0145,0.0167,0.0033,0.0080,0.0080,0.0079,0.0026
961,0.0226,0.0099,0.0125,0.0025,0.0044,0.0042,0.0054,0.0018
962,0.0218,0.0129,0.0114,0.0032,0.0050,0.0064,0.0056,0.0024
963,0.0239,0.0126,0.0151,0.0024,0.0041,0.0057,0.0060,0.0016
964,0.0224,0.0104,0.0127,0.0027,0.0039,0.0047,0.0058,0.0019
965,0.0224,0.0099,0.0119,0.0026,0.0036,0.0040,0.0046,0.0019
966,0.0239,0.0134,0.0159,0.0022,0.0049,0.0070,0.0072,0.0016
967,0.0214,0.0101,0.0099,0.0030,0.0027,0.0050,0.0040,0.0023
968,0.0229,0.0114,0.0125,0.0023,0.0053,0.0043,0.0051,0.0015
969,0.0222,0.0101,0.0118,0.0017,0.0021,0.0039,0.0046,0.0010
970,0.0236,0.0116,0.0141,0.0025,0.0033,0.0054,0.0049,0.0020
971,0.0223,0.0103,0.0112,0.0019,0.0029,0.0046,0.0036,0.0012
972,0.0223,0.0116,0.0127,0.0018,0.0026,0.0060,0.0059,0.0010
973,0.0220,0.0123,0.0110,0.0030,0.0059,0.0066,0.0054,0.0022
974,0.0224,0.0111,0.0116,0.0020,0.0037,0.0047,0.0042,0.0013
975,0.0226,0.0134,0.0135,0.0018,0.0040,0.0068,0.0064,0.0009
976,0.0238,0.0125,0.0156,0.0024,0.0037,0.0059,0.0070,0.0017
977,0.0225,0.0114,0.0118,0.0021,0.0038,0.0050,0.0044,0.0014
978,0.0215,0.0159,0.0145,0.0041,0.0035,0.0099,0.0085,0.0033
979,0.0227,0.0121,0.0132,0.0022,0.0047,0.0050,0.0060,0.0013
980,0.0240,0.0132,0.0165,0.0035,0.0046,0.0071,0.0081,0.0027
981,0.0227,0.0153,0.0151,0.0023,0.0044,0.0087,0.0076,0.0016
982,0.0223,0.0209,0.0208,0.0111,0.0026,0.0135,0.0131,0.0071
983,0.0237,0.0185,0.0182,0.0095,0.0035,0.0107,0.0094,0.0057
984,0.0214,0.0205,0.0203,0.0113,0.0029,0.0136,0.0135,0.0073
985,0.0214,0.0205,0.0203,0.0113,0.0029,0.0136,0.0135,0.0073
986,0.0214,0.0205,0.0203,0.0113,0.0029,0.0136,0.0135,0.0073
987,0.0214,0.0205,0.0203,0.0113,0.0029,0.0136,0.0135,0.0073
988,0.0214,0.0205,0.0203,0.0113,0.0029,0.0136,0.0135,0.0073
989,0.0214,0.0205,0.0203,0.0113,0.0029,0.0136,0.0135,0.0073
990,0.0216,0.0124,0.0105,0.0027,0.0041,0.0062,0.0047,0.0021
991,0.0222,0.0095,0.0111,0.0016,0.0022,0.0040,0.0034,0.0007
992,0.0222,0.0095,0.0111,0.0016,0.0022,0.0040,0.0034,0.0007
993,0.0236,0.0119,0.0145,0.0022,0.0030,0.0064,0.0059,0.0016
994,0.0223,0.0099,0.0113,0.0018,0.0027,0.0048,0.0038,0.0010
995,0.0214,0.0133,0.0156,0.0027,0.0027,0.0084,0.0092,0.0018
996,0.0237,0.0113,0.0142,0.0033,0.0034,0.0052,0.0049,0.0027
997,0.0223,0.0109,0.0128,0.0017,0.0026,0.0059,0.0062,0.0009
998,0.0223,0.0135,0.0158,0.0017,0.0031,0.0080,0.0085,0.0008
999,0.0237,0.0107,0.0140,0.0021,0.0036,0.0042,0.0044,0.0013
1000,0.0218,0.0106,0.0104,0.0036,0.0050,0.0054,0.0046,0.0028
1001,0.0219,0.0269,0.0239,0.0094,0.0052,0.0132,0.0123,0.0051
1002,0.0224,0.0117,0.0119,0.0018,0.0034,0.0036,0.0040,0.0010
1003,0.0225,0.0100,0.0114,0.0023,0.0038,0.0044,0.0039,0.0017
1004,0.0239,0.0112,0.0148,0.0023,0.0038,0.0048,0.0056,0.0016
1005,0.0226,0.0113,0.0126,0.0017,0.0039,0.0056,0.0053,0.0009
1006,0.0227,0.0127,0.0134,0.0025,0.0043,0.0075,0.0063,0.0019
1007,0.0214,0.0128,0.0144,0.0031,0.0034,0.0084,0.0090,0.0023
1008,0.0222,0.0219,0.0220,0.0130,0.0022,0.0146,0.0139,0.0087
1009,0.0224,0.0151,0.0147,0.0081,0.0038,0.0095,0.0079,0.0055
1010,0.0236,0.0299,0.0285,0.0185,0.0029,0.0208,0.0190,0.0130
1011,0.0224,0.0256,0.0257,0.0120,0.0035,0.0173,0.0168,0.0080
1012,0.0215,0.0135,0.0151,0.0049,0.0035,0.0087,0.0092,0.0035
1013,0.0225,0.0131,0.0132,0.0021,0.0042,0.0071,0.0066,0.0013
1014,0.0238,0.0231,0.0282,0.0158,0.0042,0.0157,0.0182,0.0109
1015,0.0223,0.0177,0.0209,0.0074,0.0031,0.0119,0.0133,0.0046
1016,0.0223,0.0135,0.0158,0.0059,0.0026,0.0085,0.0092,0.0038
1017,0.0236,0.0149,0.0227,0.0063,0.0031,0.0091,0.0143,0.0046
1018,0.0214,0.0101,0.0106,0.0024,0.0032,0.0058,0.0053,0.0014
1019,0.0223,0.0109,0.0128,0.0017,0.0026,0.0059,0.0062,0.0009
1020,0.0237,0.0110,0.0149,0.0026,0.0036,0.0046,0.0060,0.0020
1021,0.0223,0.0097,0.0115,0.0038,0.0025,0.0037,0.0037,0.0027
1022,0.0223,0.0098,0.0117,0.0035,0.0028,0.0039,0.0039,0.0023
1023,0.0215,0.0166,0.0196,0.0050,0.0040,0.0108,0.0117,0.0032
1024,0.0225,0.0128,0.0123,0.0025,0.0045,0.0062,0.0052,0.0015
1025,0.0223,0.0106,0.0123,0.0035,0.0027,0.0049,0.0049,0.0024
1026,0.0223,0.0108,0.0127,0.0037,0.0024,0.0050,0.0050,0.0026
1027,0.0237,0.0163,0.0186,0.0070,0.0042,0.0089,0.0087,0.0044
1028,0.0223,0.0127,0.0152,0.0051,0.0025,0.0066,0.0075,0.0035
1029,0.0215,0.0195,0.0178,0.0117,0.0039,0.0132,0.0111,0.0080
1030,0.0238,0.0134,0.0155,0.0104,0.0041,0.0074,0.0067,0.0074
1031,0.0223,0.0135,0.0158,0.0017,0.0031,0.0080,0.0085,0.0008
1032,0.0222,0.0095,0.0111,0.0016,0.0022,0.0040,0.0034,0.0007
1033,0.0236,0.0119,0.0145,0.0022,0.0030,0.0064,0.0059,0.0016
1034,0.0214,0.0096,0.0107,0.0023,0.0030,0.0049,0.0052,0.0013
1035,0.0225,0.0131,0.0126,0.0027,0.0040,0.0053,0.0053,0.0016
1036,0.0222,0.0095,0.0111,0.0016,0.0022,0.0040,0.0034,0.0007
1037,0.0236,0.0119,0.0145,0.0022,0.0030,0.0064,0.0059,0.0016
1038,0.0222,0.0095,0.0111,0.0016,0.0022,0.0040,0.0034,0.0007
1039,0.0222,0.0095,0.0111,0.0016,0.0022,0.0040,0.0034,0.0007
1040,0.0214,0.0096,0.0107,0.0023,0.0030,0.0049,0.0052,0.0013
1041,0.0222,0.0095,0.0111,0.0016,0.0022,0.0040,0.0034,0.0007
1042,0.0222,0.0095,0.0111,0.0016,0.0022,0.0040,0.0034,0.0007
1043,0.0237,0.0107,0.0140,0.0021,0.0036,0.0042,0.0044,0.0013
1044,0.0222,0.0095,0.0111,0.0016,0.0022,0.0040,0.0034,0.0007
1045,0.0214,0.0096,0.0107,0.0023,0.0030,0.0049,0.0052,0.0013
1046,0.0220,0.0165,0.0133,0.0033,0.0063,0.0081,0.0072,0.0025
1047,0.0236,0.0119,0.0145,0.0022,0.0030,0.0064,0.0059,0.0016
1048,0.0222,0.0095,0.0111,0.0016,0.0022,0.0040,0.0034,0.0007
1049,0.0222,0.0095,0.0111,0.0016,0.0022,0.0040,0.0034,0.0007
1050,0.0236,0.0119,0.0145,0.0022,0.0030,0.0064,0.0059,0.0016
1051,0.0214,0.0096,0.0107,0.0023,0.0030,0.0049,0.0052,0.0013
1052,0.0222,0.0095,0.0111,0.0016,0.0022,0.0040,0.0034,0.0007
1053,0.0236,0.0119,0.0145,0.0022,0.0030,0.0064,0.0059,0.0016
1054,0.0222,0.0095,0.0111,0.0016,0.0022,0.0040,0.0034,0.0007
1055,0.0225,0.0098,0.0112,0.0024,0.0041,0.0041,0.0035,0.0018
1056,0.0214,0.0096,0.0107,0.0023,0.0030,0.0049,0.0052,0.0013
1057,0.0226,0.0148,0.0136,0.0025,0.0042,0.0063,0.0064,0.0017
1058,0.0222,0.0095,0.0111,0.0016,0.0022,0.0040,0.0034,0.0007
1059,0.0222,0.0095,0.0111,0.0016,0.0022,0.0040,0.0034,0.0007
1060,0.0236,0.0119,0.0145,0.0022,0.0030,0.0064,0.0059,0.0016
1061,0.0222,0.0095,0.0111,0.0016,0.0022,0.0040,0.0034,0.0007
1062,0.0214,0.0096,0.0107,0.0023,0.0030,0.0049,0.0052,0.0013
1063,0.0236,0.0119,0.0145,0.0022,0.0030,0.0064,0.0059,0.0016
1064,0.0222,0.0095,0.0111,0.0016,0.0022,0.0040,0.0034,0.0007
1065,0.0222,0.0095,0.0111,0.0016,0.0022,0.0040,0.0034,0.0007
1066,0.0236,0.0119,0.0145,0.0022,0.0030,0.0064,0.0059,0.0016
1067,0.0215,0.0113,0.0111,0.0040,0.0039,0.0066,0.0056,0.0032
1068,0.0228,0.0181,0.0150,0.0026,0.0044,0.0082,0.0074,0.0018
1069,0.0222,0.0095,0.0111,0.0016,0.0022,0.0040,0.0034,0.0007
1070,0.0236,0.0119,0.0145,0.0022,0.0030,0.0064,0.0059,0.0016
1071,0.0222,0.0095,0.0111,0.0016,0.0022,0.0040,0.0034,0.0007
1072,0.0222,0.0095,0.0111,0.0016,0.0022,0.0040,0.0034,0.0007
1073,0.0214,0.0096,0.0107,0.0023,0.0030,0.0049,0.0052,0.0013
1074,0.0228,0.0102,0.0147,0.0028,0.0050,0.0048,0.0074,0.0020
1075,0.0227,0.0098,0.0138,0.0026,0.0047,0.0044,0.0064,0.0017
1076,0.0247,0.0145,0.0183,0.0033,0.0076,0.0080,0.0090,0.0026
1077,0.0225,0.0095,0.0128,0.0028,0.0042,0.0041,0.0058,0.0021
1078,0.0218,0.0106,0.0104,0.0036,0.0050,0.0054,0.0046,0.0028
1079,0.0227,0.0142,0.0132,0.0022,0.0047,0.0060,0.0063,0.0014
1080,0.0239,0.0112,0.0148,0.0023,0.0038,0.0048,0.0056,0.0016
1081,0.0224,0.0095,0.0122,0.0031,0.0037,0.0041,0.0053,0.0023
1082,0.0224,0.0096,0.0121,0.0029,0.0034,0.0043,0.0052,0.0021
1083,0.0238,0.0126,0.0157,0.0021,0.0046,0.0065,0.0071,0.0014
1084,0.0214,0.0092,0.0098,0.0031,0.0026,0.0046,0.0040,0.0024
1085,0.0222,0.0093,0.0113,0.0018,0.0021,0.0036,0.0037,0.0011
1086,0.0236,0.0117,0.0145,0.0028,0.0032,0.0060,0.0056,0.0022
1087,0.0223,0.0094,0.0110,0.0018,0.0030,0.0037,0.0032,0.0011
1088,0.0223,0.0109,0.0128,0.0017,0.0026,0.0059,0.0062,0.0009
1089,0.0220,0.0103,0.0102,0.0029,0.0059,0.0057,0.0046,0.0022
1090,0.0227,0.0152,0.0136,0.0021,0.0047,0.0065,0.0066,0.0013
1091,0.0225,0.0106,0.0120,0.0019,0.0039,0.0053,0.0050,0.0012
1092,0.0226,0.0113,0.0126,0.0017,0.0039,0.0056,0.0053,0.0009
1093,0.0238,0.0120,0.0155,0.0024,0.0039,0.0060,0.0070,0.0018
1094,0.0225,0.0100,0.0114,0.0023,0.0038,0.0044,0.0039,0.0017
1095,0.0215,0.0144,0.0138,0.0031,0.0031,0.0092,0.0079,0.0021
1096,0.0240,0.0127,0.0167,0.0037,0.0045,0.0071,0.0086,0.0029
1097,0.0227,0.0127,0.0134,0.0025,0.0043,0.0075,0.0063,0.0019
1098,0.0222,0.0219,0.0220,0.0130,0.0022,0.0146,0.0139,0.0087
1099,0.0237,0.0199,0.0191,0.0110,0.0033,0.0130,0.0109,0.0076
1100,0.0214,0.0178,0.0184,0.0101,0.0028,0.0122,0.0121,0.0067
1101,0.0223,0.0180,0.0128,0.0070,0.0067,0.0079,0.0067,0.0052
1102,0.0214,0.0178,0.0184,0.0101,0.0028,0.0122,0.0121,0.0067
1103,0.0214,0.0178,0.0184,0.0101,0.0028,0.0122,0.0121,0.0067
1104,0.0214,0.0178,0.0184,0.0101,0.0028,0.0122,0.0121,0.0067
1105,0.0214,0.0178,0.0184,0.0101,0.0028,0.0122,0.0121,0.0067
1106,0.0214,0.0178,0.0184,0.0101,0.0028,0.0122,0.0121,0.0067
1107,0.0222,0.0093,0.0111,0.0016,0.0022,0.0038,0.0033,0.0007
1108,0.0222,0.0093,0.0111,0.0016,0.0022,0.0038,0.0033,0.0007
1109,0.0236,0.0117,0.0144,0.0022,0.0031,0.0060,0.0056,0.0016
1110,0.0223,0.0092,0.0110,0.0017,0.0029,0.0038,0.0032,0.0009
1111,0.0214,0.0101,0.0118,0.0026,0.0027,0.0059,0.0064,0.0017
1112,0.0224,0.0126,0.0120,0.0018,0.0037,0.0048,0.0046,0.0010
1113,0.0226,0.0216,0.0202,0.0059,0.0046,0.0132,0.0127,0.0034
1114,0.0228,0.0181,0.0150,0.0026,0.0044,0.0082,0.0074,0.0018
1115,0.0237,0.0117,0.0145,0.0034,0.0035,0.0059,0.0057,0.0027
1116,0.0223,0.0103,0.0122,0.0017,0.0028,0.0052,0.0054,0.0009
1117,0.0223,0.0121,0.0142,0.0016,0.0032,0.0069,0.0072,0.0007
1118,0.0237,0.0108,0.0140,0.0020,0.0038,0.0044,0.0044,0.0012
1119,0.0217,0.0101,0.0106,0.0037,0.0050,0.0054,0.0050,0.0029
1120,0.0225,0.0098,0.0114,0.0024,0.0039,0.0043,0.0039,0.0017
1121,0.0239,0.0109,0.0148,0.0023,0.0037,0.0045,0.0054,0.0015
1122,0.0226,0.0105,0.0122,0.0017,0.0039,0.0052,0.0051,0.0009
1123,0.0227,0.0126,0.0132,0.0026,0.0043,0.0074,0.0062,0.0019
1124,0.0214,0.0135,0.0154,0.0030,0.0034,0.0093,0.0099,0.0022
1125,0.0229,0.0155,0.0129,0.0023,0.0048,0.0067,0.0060,0.0015
1126,0.0222,0.0241,0.0237,0.0151,0.0021,0.0162,0.0154,0.0102
1127,0.0224,0.0159,0.0154,0.0092,0.0038,0.0102,0.0085,0.0062
1128,0.0236,0.0344,0.0324,0.0215,0.0029,0.0238,0.0217,0.0149
1129,0.0224,0.0271,0.0272,0.0126,0.0035,0.0184,0.0179,0.0084
1130,0.0215,0.0126,0.0146,0.0042,0.0034,0.0083,0.0091,0.0031
1131,0.0238,0.0236,0.0287,0.0164,0.0042,0.0160,0.0184,0.0113
1132,0.0223,0.0179,0.0217,0.0072,0.0030,0.0122,0.0141,0.0046
1133,0.0223,0.0133,0.0161,0.0058,0.0026,0.0084,0.0095,0.0037
1134,0.0236,0.0143,0.0222,0.0066,0.0032,0.0087,0.0140,0.0048
1135,0.0214,0.0099,0.0105,0.0023,0.0033,0.0055,0.0052,0.0014
1136,0.0228,0.0266,0.0233,0.0158,0.0059,0.0135,0.0146,0.0088
1137,0.0223,0.0103,0.0122,0.0017,0.0028,0.0052,0.0054,0.0009
1138,0.0237,0.0109,0.0150,0.0028,0.0035,0.0043,0.0060,0.0021
1139,0.0222,0.0094,0.0114,0.0039,0.0024,0.0035,0.0035,0.0028
1140,0.0223,0.0096,0.0116,0.0035,0.0027,0.0037,0.0038,0.0024
1141,0.0216,0.0125,0.0149,0.0040,0.0041,0.0081,0.0089,0.0027
1142,0.0223,0.0100,0.0121,0.0033,0.0025,0.0046,0.0047,0.0022
1143,0.0222,0.0105,0.0124,0.0039,0.0025,0.0052,0.0052,0.0027
1144,0.0237,0.0157,0.0184,0.0069,0.0041,0.0084,0.0090,0.0045
1145,0.0223,0.0115,0.0131,0.0055,0.0024,0.0059,0.0054,0.0038
1146,0.0215,0.0208,0.0186,0.0134,0.0039,0.0143,0.0119,0.0090
1147,0.0224,0.0260,0.0214,0.0145,0.0034,0.0118,0.0108,0.0077
1148,0.0237,0.0153,0.0168,0.0125,0.0039,0.0094,0.0087,0.0089
1149,0.0223,0.0121,0.0142,0.0016,0.0032,0.0069,0.0072,0.0007
1150,0.0222,0.0093,0.0111,0.0016,0.0022,0.0038,0.0033,0.0007
1151,0.0236,0.0117,0.0144,0.0022,0.0031,0.0060,0.0056,0.0016
1152,0.0214,0.0088,0.0098,0.0023,0.0031,0.0040,0.0040,0.0013
1153,0.0222,0.0093,0.0111,0.0016,0.0022,0.0038,0.0033,0.0007
1154,0.0236,0.0117,0.0144,0.0022,0.0031,0.0060,0.0056,0.0016
1155,0.0222,0.0093,0.0111,0.0016,0.0022,0.0038,0.0033,0.0007
1156,0.0222,0.0093,0.0111,0.0016,0.0022,0.0038,0.0033,0.0007
1157,0.0214,0.0088,0.0098,0.0023,0.0031,0.0040,0.0040,0.0013
1158,0.0218,0.0253,0.0214,0.0111,0.0048,0.0127,0.0119,0.0067
1159,0.0222,0.0093,0.0111,0.0016,0.0022,0.0038,0.0033,0.0007
1160,0.0222,0.0093,0.0111,0.0016,0.0022,0.0038,0.0033,0.0007
1161,0.0237,0.0108,0.0140,0.0020,0.0038,0.0044,0.0044,0.0012
1162,0.0222,0.0093,0.0111,0.0016,0.0022,0.0038,0.0033,0.0007
1163,0.0214,0.0088,0.0098,0.0023,0.0031,0.0040,0.0040,0.0013
1164,0.0236,0.0117,0.0144,0.0022,0.0031,0.0060,0.0056,0.0016
1165,0.0222,0.0093,0.0111,0.0016,0.0022,0.0038,0.0033,0.0007
1166,0.0222,0.0093,0.0111,0.0016,0.0022,0.0038,0.0033,0.0007
1167,0.0236,0.0117,0.0144,0.0022,0.0031,0.0060,0.0056,0.0016
1168,0.0214,0.0088,0.0098,0.0023,0.0031,0.0040,0.0040,0.0013
1169,0.0218,0.0253,0.0214,0.0111,0.0048,0.0127,0.0119,0.0067
1170,0.0222,0.0093,0.0111,0.0016,0.0022,0.0038,0.0033,0.0007
1171,0.0236,0.0117,0.0144,0.0022,0.0031,0.0060,0.0056,0.0016
1172,0.0222,0.0093,0.0111,0.0016,0.0022,0.0038,0.0033,0.0007
1173,0.0225,0.0100,0.0118,0.0024,0.0041,0.0048,0.0046,0.0018
1174,0.0214,0.0088,0.0098,0.0023,0.0031,0.0040,0.0040,0.0013
1175,0.0222,0.0093,0.0111,0.0016,0.0022,0.0038,0.0033,0.0007
1176,0.0222,0.0093,0.0111,0.0016,0.0022,0.0038,0.0033,0.0007
1177,0.0236,0.0117,0.0144,0.0022,0.0031,0.0060,0.0056,0.0016
1178,0.0222,0.0093,0.0111,0.0016,0.0022,0.0038,0.0033,0.0007
1179,0.0214,0.0088,0.0098,0.0023,0.0031,0.0040,0.0040,0.0013
1180,0.0218,0.0253,0.0214,0.0111,0.0048,0.0127,0.0119,0.0067
1181,0.0236,0.0117,0.0144,0.0022,0.0031,0.0060,0.0056,0.0016
1182,0.0222,0.0093,0.0111,0.0016,0.0022,0.0038,0.0033,0.0007
1183,0.0222,0.0093,0.0111,0.0016,0.0022,0.0038,0.0033,0.0007
1184,0.0236,0.0117,0.0144,0.0022,0.0031,0.0060,0.0056,0.0016
1185,0.0215,0.0107,0.0108,0.0044,0.0039,0.0064,0.0054,0.0035
1186,0.0222,0.0093,0.0111,0.0016,0.0022,0.0038,0.0033,0.0007
1187,0.0236,0.0117,0.0144,0.0022,0.0031,0.0060,0.0056,0.0016
1188,0.0222,0.0093,0.0111,0.0016,0.0022,0.0038,0.0033,0.0007
1189,0.0222,0.0093,0.0111,0.0016,0.0022,0.0038,0.0033,0.0007
1190,0.0214,0.0088,0.0098,0.0023,0.0031,0.0040,0.0040,0.0013
1191,0.0218,0.0253,0.0214,0.0111,0.0048,0.0127,0.0119,0.0067
1192,0.0227,0.0099,0.0148,0.0028,0.0048,0.0045,0.0073,0.0019
1193,0.0226,0.0104,0.0156,0.0027,0.0045,0.0051,0.0076,0.0019
1194,0.0246,0.0155,0.0204,0.0032,0.0075,0.0087,0.0106,0.0025
1195,0.0225,0.0102,0.0143,0.0030,0.0040,0.0048,0.0068,0.0023
1196,0.0217,0.0101,0.0106,0.0037,0.0050,0.0054,0.0050,0.0029
1197,0.0239,0.0109,0.0148,0.0023,0.0037,0.0045,0.0054,0.0015
1198,0.0224,0.0096,0.0126,0.0034,0.0036,0.0043,0.0057,0.0024
1199,0.0224,0.0093,0.0118,0.0033,0.0033,0.0037,0.0047,0.0023
1200,0.0238,0.0131,0.0165,0.0020,0.0045,0.0069,0.0080,0.0013
1201,0.0214,0.0088,0.0097,0.0032,0.0027,0.0043,0.0038,0.0025
1202,0.0218,0.0253,0.0214,0.0111,0.0048,0.0127,0.0119,0.0067
1203,0.0222,0.0091,0.0113,0.0019,0.0022,0.0034,0.0038,0.0012
1204,0.0236,0.0113,0.0142,0.0027,0.0034,0.0054,0.0051,0.0021
1205,0.0223,0.0093,0.0110,0.0018,0.0032,0.0038,0.0031,0.0011
1206,0.0223,0.0103,0.0122,0.0017,0.0028,0.0052,0.0054,0.0009
1207,0.0220,0.0112,0.0113,0.0029,0.0058,0.0069,0.0060,0.0022
1208,0.0225,0.0111,0.0127,0.0018,0.0040,0.0062,0.0059,0.0011
1209,0.0226,0.0105,0.0122,0.0017,0.0039,0.0052,0.0051,0.0009
1210,0.0238,0.0108,0.0143,0.0023,0.0040,0.0041,0.0047,0.0017
1211,0.0225,0.0098,0.0114,0.0024,0.0039,0.0043,0.0039,0.0017
1212,0.0215,0.0145,0.0139,0.0032,0.0030,0.0095,0.0082,0.0023
1213,0.0218,0.0253,0.0214,0.0111,0.0048,0.0127,0.0119,0.0067
1214,0.0240,0.0137,0.0178,0.0037,0.0045,0.0081,0.0098,0.0030
1215,0.0227,0.0126,0.0132,0.0026,0.0043,0.0074,0.0062,0.0019
1216,0.0222,0.0241,0.0237,0.0151,0.0021,0.0162,0.0154,0.0102
1217,0.0237,0.0230,0.0215,0.0137,0.0035,0.0158,0.0135,0.0096
1218,0.0214,0.0180,0.0188,0.0100,0.0028,0.0123,0.0124,0.0067
1219,0.0214,0.0180,0.0188,0.0100,0.0028,0.0123,0.0124,0.0067
1220,0.0214,0.0180,0.0188,0.0100,0.0028,0.0123,0.0124,0.0067
1221,0.0214,0.0180,0.0188,0.0100,0.0028,0.0123,0.0124,0.0067
1222,0.0214,0.0180,0.0188,0.0100,0.0028,0.0123,0.0124,0.0067
1223,0.0214,0.0180,0.0188,0.0100,0.0028,0.0123,0.0124,0.0067
1224,0.0225,0.0189,0.0176,0.0046,0.0044,0.0106,0.0102,0.0024
1225,0.0224,0.0102,0.0115,0.0018,0.0034,0.0038,0.0042,0.0009
1226,0.0224,0.0102,0.0115,0.0018,0.0034,0.0038,0.0042,0.0009
1227,0.0224,0.0102,0.0115,0.0018,0.0034,0.0038,0.0042,0.0009
1228,0.0225,0.0112,0.0120,0.0022,0.0040,0.0061,0.0055,0.0015
1229,0.0216,0.0144,0.0156,0.0030,0.0037,0.0087,0.0095,0.0022
1230,0.0225,0.0109,0.0115,0.0026,0.0042,0.0052,0.0042,0.0018
1231,0.0224,0.0116,0.0133,0.0027,0.0037,0.0057,0.0068,0.0018
1232,0.0225,0.0137,0.0153,0.0028,0.0037,0.0074,0.0088,0.0018
1233,0.0226,0.0126,0.0132,0.0027,0.0041,0.0057,0.0063,0.0019
1234,0.0218,0.0140,0.0123,0.0033,0.0051,0.0070,0.0063,0.0027
1235,0.0225,0.0169,0.0154,0.0036,0.0039,0.0085,0.0081,0.0022
1236,0.0227,0.0121,0.0125,0.0023,0.0046,0.0054,0.0057,0.0016
1237,0.0227,0.0132,0.0133,0.0022,0.0043,0.0062,0.0062,0.0012
1238,0.0227,0.0140,0.0138,0.0021,0.0043,0.0068,0.0067,0.0013
1239,0.0229,0.0141,0.0143,0.0024,0.0049,0.0068,0.0071,0.0017
1240,0.0216,0.0143,0.0151,0.0037,0.0038,0.0085,0.0094,0.0028
1241,0.0227,0.0199,0.0214,0.0098,0.0052,0.0125,0.0144,0.0063
1242,0.0224,0.0180,0.0170,0.0088,0.0034,0.0089,0.0091,0.0050
1243,0.0225,0.0175,0.0173,0.0084,0.0039,0.0090,0.0091,0.0051
1244,0.0224,0.0178,0.0176,0.0084,0.0038,0.0114,0.0112,0.0060
1245,0.0219,0.0207,0.0199,0.0078,0.0051,0.0123,0.0120,0.0047
1246,0.0225,0.0146,0.0136,0.0024,0.0045,0.0073,0.0070,0.0014
1247,0.0225,0.0188,0.0192,0.0078,0.0042,0.0125,0.0124,0.0051
1248,0.0225,0.0143,0.0148,0.0054,0.0041,0.0086,0.0086,0.0036
1249,0.0224,0.0124,0.0129,0.0040,0.0035,0.0061,0.0060,0.0028
1250,0.0224,0.0116,0.0123,0.0036,0.0037,0.0057,0.0055,0.0024
1251,0.0216,0.0129,0.0124,0.0033,0.0042,0.0076,0.0072,0.0024
1252,0.0224,0.0116,0.0133,0.0027,0.0037,0.0057,0.0068,0.0018
1253,0.0224,0.0113,0.0124,0.0024,0.0037,0.0050,0.0056,0.0017
1254,0.0225,0.0128,0.0136,0.0037,0.0040,0.0064,0.0070,0.0027
1255,0.0225,0.0121,0.0137,0.0045,0.0042,0.0059,0.0068,0.0031
1256,0.0217,0.0257,0.0304,0.0092,0.0042,0.0160,0.0188,0.0064
1257,0.0217,0.0167,0.0144,0.0031,0.0046,0.0101,0.0092,0.0021
1258,0.0225,0.0132,0.0155,0.0046,0.0041,0.0057,0.0074,0.0028
1259,0.0225,0.0166,0.0198,0.0051,0.0042,0.0086,0.0110,0.0026
1260,0.0227,0.0226,0.0266,0.0070,0.0047,0.0132,0.0160,0.0034
1261,0.0228,0.0263,0.0302,0.0091,0.0051,0.0152,0.0180,0.0046
1262,0.0218,0.0283,0.0262,0.0126,0.0051,0.0135,0.0122,0.0066
1263,0.0230,0.0208,0.0208,0.0102,0.0056,0.0102,0.0097,0.0055
1264,0.0225,0.0137,0.0153,0.0028,0.0037,0.0074,0.0088,0.0018
1265,0.0224,0.0102,0.0115,0.0018,0.0034,0.0038,0.0042,0.0009
1266,0.0224,0.0102,0.0115,0.0018,0.0034,0.0038,0.0042,0.0009
1267,0.0216,0.0112,0.0111,0.0025,0.0038,0.0050,0.0050,0.0017
1268,0.0225,0.0146,0.0132,0.0027,0.0040,0.0060,0.0059,0.0016
1269,0.0224,0.0102,0.0115,0.0018,0.0034,0.0038,0.0042,0.0009
1270,0.0224,0.0102,0.0115,0.0018,0.0034,0.0038,0.0042,0.0009
1271,0.0224,0.0102,0.0115,0.0018,0.0034,0.0038,0.0042,0.0009
1272,0.0224,0.0102,0.0115,0.0018,0.0034,0.0038,0.0042,0.0009
1273,0.0216,0.0112,0.0111,0.0025,0.0038,0.0050,0.0050,0.0017
1274,0.0224,0.0102,0.0115,0.0018,0.0034,0.0038,0.0042,0.0009
1275,0.0224,0.0102,0.0115,0.0018,0.0034,0.0038,0.0042,0.0009
1276,0.0226,0.0126,0.0132,0.0027,0.0041,0.0057,0.0063,0.0019
1277,0.0224,0.0102,0.0115,0.0018,0.0034,0.0038,0.0042,0.0009
1278,0.0216,0.0112,0.0111,0.0025,0.0038,0.0050,0.0050,0.0017
1279,0.0224,0.0134,0.0123,0.0023,0.0038,0.0053,0.0046,0.0017
1280,0.0224,0.0102,0.0115,0.0018,0.0034,0.0038,0.0042,0.0009
1281,0.0224,0.0102,0.0115,0.0018,0.0034,0.0038,0.0042,0.0009
1282,0.0224,0.0102,0.0115,0.0018,0.0034,0.0038,0.0042,0.0009
1283,0.0224,0.0102,0.0115,0.0018,0.0034,0.0038,0.0042,0.0009
1284,0.0216,0.0112,0.0111,0.0025,0.0038,0.0050,0.0050,0.0017
1285,0.0224,0.0102,0.0115,0.0018,0.0034,0.0038,0.0042,0.0009
1286,0.0224,0.0102,0.0115,0.0018,0.0034,0.0038,0.0042,0.0009
1287,0.0224,0.0102,0.0115,0.0018,0.0034,0.0038,0.0042,0.0009
1288,0.0227,0.0118,0.0124,0.0026,0.0046,0.0051,0.0056,0.0019
1289,0.0216,0.0112,0.0111,0.0025,0.0038,0.0050,0.0050,0.0017
1290,0.0225,0.0150,0.0142,0.0036,0.0040,0.0064,0.0068,0.0026
1291,0.0224,0.0102,0.0115,0.0018,0.0034,0.0038,0.0042,0.0009
1292,0.0224,0.0102,0.0115,0.0018,0.0034,0.0038,0.0042,0.0009
1293,0.0224,0.0102,0.0115,0.0018,0.0034,0.0038,0.0042,0.0009
1294,0.0224,0.0102,0.0115,0.0018,0.0034,0.0038,0.0042,0.0009
1295,0.0216,0.0112,0.0111,0.0025,0.0038,0.0050,0.0050,0.0017
1296,0.0224,0.0102,0.0115,0.0018,0.0034,0.0038,0.0042,0.0009
1297,0.0224,0.0102,0.0115,0.0018,0.0034,0.0038,0.0042,0.0009
1298,0.0224,0.0102,0.0115,0.0018,0.0034,0.0038,0.0042,0.0009
1299,0.0224,0.0102,0.0115,0.0018,0.0034,0.0038,0.0042,0.0009
1300,0.0219,0.0148,0.0126,0.0035,0.0050,0.0075,0.0066,0.0025
1301,0.0225,0.0149,0.0148,0.0047,0.0043,0.0063,0.0069,0.0033
1302,0.0224,0.0102,0.0115,0.0018,0.0034,0.0038,0.0042,0.0009
1303,0.0224,0.0102,0.0115,0.0018,0.0034,0.0038,0.0042,0.0009
1304,0.0224,0.0102,0.0115,0.0018,0.0034,0.0038,0.0042,0.0009
1305,0.0224,0.0102,0.0115,0.0018,0.0034,0.0038,0.0042,0.0009
1306,0.0216,0.0112,0.0111,0.0025,0.0038,0.0050,0.0050,0.0017
1307,0.0226,0.0116,0.0155,0.0030,0.0044,0.0063,0.0089,0.0017
1308,0.0226,0.0116,0.0153,0.0029,0.0044,0.0064,0.0090,0.0016
1309,0.0226,0.0120,0.0157,0.0029,0.0046,0.0069,0.0095,0.0017
1310,0.0228,0.0109,0.0138,0.0028,0.0047,0.0055,0.0074,0.0019
1311,0.0218,0.0140,0.0123,0.0033,0.0051,0.0070,0.0063,0.0027
1312,0.0217,0.0338,0.0377,0.0103,0.0046,0.0183,0.0211,0.0060
1313,0.0227,0.0132,0.0133,0.0022,0.0043,0.0062,0.0062,0.0012
1314,0.0229,0.0104,0.0125,0.0025,0.0051,0.0046,0.0058,0.0017
1315,0.0228,0.0100,0.0119,0.0023,0.0050,0.0038,0.0046,0.0015
1316,0.0227,0.0103,0.0120,0.0021,0.0045,0.0038,0.0045,0.0013
1317,0.0216,0.0107,0.0101,0.0027,0.0040,0.0050,0.0039,0.0021
1318,0.0224,0.0102,0.0120,0.0018,0.0032,0.0037,0.0049,0.0009
1319,0.0225,0.0112,0.0120,0.0022,0.0040,0.0061,0.0055,0.0015
1320,0.0225,0.0109,0.0115,0.0026,0.0042,0.0052,0.0042,0.0018
1321,0.0224,0.0116,0.0133,0.0027,0.0037,0.0057,0.0068,0.0018
1322,0.0220,0.0127,0.0114,0.0034,0.0061,0.0068,0.0060,0.0026
1323,0.0225,0.0155,0.0157,0.0021,0.0043,0.0089,0.0087,0.0013
1324,0.0226,0.0185,0.0206,0.0062,0.0048,0.0071,0.0091,0.0036
1325,0.0226,0.0126,0.0132,0.0027,0.0041,0.0057,0.0063,0.0019
1326,0.0227,0.0140,0.0138,0.0021,0.0043,0.0068,0.0067,0.0013
1327,0.0227,0.0118,0.0124,0.0026,0.0046,0.0051,0.0056,0.0019
1328,0.0227,0.0121,0.0125,0.0023,0.0046,0.0054,0.0057,0.0016
1329,0.0222,0.0144,0.0131,0.0050,0.0062,0.0079,0.0075,0.0038
1330,0.0227,0.0140,0.0138,0.0021,0.0043,0.0068,0.0067,0.0013
1331,0.0229,0.0141,0.0143,0.0024,0.0049,0.0068,0.0071,0.0017
1332,0.0227,0.0199,0.0214,0.0098,0.0052,0.0125,0.0144,0.0063
1333,0.0224,0.0180,0.0170,0.0088,0.0034,0.0089,0.0091,0.0050
1334,0.0217,0.0196,0.0180,0.0096,0.0047,0.0119,0.0113,0.0066
1335,0.0226,0.0232,0.0268,0.0077,0.0048,0.0098,0.0130,0.0036
1336,0.0217,0.0196,0.0180,0.0096,0.0047,0.0119,0.0113,0.0066
1337,0.0217,0.0196,0.0180,0.0096,0.0047,0.0119,0.0113,0.0066
1338,0.0217,0.0196,0.0180,0.0096,0.0047,0.0119,0.0113,0.0066
1339,0.0217,0.0196,0.0180,0.0096,0.0047,0.0119,0.0113,0.0066
1340,0.0217,0.0196,0.0180,0.0096,0.0047,0.0119,0.0113,0.0066
1341,0.0224,0.0094,0.0113,0.0018,0.0033,0.0036,0.0039,0.0009
1342,0.0224,0.0094,0.0113,0.0018,0.0033,0.0036,0.0039,0.0009
1343,0.0224,0.0094,0.0113,0.0018,0.0033,0.0036,0.0039,0.0009
1344,0.0224,0.0103,0.0116,0.0022,0.0038,0.0052,0.0047,0.0015
1345,0.0216,0.0138,0.0158,0.0029,0.0036,0.0088,0.0098,0.0021
1346,0.0227,0.0317,0.0362,0.0109,0.0050,0.0160,0.0196,0.0045
1347,0.0225,0.0099,0.0112,0.0026,0.0040,0.0045,0.0039,0.0019
1348,0.0224,0.0106,0.0130,0.0027,0.0034,0.0054,0.0067,0.0018
1349,0.0225,0.0140,0.0162,0.0027,0.0035,0.0083,0.0097,0.0017
1350,0.0226,0.0118,0.0131,0.0027,0.0043,0.0061,0.0066,0.0019
1351,0.0218,0.0110,0.0106,0.0034,0.0050,0.0054,0.0049,0.0028
1352,0.0227,0.0101,0.0119,0.0026,0.0046,0.0046,0.0050,0.0019
1353,0.0227,0.0112,0.0125,0.0023,0.0042,0.0052,0.0054,0.0015
1354,0.0227,0.0113,0.0126,0.0021,0.0041,0.0053,0.0056,0.0012
1355,0.0228,0.0117,0.0134,0.0026,0.0047,0.0061,0.0064,0.0019
1356,0.0216,0.0134,0.0149,0.0034,0.0038,0.0085,0.0093,0.0026
1357,0.0229,0.0389,0.0424,0.0153,0.0054,0.0194,0.0224,0.0067
1358,0.0226,0.0196,0.0225,0.0105,0.0048,0.0134,0.0152,0.0074
1359,0.0224,0.0133,0.0145,0.0064,0.0038,0.0075,0.0080,0.0046
1360,0.0225,0.0135,0.0145,0.0068,0.0041,0.0081,0.0082,0.0049
1361,0.0224,0.0177,0.0179,0.0087,0.0038,0.0117,0.0114,0.0061
1362,0.0219,0.0179,0.0176,0.0071,0.0050,0.0117,0.0113,0.0043
1363,0.0225,0.0180,0.0193,0.0075,0.0040,0.0120,0.0122,0.0048
1364,0.0225,0.0126,0.0138,0.0050,0.0040,0.0074,0.0077,0.0034
1365,0.0224,0.0114,0.0126,0.0043,0.0034,0.0062,0.0065,0.0029
1366,0.0224,0.0113,0.0126,0.0041,0.0038,0.0064,0.0064,0.0027
1367,0.0216,0.0120,0.0121,0.0033,0.0040,0.0072,0.0069,0.0024
1368,0.0220,0.0540,0.0472,0.0260,0.0057,0.0234,0.0204,0.0125
1369,0.0224,0.0106,0.0130,0.0027,0.0034,0.0054,0.0067,0.0018
1370,0.0224,0.0104,0.0118,0.0025,0.0035,0.0045,0.0049,0.0019
1371,0.0224,0.0118,0.0128,0.0039,0.0037,0.0052,0.0054,0.0028
1372,0.0225,0.0107,0.0123,0.0044,0.0038,0.0047,0.0052,0.0030
1373,0.0216,0.0213,0.0253,0.0084,0.0042,0.0139,0.0162,0.0060
1374,0.0225,0.0109,0.0129,0.0039,0.0038,0.0047,0.0055,0.0026
1375,0.0225,0.0123,0.0147,0.0037,0.0041,0.0061,0.0075,0.0023
1376,0.0227,0.0153,0.0181,0.0043,0.0046,0.0087,0.0108,0.0025
1377,0.0228,0.0176,0.0208,0.0052,0.0051,0.0105,0.0129,0.0030
1378,0.0218,0.0181,0.0175,0.0096,0.0048,0.0105,0.0096,0.0067
1379,0.0231,0.0423,0.0392,0.0223,0.0059,0.0195,0.0176,0.0109
1380,0.0229,0.0157,0.0153,0.0084,0.0052,0.0099,0.0084,0.0059
1381,0.0225,0.0140,0.0162,0.0027,0.0035,0.0083,0.0097,0.0017
1382,0.0224,0.0094,0.0113,0.0018,0.0033,0.0036,0.0039,0.0009
1383,0.0224,0.0094,0.0113,0.0018,0.0033,0.0036,0.0039,0.0009
1384,0.0216,0.0103,0.0111,0.0025,0.0038,0.0054,0.0057,0.0018
1385,0.0224,0.0094,0.0113,0.0018,0.0033,0.0036,0.0039,0.0009
1386,0.0224,0.0094,0.0113,0.0018,0.0033,0.0036,0.0039,0.0009
1387,0.0224,0.0094,0.0113,0.0018,0.0033,0.0036,0.0039,0.0009
1388,0.0224,0.0094,0.0113,0.0018,0.0033,0.0036,0.0039,0.0009
1389,0.0216,0.0103,0.0111,0.0025,0.0038,0.0054,0.0057,0.0018
1390,0.0225,0.0152,0.0136,0.0027,0.0039,0.0060,0.0062,0.0016
1391,0.0224,0.0094,0.0113,0.0018,0.0033,0.0036,0.0039,0.0009
1392,0.0224,0.0094,0.0113,0.0018,0.0033,0.0036,0.0039,0.0009
1393,0.0226,0.0118,0.0131,0.0027,0.0043,0.0061,0.0066,0.0019
1394,0.0224,0.0094,0.0113,0.0018,0.0033,0.0036,0.0039,0.0009
1395,0.0216,0.0103,0.0111,0.0025,0.0038,0.0054,0.0057,0.0018
1396,0.0224,0.0094,0.0113,0.0018,0.0033,0.0036,0.0039,0.0009
1397,0.0224,0.0094,0.0113,0.0018,0.0033,0.0036,0.0039,0.0009
1398,0.0224,0.0094,0.0113,0.0018,0.0033,0.0036,0.0039,0.0009
1399,0.0224,0.0094,0.0113,0.0018,0.0033,0.0036,0.0039,0.0009
1400,0.0216,0.0103,0.0111,0.0025,0.0038,0.0054,0.0057,0.0018
1401,0.0224,0.0126,0.0120,0.0018,0.0037,0.0048,0.0046,0.0010
1402,0.0224,0.0094,0.0113,0.0018,0.0033,0.0036,0.0039,0.0009
1403,0.0224,0.0094,0.0113,0.0018,0.0033,0.0036,0.0039,0.0009
1404,0.0224,0.0094,0.0113,0.0018,0.0033,0.0036,0.0039,0.0009
1405,0.0227,0.0100,0.0120,0.0027,0.0048,0.0043,0.0051,0.0020
1406,0.0216,0.0103,0.0111,0.0025,0.0038,0.0054,0.0057,0.0018
1407,0.0224,0.0094,0.0113,0.0018,0.0033,0.0036,0.0039,0.0009
1408,0.0224,0.0094,0.0113,0.0018,0.0033,0.0036,0.0039,0.0009
1409,0.0224,0.0094,0.0113,0.0018,0.0033,0.0036,0.0039,0.0009
1410,0.0224,0.0094,0.0113,0.0018,0.0033,0.0036,0.0039,0.0009
1411,0.0216,0.0103,0.0111,0.0025,0.0038,0.0054,0.0057,0.0018
1412,0.0224,0.0126,0.0120,0.0018,0.0037,0.0048,0.0046,0.0010
1413,0.0224,0.0094,0.0113,0.0018,0.0033,0.0036,0.0039,0.0009
1414,0.0224,0.0094,0.0113,0.0018,0.0033,0.0036,0.0039,0.0009
1415,0.0224,0.0094,0.0113,0.0018,0.0033,0.0036,0.0039,0.0009
1416,0.0224,0.0094,0.0113,0.0018,0.0033,0.0036,0.0039,0.0009
1417,0.0219,0.0117,0.0112,0.0039,0.0050,0.0062,0.0057,0.0031
1418,0.0224,0.0094,0.0113,0.0018,0.0033,0.0036,0.0039,0.0009
1419,0.0224,0.0094,0.0113,0.0018,0.0033,0.0036,0.0039,0.0009
1420,0.0224,0.0094,0.0113,0.0018,0.0033,0.0036,0.0039,0.0009
1421,0.0224,0.0094,0.0113,0.0018,0.0033,0.0036,0.0039,0.0009
1422,0.0216,0.0103,0.0111,0.0025,0.0038,0.0054,0.0057,0.0018
1423,0.0216,0.0152,0.0123,0.0025,0.0042,0.0066,0.0057,0.0018
1424,0.0226,0.0115,0.0158,0.0030,0.0044,0.0065,0.0095,0.0018
1425,0.0226,0.0113,0.0152,0.0030,0.0044,0.0063,0.0090,0.0019
1426,0.0226,0.0119,0.0160,0.0030,0.0045,0.0069,0.0097,0.0020
1427,0.0228,0.0107,0.0140,0.0030,0.0047,0.0058,0.0079,0.0021
1428,0.0218,0.0110,0.0106,0.0034,0.0050,0.0054,0.0049,0.0028
1429,0.0227,0.0112,0.0125,0.0023,0.0042,0.0052,0.0054,0.0015
1430,0.0229,0.0095,0.0119,0.0027,0.0050,0.0041,0.0053,0.0019
1431,0.0228,0.0094,0.0116,0.0025,0.0050,0.0038,0.0047,0.0016
1432,0.0227,0.0093,0.0113,0.0022,0.0046,0.0036,0.0040,0.0013
1433,0.0216,0.0098,0.0098,0.0027,0.0038,0.0047,0.0039,0.0021
1434,0.0216,0.0160,0.0130,0.0025,0.0040,0.0066,0.0057,0.0016
1435,0.0224,0.0126,0.0120,0.0018,0.0037,0.0048,0.0046,0.0010
1436,0.0224,0.0090,0.0112,0.0018,0.0033,0.0029,0.0037,0.0010
1437,0.0224,0.0103,0.0116,0.0022,0.0038,0.0052,0.0047,0.0015
1438,0.0225,0.0099,0.0112,0.0026,0.0040,0.0045,0.0039,0.0019
1439,0.0224,0.0106,0.0130,0.0027,0.0034,0.0054,0.0067,0.0018
1440,0.0220,0.0115,0.0112,0.0033,0.0061,0.0070,0.0063,0.0026
1441,0.0226,0.0118,0.0131,0.0027,0.0043,0.0061,0.0066,0.0019
1442,0.0227,0.0113,0.0126,0.0021,0.0041,0.0053,0.0056,0.0012
1443,0.0227,0.0100,0.0120,0.0027,0.0048,0.0043,0.0051,0.0020
1444,0.0227,0.0101,0.0119,0.0026,0.0046,0.0046,0.0050,0.0019
1445,0.0222,0.0124,0.0125,0.0041,0.0060,0.0074,0.0071,0.0027
1446,0.0224,0.0126,0.0120,0.0018,0.0037,0.0048,0.0046,0.0010
1447,0.0227,0.0113,0.0126,0.0021,0.0041,0.0053,0.0056,0.0012
1448,0.0228,0.0117,0.0134,0.0026,0.0047,0.0061,0.0064,0.0019
1449,0.0226,0.0196,0.0225,0.0105,0.0048,0.0134,0.0152,0.0074
1450,0.0224,0.0133,0.0145,0.0064,0.0038,0.0075,0.0080,0.0046
1451,0.0217,0.0155,0.0152,0.0082,0.0046,0.0106,0.0100,0.0060
1452,0.0217,0.0155,0.0152,0.0082,0.0046,0.0106,0.0100,0.0060
1453,0.0217,0.0155,0.0152,0.0082,0.0046,0.0106,0.0100,0.0060
1454,0.0217,0.0155,0.0152,0.0082,0.0046,0.0106,0.0100,0.0060
1455,0.0217,0.0155,0.0152,0.0082,0.0046,0.0106,0.0100,0.0060
1456,0.0217,0.0155,0.0152,0.0082,0.0046,0.0106,0.0100,0.0060
1457,0.0224,0.0126,0.0120,0.0018,0.0037,0.0048,0.0046,0.0010
1458,0.0224,0.0092,0.0112,0.0018,0.0035,0.0034,0.0037,0.0009
1459,0.0224,0.0092,0.0112,0.0018,0.0035,0.0034,0.0037,0.0009
1460,0.0224,0.0092,0.0112,0.0018,0.0035,0.0034,0.0037,0.0009
1461,0.0225,0.0099,0.0115,0.0022,0.0041,0.0046,0.0044,0.0014
1462,0.0216,0.0107,0.0120,0.0027,0.0036,0.0062,0.0068,0.0020
1463,0.0225,0.0097,0.0112,0.0026,0.0042,0.0044,0.0039,0.0018
1464,0.0224,0.0100,0.0123,0.0027,0.0035,0.0047,0.0058,0.0017
1465,0.0225,0.0120,0.0142,0.0027,0.0036,0.0069,0.0080,0.0016
1466,0.0226,0.0115,0.0130,0.0026,0.0044,0.0061,0.0066,0.0018
1467,0.0218,0.0105,0.0106,0.0035,0.0050,0.0054,0.0051,0.0028
1468,0.0224,0.0126,0.0120,0.0018,0.0037,0.0048,0.0046,0.0010
1469,0.0227,0.0099,0.0119,0.0026,0.0046,0.0045,0.0050,0.0019
1470,0.0227,0.0103,0.0122,0.0024,0.0041,0.0049,0.0052,0.0016
1471,0.0227,0.0104,0.0123,0.0021,0.0040,0.0050,0.0055,0.0013
1472,0.0228,0.0109,0.0127,0.0027,0.0046,0.0056,0.0059,0.0020
1473,0.0216,0.0131,0.0147,0.0032,0.0038,0.0086,0.0093,0.0025
1474,0.0226,0.0221,0.0247,0.0128,0.0047,0.0150,0.0170,0.0087
1475,0.0224,0.0130,0.0145,0.0072,0.0038,0.0081,0.0086,0.0052
1476,0.0225,0.0138,0.0146,0.0074,0.0042,0.0088,0.0088,0.0053
1477,0.0224,0.0190,0.0192,0.0092,0.0038,0.0126,0.0124,0.0064
1478,0.0219,0.0152,0.0150,0.0065,0.0049,0.0097,0.0091,0.0041
1479,0.0216,0.0152,0.0123,0.0025,0.0042,0.0066,0.0057,0.0018
1480,0.0225,0.0181,0.0197,0.0072,0.0040,0.0121,0.0127,0.0047
1481,0.0225,0.0129,0.0146,0.0050,0.0040,0.0078,0.0084,0.0033
1482,0.0224,0.0109,0.0125,0.0041,0.0035,0.0057,0.0062,0.0028
1483,0.0225,0.0108,0.0122,0.0038,0.0041,0.0058,0.0057,0.0026
1484,0.0216,0.0119,0.0123,0.0032,0.0042,0.0072,0.0073,0.0023
1485,0.0224,0.0100,0.0123,0.0027,0.0035,0.0047,0.0058,0.0017
1486,0.0224,0.0103,0.0116,0.0027,0.0035,0.0046,0.0044,0.0020
1487,0.0224,0.0116,0.0127,0.0040,0.0036,0.0051,0.0053,0.0030
1488,0.0224,0.0104,0.0122,0.0044,0.0037,0.0044,0.0051,0.0030
1489,0.0216,0.0160,0.0194,0.0072,0.0043,0.0105,0.0125,0.0052
1490,0.0224,0.0126,0.0120,0.0018,0.0037,0.0048,0.0046,0.0010
1491,0.0225,0.0102,0.0123,0.0037,0.0037,0.0043,0.0052,0.0025
1492,0.0225,0.0111,0.0133,0.0033,0.0041,0.0052,0.0062,0.0022
1493,0.0227,0.0127,0.0149,0.0037,0.0046,0.0067,0.0081,0.0025
1494,0.0228,0.0141,0.0167,0.0044,0.0052,0.0079,0.0100,0.0030
1495,0.0218,0.0167,0.0158,0.0106,0.0048,0.0110,0.0098,0.0073
1496,0.0229,0.0187,0.0172,0.0107,0.0051,0.0117,0.0099,0.0070
1497,0.0225,0.0120,0.0142,0.0027,0.0036,0.0069,0.0080,0.0016
1498,0.0224,0.0092,0.0112,0.0018,0.0035,0.0034,0.0037,0.0009
1499,0.0224,0.0092,0.0112,0.0018,0.0035,0.0034,0.0037,0.0009
1500,0.0216,0.0096,0.0104,0.0025,0.0039,0.0046,0.0048,0.0017
1501,0.0224,0.0126,0.0120,0.0018,0.0037,0.0048,0.0046,0.0010
1502,0.0224,0.0092,0.0112,0.0018,0.0035,0.0034,0.0037,0.0009
1503,0.0224,0.0092,0.0112,0.0018,0.0035,0.0034,0.0037,0.0009
1504,0.0224,0.0092,0.0112,0.0018,0.0035,0.0034,0.0037,0.0009
1505,0.0224,0.0092,0.0112,0.0018,0.0035,0.0034,0.0037,0.0009
1506,0.0216,0.0096,0.0104,0.0025,0.0039,0.0046,0.0048,0.0017
1507,0.0224,0.0092,0.0112,0.0018,0.0035,0.0034,0.0037,0.0009
1508,0.0224,0.0092,0.0112,0.0018,0.0035,0.0034,0.0037,0.0009
1509,0.0226,0.0115,0.0130,0.0026,0.0044,0.0061,0.0066,0.0018
1510,0.0224,0.0092,0.0112,0.0018,0.0035,0.0034,0.0037,0.0009
1511,0.0216,0.0096,0.0104,0.0025,0.0039,0.0046,0.0048,0.0017
1512,0.0226,0.0168,0.0149,0.0024,0.0043,0.0075,0.0078,0.0015
1513,0.0224,0.0092,0.0112,0.0018,0.0035,0.0034,0.0037,0.0009
1514,0.0224,0.0092,0.0112,0.0018,0.0035,0.0034,0.0037,0.0009
1515,0.0224,0.0092,0.0112,0.0018,0.0035,0.0034,0.0037,0.0009
1516,0.0224,0.0092,0.0112,0.0018,0.0035,0.0034,0.0037,0.0009
1517,0.0216,0.0096,0.0104,0.0025,0.0039,0.0046,0.0048,0.0017
1518,0.0224,0.0092,0.0112,0.0018,0.0035,0.0034,0.0037,0.0009
1519,0.0224,0.0092,0.0112,0.0018,0.0035,0.0034,0.0037,0.0009
1520,0.0224,0.0092,0.0112,0.0018,0.0035,0.0034,0.0037,0.0009
1521,0.0227,0.0105,0.0129,0.0027,0.0049,0.0054,0.0066,0.0020
1522,0.0216,0.0096,0.0104,0.0025,0.0039,0.0046,0.0048,0.0017
1523,0.0224,0.0126,0.0120,0.0018,0.0037,0.0048,0.0046,0.0010
1524,0.0224,0.0092,0.0112,0.0018,0.0035,0.0034,0.0037,0.0009
1525,0.0224,0.0092,0.0112,0.0018,0.0035,0.0034,0.0037,0.0009
1526,0.0224,0.0092,0.0112,0.0018,0.0035,0.0034,0.0037,0.0009
1527,0.0224,0.0092,0.0112,0.0018,0.0035,0.0034,0.0037,0.0009
1528,0.0216,0.0096,0.0104,0.0025,0.0039,0.0046,0.0048,0.0017
1529,0.0224,0.0092,0.0112,0.0018,0.0035,0.0034,0.0037,0.0009
1530,0.0224,0.0092,0.0112,0.0018,0.0035,0.0034,0.0037,0.0009
1531,0.0224,0.0092,0.0112,0.0018,0.0035,0.0034,0.0037,0.0009
1532,0.0224,0.0092,0.0112,0.0018,0.0035,0.0034,0.0037,0.0009
1533,0.0219,0.0104,0.0104,0.0042,0.0049,0.0053,0.0048,0.0032
1534,0.0216,0.0152,0.0123,0.0025,0.0042,0.0066,0.0057,0.0018
1535,0.0224,0.0092,0.0112,0.0018,0.0035,0.0034,0.0037,0.0009
1536,0.0224,0.0092,0.0112,0.0018,0.0035,0.0034,0.0037,0.0009
1537,0.0224,0.0092,0.0112,0.0018,0.0035,0.0034,0.0037,0.0009
1538,0.0224,0.0092,0.0112,0.0018,0.0035,0.0034,0.0037,0.0009
1539,0.0216,0.0096,0.0104,0.0025,0.0039,0.0046,0.0048,0.0017
1540,0.0226,0.0118,0.0163,0.0030,0.0045,0.0070,0.0100,0.0019
1541,0.0226,0.0120,0.0167,0.0030,0.0045,0.0073,0.0103,0.0020
1542,0.0226,0.0122,0.0168,0.0031,0.0046,0.0074,0.0105,0.0022
1543,0.0228,0.0110,0.0148,0.0031,0.0048,0.0062,0.0086,0.0023
1544,0.0218,0.0105,0.0106,0.0035,0.0050,0.0054,0.0051,0.0028
1545,0.0225,0.0152,0.0145,0.0025,0.0046,0.0080,0.0074,0.0015
1546,0.0224,0.0126,0.0120,0.0018,0.0037,0.0048,0.0046,0.0010
1547,0.0227,0.0103,0.0122,0.0024,0.0041,0.0049,0.0052,0.0016
1548,0.0229,0.0096,0.0122,0.0029,0.0052,0.0044,0.0057,0.0021
1549,0.0228,0.0092,0.0115,0.0027,0.0050,0.0035,0.0044,0.0018
1550,0.0227,0.0090,0.0111,0.0024,0.0047,0.0031,0.0037,0.0015
1551,0.0216,0.0095,0.0099,0.0028,0.0040,0.0047,0.0040,0.0022
1552,0.0224,0.0089,0.0112,0.0018,0.0034,0.0028,0.0038,0.0010
1553,0.0225,0.0099,0.0115,0.0022,0.0041,0.0046,0.0044,0.0014
1554,0.0225,0.0097,0.0112,0.0026,0.0042,0.0044,0.0039,0.0018
1555,0.0224,0.0100,0.0123,0.0027,0.0035,0.0047,0.0058,0.0017
1556,0.0219,0.0120,0.0120,0.0032,0.0060,0.0076,0.0070,0.0025
1557,0.0224,0.0126,0.0120,0.0018,0.0037,0.0048,0.0046,0.0010
1558,0.0226,0.0115,0.0130,0.0026,0.0044,0.0061,0.0066,0.0018
1559,0.0227,0.0104,0.0123,0.0021,0.0040,0.0050,0.0055,0.0013
1560,0.0227,0.0105,0.0129,0.0027,0.0049,0.0054,0.0066,0.0020
1561,0.0227,0.0099,0.0119,0.0026,0.0046,0.0045,0.0050,0.0019
1562,0.0222,0.0132,0.0134,0.0041,0.0060,0.0082,0.0080,0.0026
1563,0.0227,0.0104,0.0123,0.0021,0.0040,0.0050,0.0055,0.0013
1564,0.0228,0.0109,0.0127,0.0027,0.0046,0.0056,0.0059,0.0020
1565,0.0226,0.0221,0.0247,0.0128,0.0047,0.0150,0.0170,0.0087
1566,0.0224,0.0130,0.0145,0.0072,0.0038,0.0081,0.0086,0.0052
1567,0.0217,0.0152,0.0154,0.0082,0.0046,0.0107,0.0103,0.0060
1568,0.0224,0.0126,0.0120,0.0018,0.0037,0.0048,0.0046,0.0010
1569,0.0217,0.0152,0.0154,0.0082,0.0046,0.0107,0.0103,0.0060
1570,0.0217,0.0152,0.0154,0.0082,0.0046,0.0107,0.0103,0.0060
1571,0.0217,0.0152,0.0154,0.0082,0.0046,0.0107,0.0103,0.0060
1572,0.0217,0.0152,0.0154,0.0082,0.0046,0.0107,0.0103,0.0060
1573,0.0217,0.0152,0.0154,0.0082,0.0046,0.0107,0.0103,0.0060
1574,0.0223,0.0124,0.0121,0.0017,0.0031,0.0052,0.0048,0.0007
1575,0.0223,0.0124,0.0121,0.0017,0.0031,0.0052,0.0048,0.0007
1576,0.0238,0.0135,0.0152,0.0033,0.0038,0.0067,0.0076,0.0025
1577,0.0223,0.0135,0.0138,0.0017,0.0034,0.0070,0.0067,0.0009
1578,0.0215,0.0147,0.0116,0.0025,0.0037,0.0070,0.0056,0.0017
1579,0.0224,0.0126,0.0120,0.0018,0.0037,0.0048,0.0046,0.0010
1580,0.0239,0.0141,0.0151,0.0024,0.0045,0.0073,0.0070,0.0016
1581,0.0223,0.0143,0.0130,0.0019,0.0032,0.0067,0.0057,0.0011
1582,0.0224,0.0142,0.0129,0.0019,0.0032,0.0062,0.0058,0.0011
1583,0.0240,0.0145,0.0154,0.0024,0.0045,0.0070,0.0071,0.0016
1584,0.0216,0.0171,0.0120,0.0030,0.0041,0.0069,0.0055,0.0023
1585,0.0225,0.0159,0.0136,0.0023,0.0034,0.0068,0.0063,0.0015
1586,0.0242,0.0163,0.0173,0.0026,0.0053,0.0083,0.0092,0.0018
1587,0.0226,0.0205,0.0181,0.0027,0.0033,0.0100,0.0094,0.0019
1588,0.0227,0.0197,0.0176,0.0029,0.0038,0.0106,0.0094,0.0022
1589,0.0216,0.0159,0.0131,0.0033,0.0041,0.0081,0.0069,0.0025
1590,0.0216,0.0152,0.0123,0.0025,0.0042,0.0066,0.0057,0.0018
1591,0.0228,0.0281,0.0243,0.0175,0.0053,0.0150,0.0149,0.0102
1592,0.0223,0.0257,0.0207,0.0141,0.0030,0.0123,0.0108,0.0076
1593,0.0239,0.0244,0.0225,0.0147,0.0043,0.0135,0.0127,0.0096
1594,0.0224,0.0231,0.0217,0.0089,0.0036,0.0135,0.0132,0.0055
1595,0.0216,0.0226,0.0200,0.0063,0.0042,0.0114,0.0111,0.0036
1596,0.0240,0.0197,0.0199,0.0101,0.0054,0.0111,0.0109,0.0071
1597,0.0225,0.0167,0.0160,0.0031,0.0039,0.0091,0.0089,0.0019
1598,0.0223,0.0149,0.0137,0.0027,0.0031,0.0067,0.0064,0.0018
1599,0.0238,0.0148,0.0158,0.0065,0.0039,0.0070,0.0072,0.0045
1600,0.0215,0.0154,0.0132,0.0024,0.0039,0.0088,0.0078,0.0016
1601,0.0224,0.0126,0.0120,0.0018,0.0037,0.0048,0.0046,0.0010
1602,0.0223,0.0143,0.0130,0.0019,0.0032,0.0067,0.0057,0.0011
1603,0.0238,0.0131,0.0148,0.0025,0.0041,0.0054,0.0064,0.0017
1604,0.0223,0.0126,0.0123,0.0030,0.0027,0.0050,0.0048,0.0023
1605,0.0223,0.0143,0.0137,0.0036,0.0032,0.0065,0.0063,0.0026
1606,0.0216,0.0270,0.0284,0.0073,0.0042,0.0136,0.0141,0.0041
1607,0.0225,0.0167,0.0168,0.0056,0.0039,0.0068,0.0074,0.0031
1608,0.0224,0.0194,0.0207,0.0069,0.0037,0.0079,0.0091,0.0038
1609,0.0239,0.0233,0.0257,0.0115,0.0047,0.0134,0.0146,0.0078
1610,0.0224,0.0301,0.0316,0.0113,0.0039,0.0134,0.0145,0.0058
1611,0.0219,0.0434,0.0419,0.0198,0.0052,0.0221,0.0222,0.0108
1612,0.0224,0.0126,0.0120,0.0018,0.0037,0.0048,0.0046,0.0010
1613,0.0241,0.0249,0.0266,0.0121,0.0055,0.0126,0.0138,0.0075
1614,0.0224,0.0142,0.0129,0.0019,0.0032,0.0062,0.0058,0.0011
1615,0.0223,0.0124,0.0121,0.0017,0.0031,0.0052,0.0048,0.0007
1616,0.0238,0.0135,0.0152,0.0033,0.0038,0.0067,0.0076,0.0025
1617,0.0215,0.0136,0.0108,0.0024,0.0038,0.0058,0.0047,0.0016
1618,0.0223,0.0124,0.0121,0.0017,0.0031,0.0052,0.0048,0.0007
1619,0.0238,0.0135,0.0152,0.0033,0.0038,0.0067,0.0076,0.0025
1620,0.0223,0.0124,0.0121,0.0017,0.0031,0.0052,0.0048,0.0007
1621,0.0223,0.0124,0.0121,0.0017,0.0031,0.0052,0.0048,0.0007
1622,0.0215,0.0136,0.0108,0.0024,0.0038,0.0058,0.0047,0.0016
1623,0.0224,0.0126,0.0120,0.0018,0.0037,0.0048,0.0046,0.0010
1624,0.0223,0.0124,0.0121,0.0017,0.0031,0.0052,0.0048,0.0007
1625,0.0223,0.0124,0.0121,0.0017,0.0031,0.0052,0.0048,0.0007
1626,0.0240,0.0145,0.0154,0.0024,0.0045,0.0070,0.0071,0.0016
1627,0.0223,0.0124,0.0121,0.0017,0.0031,0.0052,0.0048,0.0007
1628,0.0215,0.0136,0.0108,0.0024,0.0038,0.0058,0.0047,0.0016
1629,0.0238,0.0135,0.0152,0.0033,0.0038,0.0067,0.0076,0.0025
1630,0.0223,0.0124,0.0121,0.0017,0.0031,0.0052,0.0048,0.0007
1631,0.0223,0.0124,0.0121,0.0017,0.0031,0.0052,0.0048,0.0007
1632,0.0238,0.0135,0.0152,0.0033,0.0038,0.0067,0.0076,0.0025
1633,0.0215,0.0136,0.0108,0.0024,0.0038,0.0058,0.0047,0.0016
1634,0.0227,0.0161,0.0139,0.0021,0.0047,0.0064,0.0067,0.0013
1635,0.0223,0.0124,0.0121,0.0017,0.0031,0.0052,0.0048,0.0007
1636,0.0238,0.0135,0.0152,0.0033,0.0038,0.0067,0.0076,0.0025
1637,0.0223,0.0124,0.0121,0.0017,0.0031,0.0052,0.0048,0.0007
1638,0.0225,0.0145,0.0130,0.0022,0.0036,0.0060,0.0060,0.0014
1639,0.0215,0.0136,0.0108,0.0024,0.0038,0.0058,0.0047,0.0016
1640,0.0223,0.0124,0.0121,0.0017,0.0031,0.0052,0.0048,0.0007
1641,0.0223,0.0124,0.0121,0.0017,0.0031,0.0052,0.0048,0.0007
1642,0.0238,0.0135,0.0152,0.0033,0.0038,0.0067,0.0076,0.0025
1643,0.0223,0.0124,0.0121,0.0017,0.0031,0.0052,0.0048,0.0007
1644,0.0215,0.0136,0.0108,0.0024,0.0038,0.0058,0.0047,0.0016
1645,0.0216,0.0152,0.0123,0.0025,0.0042,0.0066,0.0057,0.0018
1646,0.0238,0.0135,0.0152,0.0033,0.0038,0.0067,0.0076,0.0025
1647,0.0223,0.0124,0.0121,0.0017,0.0031,0.0052,0.0048,0.0007
1648,0.0223,0.0124,0.0121,0.0017,0.0031,0.0052,0.0048,0.0007
1649,0.0238,0.0135,0.0152,0.0033,0.0038,0.0067,0.0076,0.0025
1650,0.0217,0.0184,0.0133,0.0043,0.0042,0.0085,0.0071,0.0034
1651,0.0223,0.0124,0.0121,0.0017,0.0031,0.0052,0.0048,0.0007
1652,0.0238,0.0135,0.0152,0.0033,0.0038,0.0067,0.0076,0.0025
1653,0.0223,0.0124,0.0121,0.0017,0.0031,0.0052,0.0048,0.0007
1654,0.0223,0.0124,0.0121,0.0017,0.0031,0.0052,0.0048,0.0007
1655,0.0215,0.0136,0.0108,0.0024,0.0038,0.0058,0.0047,0.0016
1656,0.0225,0.0146,0.0132,0.0027,0.0040,0.0060,0.0059,0.0016
1657,0.0224,0.0126,0.0120,0.0018,0.0037,0.0048,0.0046,0.0010
1658,0.0226,0.0128,0.0159,0.0024,0.0043,0.0068,0.0086,0.0016
1659,0.0225,0.0129,0.0153,0.0021,0.0038,0.0070,0.0078,0.0011
1660,0.0240,0.0132,0.0165,0.0052,0.0050,0.0072,0.0085,0.0039
1661,0.0224,0.0123,0.0138,0.0021,0.0032,0.0061,0.0063,0.0013
1662,0.0216,0.0171,0.0120,0.0030,0.0041,0.0069,0.0055,0.0023
1663,0.0242,0.0163,0.0173,0.0026,0.0053,0.0083,0.0092,0.0018
1664,0.0224,0.0117,0.0122,0.0025,0.0032,0.0044,0.0046,0.0017
1665,0.0224,0.0118,0.0120,0.0025,0.0033,0.0045,0.0043,0.0016
1666,0.0239,0.0132,0.0150,0.0043,0.0046,0.0070,0.0070,0.0030
1667,0.0215,0.0132,0.0117,0.0027,0.0037,0.0072,0.0063,0.0021
1668,0.0224,0.0126,0.0120,0.0018,0.0037,0.0048,0.0046,0.0010
1669,0.0223,0.0127,0.0125,0.0018,0.0029,0.0052,0.0052,0.0011
1670,0.0238,0.0141,0.0157,0.0027,0.0042,0.0077,0.0082,0.0021
1671,0.0224,0.0131,0.0127,0.0019,0.0036,0.0059,0.0052,0.0011
1672,0.0223,0.0143,0.0130,0.0019,0.0032,0.0067,0.0057,0.0011
1673,0.0219,0.0163,0.0132,0.0033,0.0058,0.0087,0.0077,0.0025
1674,0.0224,0.0142,0.0132,0.0020,0.0035,0.0063,0.0062,0.0013
1675,0.0226,0.0205,0.0181,0.0027,0.0033,0.0100,0.0094,0.0019
1676,0.0240,0.0146,0.0154,0.0030,0.0045,0.0064,0.0070,0.0022
1677,0.0225,0.0159,0.0136,0.0023,0.0034,0.0068,0.0063,0.0015
1678,0.0222,0.0192,0.0143,0.0070,0.0062,0.0098,0.0085,0.0050
1679,0.0224,0.0126,0.0120,0.0018,0.0037,0.0048,0.0046,0.0010
1680,0.0244,0.0172,0.0189,0.0031,0.0060,0.0098,0.0112,0.0022
1681,0.0227,0.0197,0.0176,0.0029,0.0038,0.0106,0.0094,0.0022
1682,0.0228,0.0281,0.0243,0.0175,0.0053,0.0150,0.0149,0.0102
1683,0.0239,0.0281,0.0223,0.0198,0.0046,0.0175,0.0129,0.0129
1684,0.0215,0.0255,0.0219,0.0104,0.0038,0.0138,0.0135,0.0066
1685,0.0215,0.0255,0.0219,0.0104,0.0038,0.0138,0.0135,0.0066
1686,0.0215,0.0255,0.0219,0.0104,0.0038,0.0138,0.0135,0.0066
1687,0.0215,0.0255,0.0219,0.0104,0.0038,0.0138,0.0135,0.0066
1688,0.0215,0.0255,0.0219,0.0104,0.0038,0.0138,0.0135,0.0066
1689,0.0215,0.0255,0.0219,0.0104,0.0038,0.0138,0.0135,0.0066
1690,0.0224,0.0126,0.0120,0.0018,0.0037,0.0048,0.0046,0.0010
1691,0.0223,0.0116,0.0118,0.0016,0.0029,0.0046,0.0043,0.0007
1692,0.0223,0.0116,0.0118,0.0016,0.0029,0.0046,0.0043,0.0007
1693,0.0238,0.0126,0.0147,0.0025,0.0038,0.0061,0.0062,0.0019
1694,0.0223,0.0119,0.0123,0.0018,0.0032,0.0056,0.0051,0.0010
1695,0.0215,0.0142,0.0126,0.0026,0.0034,0.0077,0.0071,0.0018
1696,0.0239,0.0133,0.0149,0.0024,0.0044,0.0068,0.0066,0.0017
1697,0.0223,0.0137,0.0132,0.0019,0.0030,0.0068,0.0061,0.0011
1698,0.0223,0.0130,0.0125,0.0019,0.0030,0.0054,0.0052,0.0012
1699,0.0239,0.0131,0.0146,0.0023,0.0043,0.0058,0.0060,0.0014
1700,0.0216,0.0151,0.0115,0.0028,0.0042,0.0066,0.0053,0.0019
1701,0.0216,0.0152,0.0123,0.0025,0.0042,0.0066,0.0057,0.0018
1702,0.0225,0.0147,0.0136,0.0022,0.0034,0.0066,0.0064,0.0014
1703,0.0242,0.0150,0.0165,0.0024,0.0052,0.0075,0.0085,0.0015
1704,0.0226,0.0165,0.0146,0.0022,0.0032,0.0076,0.0070,0.0014
1705,0.0227,0.0151,0.0136,0.0023,0.0036,0.0075,0.0064,0.0015
1706,0.0215,0.0145,0.0129,0.0034,0.0038,0.0076,0.0071,0.0025
1707,0.0227,0.0261,0.0256,0.0145,0.0049,0.0154,0.0167,0.0083
1708,0.0223,0.0225,0.0194,0.0116,0.0028,0.0115,0.0105,0.0065
1709,0.0238,0.0224,0.0220,0.0128,0.0040,0.0130,0.0131,0.0077
1710,0.0224,0.0212,0.0204,0.0088,0.0036,0.0129,0.0125,0.0060
1711,0.0216,0.0206,0.0191,0.0063,0.0042,0.0108,0.0107,0.0039
1712,0.0224,0.0126,0.0120,0.0018,0.0037,0.0048,0.0046,0.0010
1713,0.0240,0.0161,0.0173,0.0063,0.0053,0.0086,0.0084,0.0044
1714,0.0224,0.0148,0.0150,0.0029,0.0038,0.0083,0.0083,0.0020
1715,0.0223,0.0133,0.0129,0.0023,0.0030,0.0059,0.0056,0.0015
1716,0.0238,0.0139,0.0161,0.0039,0.0039,0.0060,0.0081,0.0030
1717,0.0215,0.0140,0.0123,0.0024,0.0037,0.0080,0.0069,0.0016
1718,0.0223,0.0137,0.0132,0.0019,0.0030,0.0068,0.0061,0.0011
1719,0.0238,0.0124,0.0148,0.0024,0.0041,0.0056,0.0067,0.0016
1720,0.0223,0.0118,0.0121,0.0033,0.0028,0.0047,0.0045,0.0024
1721,0.0224,0.0123,0.0127,0.0036,0.0034,0.0053,0.0054,0.0026
1722,0.0215,0.0249,0.0268,0.0068,0.0040,0.0133,0.0141,0.0038
1723,0.0224,0.0126,0.0120,0.0018,0.0037,0.0048,0.0046,0.0010
1724,0.0224,0.0151,0.0155,0.0053,0.0037,0.0062,0.0066,0.0031
1725,0.0224,0.0170,0.0184,0.0063,0.0035,0.0072,0.0082,0.0035
1726,0.0239,0.0204,0.0225,0.0100,0.0046,0.0119,0.0128,0.0069
1727,0.0224,0.0265,0.0283,0.0097,0.0038,0.0122,0.0135,0.0052
1728,0.0218,0.0364,0.0357,0.0168,0.0050,0.0195,0.0196,0.0098
1729,0.0241,0.0220,0.0240,0.0109,0.0055,0.0116,0.0127,0.0071
1730,0.0223,0.0130,0.0125,0.0019,0.0030,0.0054,0.0052,0.0012
1731,0.0223,0.0116,0.0118,0.0016,0.0029,0.0046,0.0043,0.0007
1732,0.0238,0.0126,0.0147,0.0025,0.0038,0.0061,0.0062,0.0019
1733,0.0215,0.0124,0.0106,0.0024,0.0035,0.0056,0.0047,0.0015
1734,0.0224,0.0126,0.0120,0.0018,0.0037,0.0048,0.0046,0.0010
1735,0.0223,0.0116,0.0118,0.0016,0.0029,0.0046,0.0043,0.0007
1736,0.0238,0.0126,0.0147,0.0025,0.0038,0.0061,0.0062,0.0019
1737,0.0223,0.0116,0.0118,0.0016,0.0029,0.0046,0.0043,0.0007
1738,0.0223,0.0116,0.0118,0.0016,0.0029,0.0046,0.0043,0.0007
1739,0.0215,0.0124,0.0106,0.0024,0.0035,0.0056,0.0047,0.0015
1740,0.0223,0.0116,0.0118,0.0016,0.0029,0.0046,0.0043,0.0007
1741,0.0223,0.0116,0.0118,0.0016,0.0029,0.0046,0.0043,0.0007
1742,0.0239,0.0131,0.0146,0.0023,0.0043,0.0058,0.0060,0.0014
1743,0.0223,0.0116,0.0118,0.0016,0.0029,0.0046,0.0043,0.0007
1744,0.0215,0.0124,0.0106,0.0024,0.0035,0.0056,0.0047,0.0015
1745,0.0224,0.0126,0.0120,0.0018,0.0037,0.0048,0.0046,0.0010
1746,0.0238,0.0126,0.0147,0.0025,0.0038,0.0061,0.0062,0.0019
1747,0.0223,0.0116,0.0118,0.0016,0.0029,0.0046,0.0043,0.0007
1748,0.0223,0.0116,0.0118,0.0016,0.0029,0.0046,0.0043,0.0007
1749,0.0238,0.0126,0.0147,0.0025,0.0038,0.0061,0.0062,0.0019
1750,0.0215,0.0124,0.0106,0.0024,0.0035,0.0056,0.0047,0.0015
1751,0.0223,0.0116,0.0118,0.0016,0.0029,0.0046,0.0043,0.0007
1752,0.0238,0.0126,0.0147,0.0025,0.0038,0.0061,0.0062,0.0019
1753,0.0223,0.0116,0.0118,0.0016,0.0029,0.0046,0.0043,0.0007
1754,0.0225,0.0130,0.0126,0.0023,0.0035,0.0055,0.0055,0.0016
1755,0.0215,0.0124,0.0106,0.0024,0.0035,0.0056,0.0047,0.0015
1756,0.0219,0.0205,0.0143,0.0046,0.0051,0.0093,0.0077,0.0036
1757,0.0223,0.0116,0.0118,0.0016,0.0029,0.0046,0.0043,0.0007
1758,0.0223,0.0116,0.0118,0.0016,0.0029,0.0046,0.0043,0.0007
1759,0.0238,0.0126,0.0147,0.0025,0.0038,0.0061,0.0062,0.0019
1760,0.0223,0.0116,0.0118,0.0016,0.0029,0.0046,0.0043,0.0007
1761,0.0215,0.0124,0.0106,0.0024,0.0035,0.0056,0.0047,0.0015
1762,0.0238,0.0126,0.0147,0.0025,0.0038,0.0061,0.0062,0.0019
1763,0.0223,0.0116,0.0118,0.0016,0.0029,0.0046,0.0043,0.0007
1764,0.0223,0.0116,0.0118,0.0016,0.0029,0.0046,0.0043,0.0007
1765,0.0238,0.0126,0.0147,0.0025,0.0038,0.0061,0.0062,0.0019
1766,0.0216,0.0154,0.0112,0.0037,0.0040,0.0068,0.0052,0.0030
1767,0.0225,0.0152,0.0136,0.0027,0.0039,0.0060,0.0062,0.0016
1768,0.0224,0.0126,0.0120,0.0018,0.0037,0.0048,0.0046,0.0010
1769,0.0223,0.0116,0.0118,0.0016,0.0029,0.0046,0.0043,0.0007
1770,0.0238,0.0126,0.0147,0.0025,0.0038,0.0061,0.0062,0.0019
1771,0.0223,0.0116,0.0118,0.0016,0.0029,0.0046,0.0043,0.0007
1772,0.0223,0.0116,0.0118,0.0016,0.0029,0.0046,0.0043,0.0007
1773,0.0215,0.0124,0.0106,0.0024,0.0035,0.0056,0.0047,0.0015
1774,0.0226,0.0125,0.0152,0.0024,0.0042,0.0070,0.0077,0.0016
1775,0.0225,0.0122,0.0147,0.0021,0.0037,0.0066,0.0073,0.0012
1776,0.0239,0.0127,0.0159,0.0045,0.0047,0.0068,0.0077,0.0035
1777,0.0224,0.0118,0.0135,0.0020,0.0032,0.0062,0.0066,0.0013
1778,0.0216,0.0151,0.0115,0.0028,0.0042,0.0066,0.0053,0.0019
1779,0.0224,0.0126,0.0120,0.0018,0.0037,0.0048,0.0046,0.0010
1780,0.0242,0.0150,0.0165,0.0024,0.0052,0.0075,0.0085,0.0015
1781,0.0224,0.0112,0.0122,0.0023,0.0032,0.0046,0.0045,0.0016
1782,0.0224,0.0112,0.0118,0.0023,0.0032,0.0044,0.0042,0.0015
1783,0.0239,0.0127,0.0150,0.0035,0.0043,0.0067,0.0071,0.0026
1784,0.0215,0.0115,0.0105,0.0027,0.0034,0.0056,0.0047,0.0021
1785,0.0223,0.0113,0.0115,0.0017,0.0028,0.0039,0.0036,0.0009
1786,0.0238,0.0130,0.0151,0.0023,0.0041,0.0068,0.0073,0.0016
1787,0.0223,0.0117,0.0116,0.0019,0.0034,0.0051,0.0041,0.0012
1788,0.0223,0.0137,0.0132,0.0019,0.0030,0.0068,0.0061,0.0011
1789,0.0219,0.0147,0.0123,0.0032,0.0056,0.0078,0.0067,0.0025
1790,0.0224,0.0126,0.0120,0.0018,0.0037,0.0048,0.0046,0.0010
1791,0.0224,0.0131,0.0128,0.0021,0.0034,0.0058,0.0058,0.0015
1792,0.0226,0.0165,0.0146,0.0022,0.0032,0.0076,0.0070,0.0014
1793,0.0240,0.0134,0.0150,0.0027,0.0043,0.0055,0.0063,0.0019
1794,0.0225,0.0147,0.0136,0.0022,0.0034,0.0066,0.0064,0.0014
1795,0.0221,0.0166,0.0120,0.0063,0.0059,0.0079,0.0060,0.0046
1796,0.0244,0.0156,0.0181,0.0031,0.0060,0.0090,0.0103,0.0024
1797,0.0227,0.0151,0.0136,0.0023,0.0036,0.0075,0.0064,0.0015
1798,0.0227,0.0261,0.0256,0.0145,0.0049,0.0154,0.0167,0.0083
1799,0.0239,0.0238,0.0209,0.0152,0.0043,0.0140,0.0116,0.0099
1800,0.0215,0.0232,0.0209,0.0107,0.0038,0.0135,0.0132,0.0072
1801,0.0224,0.0126,0.0120,0.0018,0.0037,0.0048,0.0046,0.0010
1802,0.0215,0.0232,0.0209,0.0107,0.0038,0.0135,0.0132,0.0072
1803,0.0215,0.0232,0.0209,0.0107,0.0038,0.0135,0.0132,0.0072
1804,0.0215,0.0232,0.0209,0.0107,0.0038,0.0135,0.0132,0.0072
1805,0.0215,0.0232,0.0209,0.0107,0.0038,0.0135,0.0132,0.0072
1806,0.0215,0.0232,0.0209,0.0107,0.0038,0.0135,0.0132,0.0072
1807,0.0223,0.0104,0.0118,0.0016,0.0027,0.0043,0.0045,0.0007
1808,0.0223,0.0104,0.0118,0.0016,0.0027,0.0043,0.0045,0.0007
1809,0.0238,0.0118,0.0145,0.0021,0.0041,0.0059,0.0061,0.0013
1810,0.0223,0.0106,0.0117,0.0019,0.0030,0.0052,0.0045,0.0012
1811,0.0214,0.0146,0.0154,0.0028,0.0031,0.0093,0.0095,0.0020
1812,0.0216,0.0152,0.0123,0.0025,0.0042,0.0066,0.0057,0.0018
1813,0.0239,0.0121,0.0146,0.0029,0.0043,0.0060,0.0061,0.0023
1814,0.0223,0.0122,0.0134,0.0020,0.0027,0.0065,0.0066,0.0013
1815,0.0223,0.0138,0.0155,0.0020,0.0028,0.0078,0.0085,0.0013
1816,0.0239,0.0118,0.0148,0.0023,0.0039,0.0057,0.0065,0.0014
1817,0.0216,0.0127,0.0110,0.0031,0.0042,0.0060,0.0050,0.0024
1818,0.0225,0.0113,0.0122,0.0025,0.0033,0.0052,0.0050,0.0018
1819,0.0241,0.0121,0.0151,0.0025,0.0050,0.0054,0.0064,0.0017
1820,0.0225,0.0128,0.0131,0.0019,0.0031,0.0059,0.0059,0.0011
1821,0.0226,0.0145,0.0146,0.0028,0.0034,0.0079,0.0071,0.0021
1822,0.0215,0.0140,0.0148,0.0035,0.0033,0.0089,0.0093,0.0026
1823,0.0226,0.0128,0.0188,0.0031,0.0049,0.0066,0.0115,0.0020
1824,0.0225,0.0262,0.0277,0.0146,0.0041,0.0175,0.0182,0.0096
1825,0.0223,0.0182,0.0177,0.0096,0.0027,0.0111,0.0104,0.0063
1826,0.0238,0.0240,0.0242,0.0145,0.0037,0.0165,0.0159,0.0101
1827,0.0224,0.0210,0.0210,0.0101,0.0035,0.0139,0.0132,0.0069
1828,0.0216,0.0163,0.0166,0.0054,0.0040,0.0095,0.0097,0.0037
1829,0.0240,0.0127,0.0160,0.0073,0.0050,0.0066,0.0085,0.0052
1830,0.0224,0.0129,0.0147,0.0050,0.0035,0.0076,0.0082,0.0032
1831,0.0223,0.0111,0.0124,0.0037,0.0029,0.0048,0.0051,0.0024
1832,0.0238,0.0120,0.0155,0.0028,0.0043,0.0054,0.0077,0.0020
1833,0.0215,0.0126,0.0124,0.0025,0.0034,0.0076,0.0072,0.0018
1834,0.0226,0.0130,0.0176,0.0029,0.0049,0.0067,0.0103,0.0017
1835,0.0223,0.0122,0.0134,0.0020,0.0027,0.0065,0.0066,0.0013
1836,0.0238,0.0112,0.0143,0.0023,0.0041,0.0046,0.0056,0.0016
1837,0.0223,0.0104,0.0119,0.0035,0.0029,0.0045,0.0047,0.0026
1838,0.0223,0.0108,0.0122,0.0036,0.0033,0.0045,0.0047,0.0026
1839,0.0215,0.0200,0.0225,0.0055,0.0037,0.0121,0.0130,0.0033
1840,0.0223,0.0115,0.0127,0.0040,0.0032,0.0045,0.0049,0.0025
1841,0.0223,0.0130,0.0149,0.0044,0.0030,0.0057,0.0066,0.0028
1842,0.0239,0.0159,0.0180,0.0076,0.0044,0.0089,0.0090,0.0050
1843,0.0224,0.0185,0.0209,0.0066,0.0037,0.0095,0.0109,0.0040
1844,0.0217,0.0266,0.0270,0.0151,0.0047,0.0163,0.0162,0.0100
1845,0.0227,0.0134,0.0172,0.0029,0.0051,0.0073,0.0097,0.0017
1846,0.0241,0.0159,0.0183,0.0100,0.0052,0.0087,0.0096,0.0070
1847,0.0223,0.0138,0.0155,0.0020,0.0028,0.0078,0.0085,0.0013
1848,0.0223,0.0104,0.0118,0.0016,0.0027,0.0043,0.0045,0.0007
1849,0.0238,0.0118,0.0145,0.0021,0.0041,0.0059,0.0061,0.0013
1850,0.0214,0.0107,0.0105,0.0024,0.0031,0.0053,0.0048,0.0014
1851,0.0223,0.0104,0.0118,0.0016,0.0027,0.0043,0.0045,0.0007
1852,0.0238,0.0118,0.0145,0.0021,0.0041,0.0059,0.0061,0.0013
1853,0.0223,0.0104,0.0118,0.0016,0.0027,0.0043,0.0045,0.0007
1854,0.0223,0.0104,0.0118,0.0016,0.0027,0.0043,0.0045,0.0007
1855,0.0214,0.0107,0.0105,0.0024,0.0031,0.0053,0.0048,0.0014
1856,0.0228,0.0130,0.0156,0.0028,0.0053,0.0063,0.0083,0.0018
1857,0.0223,0.0104,0.0118,0.0016,0.0027,0.0043,0.0045,0.0007
1858,0.0223,0.0104,0.0118,0.0016,0.0027,0.0043,0.0045,0.0007
1859,0.0239,0.0118,0.0148,0.0023,0.0039,0.0057,0.0065,0.0014
1860,0.0223,0.0104,0.0118,0.0016,0.0027,0.0043,0.0045,0.0007
1861,0.0214,0.0107,0.0105,0.0024,0.0031,0.0053,0.0048,0.0014
1862,0.0238,0.0118,0.0145,0.0021,0.0041,0.0059,0.0061,0.0013
1863,0.0223,0.0104,0.0118,0.0016,0.0027,0.0043,0.0045,0.0007
1864,0.0223,0.0104,0.0118,0.0016,0.0027,0.0043,0.0045,0.0007
1865,0.0238,0.0118,0.0145,0.0021,0.0041,0.0059,0.0061,0.0013
1866,0.0214,0.0107,0.0105,0.0024,0.0031,0.0053,0.0048,0.0014
1867,0.0219,0.0193,0.0137,0.0033,0.0051,0.0077,0.0064,0.0025
1868,0.0223,0.0104,0.0118,0.0016,0.0027,0.0043,0.0045,0.0007
1869,0.0238,0.0118,0.0145,0.0021,0.0041,0.0059,0.0061,0.0013
1870,0.0223,0.0104,0.0118,0.0016,0.0027,0.0043,0.0045,0.0007
1871,0.0225,0.0111,0.0121,0.0027,0.0034,0.0046,0.0049,0.0020
1872,0.0214,0.0107,0.0105,0.0024,0.0031,0.0053,0.0048,0.0014
1873,0.0223,0.0104,0.0118,0.0016,0.0027,0.0043,0.0045,0.0007
1874,0.0223,0.0104,0.0118,0.0016,0.0027,0.0043,0.0045,0.0007
1875,0.0238,0.0118,0.0145,0.0021,0.0041,0.0059,0.0061,0.0013
1876,0.0223,0.0104,0.0118,0.0016,0.0027,0.0043,0.0045,0.0007
1877,0.0214,0.0107,0.0105,0.0024,0.0031,0.0053,0.0048,0.0014
1878,0.0226,0.0168,0.0149,0.0024,0.0043,0.0075,0.0078,0.0015
1879,0.0227,0.0201,0.0160,0.0030,0.0044,0.0084,0.0077,0.0022
1880,0.0238,0.0118,0.0145,0.0021,0.0041,0.0059,0.0061,0.0013
1881,0.0223,0.0104,0.0118,0.0016,0.0027,0.0043,0.0045,0.0007
1882,0.0223,0.0104,0.0118,0.0016,0.0027,0.0043,0.0045,0.0007
1883,0.0238,0.0118,0.0145,0.0021,0.0041,0.0059,0.0061,0.0013
1884,0.0216,0.0132,0.0113,0.0031,0.0036,0.0066,0.0053,0.0022
1885,0.0223,0.0104,0.0118,0.0016,0.0027,0.0043,0.0045,0.0007
1886,0.0238,0.0118,0.0145,0.0021,0.0041,0.0059,0.0061,0.0013
1887,0.0223,0.0104,0.0118,0.0016,0.0027,0.0043,0.0045,0.0007
1888,0.0223,0.0104,0.0118,0.0016,0.0027,0.0043,0.0045,0.0007
1889,0.0214,0.0107,0.0105,0.0024,0.0031,0.0053,0.0048,0.0014
1890,0.0230,0.0123,0.0134,0.0026,0.0056,0.0048,0.0064,0.0018
1891,0.0227,0.0122,0.0145,0.0023,0.0047,0.0071,0.0078,0.0014
1892,0.0225,0.0120,0.0148,0.0020,0.0041,0.0070,0.0081,0.0010
1893,0.0239,0.0124,0.0156,0.0036,0.0042,0.0069,0.0080,0.0029
1894,0.0224,0.0108,0.0134,0.0021,0.0035,0.0057,0.0066,0.0014
1895,0.0216,0.0127,0.0110,0.0031,0.0042,0.0060,0.0050,0.0024
1896,0.0241,0.0121,0.0151,0.0025,0.0050,0.0054,0.0064,0.0017
1897,0.0224,0.0103,0.0122,0.0023,0.0035,0.0048,0.0052,0.0016
1898,0.0224,0.0099,0.0114,0.0023,0.0034,0.0040,0.0040,0.0016
1899,0.0239,0.0121,0.0153,0.0026,0.0045,0.0066,0.0077,0.0019
1900,0.0215,0.0101,0.0102,0.0028,0.0032,0.0049,0.0043,0.0022
1901,0.0229,0.0123,0.0129,0.0024,0.0053,0.0044,0.0055,0.0016
1902,0.0223,0.0101,0.0117,0.0017,0.0028,0.0042,0.0045,0.0009
1903,0.0238,0.0118,0.0145,0.0024,0.0044,0.0057,0.0060,0.0017
1904,0.0223,0.0103,0.0113,0.0020,0.0031,0.0044,0.0036,0.0014
1905,0.0223,0.0122,0.0134,0.0020,0.0027,0.0065,0.0066,0.0013
1906,0.0218,0.0125,0.0119,0.0031,0.0053,0.0076,0.0066,0.0024
1907,0.0224,0.0111,0.0123,0.0023,0.0032,0.0049,0.0052,0.0017
1908,0.0225,0.0128,0.0131,0.0019,0.0031,0.0059,0.0059,0.0011
1909,0.0240,0.0137,0.0167,0.0025,0.0040,0.0075,0.0089,0.0017
1910,0.0225,0.0113,0.0122,0.0025,0.0033,0.0052,0.0050,0.0018
1911,0.0219,0.0150,0.0137,0.0042,0.0053,0.0092,0.0079,0.0034
1912,0.0227,0.0125,0.0127,0.0023,0.0048,0.0042,0.0049,0.0014
1913,0.0243,0.0133,0.0169,0.0038,0.0060,0.0075,0.0088,0.0030
1914,0.0226,0.0145,0.0146,0.0028,0.0034,0.0079,0.0071,0.0021
1915,0.0225,0.0262,0.0277,0.0146,0.0041,0.0175,0.0182,0.0096
1916,0.0238,0.0197,0.0197,0.0106,0.0038,0.0118,0.0112,0.0063
1917,0.0215,0.0205,0.0203,0.0116,0.0036,0.0139,0.0137,0.0079
1918,0.0215,0.0205,0.0203,0.0116,0.0036,0.0139,0.0137,0.0079
1919,0.0215,0.0205,0.0203,0.0116,0.0036,0.0139,0.0137,0.0079
1920,0.0215,0.0205,0.0203,0.0116,0.0036,0.0139,0.0137,0.0079
1921,0.0215,0.0205,0.0203,0.0116,0.0036,0.0139,0.0137,0.0079
1922,0.0215,0.0205,0.0203,0.0116,0.0036,0.0139,0.0137,0.0079
1923,0.0216,0.0142,0.0118,0.0027,0.0042,0.0077,0.0063,0.0021
1924,0.0223,0.0097,0.0115,0.0016,0.0029,0.0039,0.0038,0.0007
1925,0.0223,0.0097,0.0115,0.0016,0.0029,0.0039,0.0038,0.0007
1926,0.0238,0.0120,0.0150,0.0022,0.0044,0.0068,0.0073,0.0015
1927,0.0223,0.0100,0.0115,0.0019,0.0032,0.0048,0.0042,0.0012
1928,0.0214,0.0135,0.0151,0.0027,0.0029,0.0090,0.0093,0.0020
1929,0.0239,0.0116,0.0145,0.0031,0.0048,0.0057,0.0059,0.0024
1930,0.0223,0.0114,0.0134,0.0020,0.0026,0.0063,0.0067,0.0013
1931,0.0223,0.0135,0.0158,0.0019,0.0027,0.0080,0.0089,0.0011
1932,0.0239,0.0112,0.0145,0.0023,0.0039,0.0051,0.0059,0.0014
1933,0.0216,0.0102,0.0099,0.0035,0.0041,0.0053,0.0041,0.0028
1934,0.0224,0.0128,0.0124,0.0019,0.0035,0.0043,0.0049,0.0011
1935,0.0225,0.0104,0.0121,0.0028,0.0032,0.0050,0.0049,0.0020
1936,0.0241,0.0112,0.0151,0.0026,0.0049,0.0051,0.0065,0.0018
1937,0.0225,0.0107,0.0121,0.0021,0.0030,0.0048,0.0047,0.0014
1938,0.0226,0.0132,0.0140,0.0032,0.0033,0.0077,0.0070,0.0024
1939,0.0215,0.0130,0.0143,0.0033,0.0032,0.0085,0.0090,0.0024
1940,0.0224,0.0305,0.0312,0.0187,0.0037,0.0205,0.0209,0.0125
1941,0.0223,0.0183,0.0180,0.0111,0.0031,0.0116,0.0106,0.0073
1942,0.0238,0.0288,0.0277,0.0185,0.0036,0.0202,0.0190,0.0131
1943,0.0224,0.0230,0.0231,0.0114,0.0035,0.0153,0.0148,0.0078
1944,0.0215,0.0140,0.0153,0.0045,0.0039,0.0085,0.0088,0.0033
1945,0.0225,0.0155,0.0157,0.0021,0.0043,0.0089,0.0087,0.0013
1946,0.0239,0.0142,0.0186,0.0109,0.0048,0.0088,0.0111,0.0076
1947,0.0223,0.0117,0.0144,0.0051,0.0034,0.0069,0.0079,0.0032
1948,0.0223,0.0101,0.0122,0.0044,0.0030,0.0049,0.0055,0.0028
1949,0.0239,0.0113,0.0169,0.0043,0.0046,0.0053,0.0095,0.0032
1950,0.0215,0.0116,0.0119,0.0025,0.0035,0.0068,0.0065,0.0018
1951,0.0223,0.0114,0.0134,0.0020,0.0026,0.0063,0.0067,0.0013
1952,0.0238,0.0108,0.0142,0.0024,0.0043,0.0046,0.0054,0.0017
1953,0.0223,0.0097,0.0117,0.0038,0.0027,0.0041,0.0044,0.0028
1954,0.0223,0.0098,0.0119,0.0037,0.0029,0.0041,0.0046,0.0026
1955,0.0215,0.0159,0.0181,0.0046,0.0035,0.0102,0.0108,0.0030
1956,0.0225,0.0152,0.0145,0.0025,0.0046,0.0080,0.0074,0.0015
1957,0.0223,0.0102,0.0122,0.0037,0.0029,0.0045,0.0051,0.0023
1958,0.0223,0.0105,0.0124,0.0043,0.0028,0.0048,0.0051,0.0028
1959,0.0239,0.0141,0.0173,0.0068,0.0045,0.0078,0.0093,0.0045
1960,0.0224,0.0127,0.0147,0.0066,0.0039,0.0061,0.0066,0.0044
1961,0.0216,0.0267,0.0264,0.0184,0.0045,0.0177,0.0166,0.0120
1962,0.0240,0.0138,0.0162,0.0122,0.0047,0.0080,0.0081,0.0086
1963,0.0223,0.0135,0.0158,0.0019,0.0027,0.0080,0.0089,0.0011
1964,0.0223,0.0097,0.0115,0.0016,0.0029,0.0039,0.0038,0.0007
1965,0.0238,0.0120,0.0150,0.0022,0.0044,0.0068,0.0073,0.0015
1966,0.0214,0.0099,0.0106,0.0023,0.0032,0.0053,0.0052,0.0014
1967,0.0225,0.0146,0.0132,0.0027,0.0040,0.0060,0.0059,0.0016
1968,0.0223,0.0097,0.0115,0.0016,0.0029,0.0039,0.0038,0.0007
1969,0.0238,0.0120,0.0150,0.0022,0.0044,0.0068,0.0073,0.0015
1970,0.0223,0.0097,0.0115,0.0016,0.0029,0.0039,0.0038,0.0007
1971,0.0223,0.0097,0.0115,0.0016,0.0029,0.0039,0.0038,0.0007
1972,0.0214,0.0099,0.0106,0.0023,0.0032,0.0053,0.0052,0.0014
1973,0.0223,0.0097,0.0115,0.0016,0.0029,0.0039,0.0038,0.0007
1974,0.0223,0.0097,0.0115,0.0016,0.0029,0.0039,0.0038,0.0007
1975,0.0239,0.0112,0.0145,0.0023,0.0039,0.0051,0.0059,0.0014
1976,0.0223,0.0097,0.0115,0.0016,0.0029,0.0039,0.0038,0.0007
1977,0.0214,0.0099,0.0106,0.0023,0.0032,0.0053,0.0052,0.0014
1978,0.0221,0.0183,0.0143,0.0032,0.0065,0.0091,0.0082,0.0024
1979,0.0238,0.0120,0.0150,0.0022,0.0044,0.0068,0.0073,0.0015
1980,0.0223,0.0097,0.0115,0.0016,0.0029,0.0039,0.0038,0.0007
1981,0.0223,0.0097,0.0115,0.0016,0.0029,0.0039,0.0038,0.0007
1982,0.0238,0.0120,0.0150,0.0022,0.0044,0.0068,0.0073,0.0015
1983,0.0214,0.0099,0.0106,0.0023,0.0032,0.0053,0.0052,0.0014
1984,0.0223,0.0097,0.0115,0.0016,0.0029,0.0039,0.0038,0.0007
1985,0.0238,0.0120,0.0150,0.0022,0.0044,0.0068,0.0073,0.0015
1986,0.0223,0.0097,0.0115,0.0016,0.0029,0.0039,0.0038,0.0007
1987,0.0225,0.0099,0.0120,0.0028,0.0034,0.0043,0.0048,0.0021
1988,0.0214,0.0099,0.0106,0.0023,0.0032,0.0053,0.0052,0.0014
1989,0.0219,0.0193,0.0137,0.0033,0.0051,0.0077,0.0064,0.0025
1990,0.0226,0.0168,0.0149,0.0024,0.0043,0.0075,0.0078,0.0015
1991,0.0223,0.0097,0.0115,0.0016,0.0029,0.0039,0.0038,0.0007
1992,0.0223,0.0097,0.0115,0.0016,0.0029,0.0039,0.0038,0.0007
1993,0.0238,0.0120,0.0150,0.0022,0.0044,0.0068,0.0073,0.0015
1994,0.0223,0.0097,0.0115,0.0016,0.0029,0.0039,0.0038,0.0007
1995,0.0214,0.0099,0.0106,0.0023,0.0032,0.0053,0.0052,0.0014
1996,0.0238,0.0120,0.0150,0.0022,0.0044,0.0068,0.0073,0.0015
1997,0.0223,0.0097,0.0115,0.0016,0.0029,0.0039,0.0038,0.0007
1998,0.0223,0.0097,0.0115,0.0016,0.0029,0.0039,0.0038,0.0007
1999,0.0238,0.0120,0.0150,0.0022,0.0044,0.0068,0.0073,0.0015
2000,0.0216,0.0110,0.0105,0.0038,0.0035,0.0061,0.0048,0.0030
2001,0.0228,0.0208,0.0165,0.0032,0.0044,0.0097,0.0086,0.0023
2002,0.0223,0.0097,0.0115,0.0016,0.0029,0.0039,0.0038,0.0007
2003,0.0238,0.0120,0.0150,0.0022,0.0044,0.0068,0.0073,0.0015
2004,0.0223,0.0097,0.0115,0.0016,0.0029,0.0039,0.0038,0.0007
2005,0.0223,0.0097,0.0115,0.0016,0.0029,0.0039,0.0038,0.0007
2006,0.0214,0.0099,0.0106,0.0023,0.0032,0.0053,0.0052,0.0014
2007,0.0227,0.0130,0.0169,0.0022,0.0051,0.0081,0.0101,0.0013
2008,0.0226,0.0123,0.0162,0.0021,0.0045,0.0075,0.0096,0.0013
2009,0.0239,0.0129,0.0172,0.0033,0.0047,0.0073,0.0099,0.0026
2010,0.0224,0.0112,0.0148,0.0024,0.0038,0.0064,0.0083,0.0017
2011,0.0216,0.0102,0.0099,0.0035,0.0041,0.0053,0.0041,0.0028
2012,0.0227,0.0161,0.0139,0.0021,0.0047,0.0064,0.0067,0.0013
2013,0.0241,0.0112,0.0151,0.0026,0.0049,0.0051,0.0065,0.0018
2014,0.0224,0.0098,0.0123,0.0027,0.0037,0.0046,0.0053,0.0018
2015,0.0224,0.0098,0.0121,0.0025,0.0036,0.0047,0.0051,0.0017
2016,0.0239,0.0119,0.0157,0.0023,0.0048,0.0065,0.0083,0.0017
2017,0.0215,0.0094,0.0102,0.0029,0.0033,0.0048,0.0044,0.0023
2018,0.0223,0.0091,0.0110,0.0018,0.0029,0.0032,0.0032,0.0010
2019,0.0239,0.0116,0.0146,0.0026,0.0047,0.0060,0.0063,0.0020
2020,0.0223,0.0096,0.0111,0.0020,0.0033,0.0040,0.0035,0.0014
2021,0.0223,0.0114,0.0134,0.0020,0.0026,0.0063,0.0067,0.0013
2022,0.0217,0.0119,0.0121,0.0031,0.0052,0.0078,0.0070,0.0023
2023,0.0227,0.0170,0.0141,0.0024,0.0047,0.0066,0.0066,0.0016
2024,0.0224,0.0105,0.0125,0.0022,0.0033,0.0053,0.0056,0.0016
2025,0.0225,0.0107,0.0121,0.0021,0.0030,0.0048,0.0047,0.0014
2026,0.0239,0.0123,0.0158,0.0024,0.0039,0.0068,0.0081,0.0017
2027,0.0225,0.0104,0.0121,0.0028,0.0032,0.0050,0.0049,0.0020
2028,0.0218,0.0148,0.0143,0.0031,0.0050,0.0096,0.0084,0.0022
2029,0.0243,0.0137,0.0179,0.0042,0.0059,0.0086,0.0105,0.0033
2030,0.0226,0.0132,0.0140,0.0032,0.0033,0.0077,0.0070,0.0024
2031,0.0224,0.0305,0.0312,0.0187,0.0037,0.0205,0.0209,0.0125
2032,0.0238,0.0227,0.0221,0.0135,0.0035,0.0156,0.0144,0.0094
2033,0.0215,0.0195,0.0200,0.0115,0.0035,0.0136,0.0133,0.0077
2034,0.0224,0.0202,0.0138,0.0078,0.0070,0.0097,0.0080,0.0057
2035,0.0215,0.0195,0.0200,0.0115,0.0035,0.0136,0.0133,0.0077
2036,0.0215,0.0195,0.0200,0.0115,0.0035,0.0136,0.0133,0.0077
2037,0.0215,0.0195,0.0200,0.0115,0.0035,0.0136,0.0133,0.0077
2038,0.0215,0.0195,0.0200,0.0115,0.0035,0.0136,0.0133,0.0077
2039,0.0215,0.0195,0.0200,0.0115,0.0035,0.0136,0.0133,0.0077
2040,0.0223,0.0095,0.0114,0.0016,0.0030,0.0038,0.0037,0.0007
2041,0.0223,0.0095,0.0114,0.0016,0.0030,0.0038,0.0037,0.0007
2042,0.0239,0.0118,0.0148,0.0022,0.0046,0.0064,0.0069,0.0015
2043,0.0223,0.0096,0.0113,0.0018,0.0035,0.0042,0.0039,0.0011
2044,0.0214,0.0106,0.0117,0.0026,0.0029,0.0064,0.0066,0.0018
2045,0.0228,0.0208,0.0165,0.0032,0.0044,0.0097,0.0086,0.0023
2046,0.0239,0.0117,0.0146,0.0031,0.0049,0.0060,0.0063,0.0025
2047,0.0223,0.0108,0.0128,0.0019,0.0027,0.0056,0.0059,0.0012
2048,0.0223,0.0121,0.0144,0.0018,0.0028,0.0070,0.0077,0.0011
2049,0.0239,0.0109,0.0143,0.0022,0.0041,0.0048,0.0053,0.0014
2050,0.0216,0.0097,0.0099,0.0037,0.0041,0.0050,0.0040,0.0029
2051,0.0225,0.0101,0.0121,0.0028,0.0032,0.0047,0.0048,0.0021
2052,0.0241,0.0110,0.0151,0.0025,0.0047,0.0049,0.0065,0.0017
2053,0.0225,0.0100,0.0118,0.0021,0.0029,0.0044,0.0044,0.0014
2054,0.0226,0.0133,0.0140,0.0033,0.0032,0.0079,0.0071,0.0025
2055,0.0215,0.0133,0.0149,0.0031,0.0031,0.0089,0.0094,0.0023
2056,0.0229,0.0194,0.0146,0.0028,0.0047,0.0088,0.0073,0.0020
2057,0.0224,0.0336,0.0336,0.0212,0.0036,0.0227,0.0226,0.0142
2058,0.0223,0.0206,0.0199,0.0130,0.0031,0.0134,0.0123,0.0087
2059,0.0238,0.0337,0.0320,0.0217,0.0035,0.0235,0.0219,0.0151
2060,0.0224,0.0250,0.0251,0.0123,0.0034,0.0168,0.0163,0.0084
2061,0.0215,0.0129,0.0146,0.0041,0.0038,0.0081,0.0086,0.0030
2062,0.0239,0.0150,0.0194,0.0117,0.0047,0.0095,0.0119,0.0080
2063,0.0223,0.0121,0.0155,0.0052,0.0034,0.0073,0.0090,0.0033
2064,0.0223,0.0099,0.0124,0.0044,0.0031,0.0048,0.0058,0.0028
2065,0.0239,0.0112,0.0172,0.0046,0.0048,0.0052,0.0100,0.0034
2066,0.0215,0.0113,0.0118,0.0025,0.0036,0.0065,0.0063,0.0017
2067,0.0230,0.0314,0.0243,0.0206,0.0063,0.0156,0.0142,0.0118
2068,0.0223,0.0108,0.0128,0.0019,0.0027,0.0056,0.0059,0.0012
2069,0.0239,0.0107,0.0142,0.0026,0.0044,0.0044,0.0053,0.0018
2070,0.0223,0.0095,0.0118,0.0039,0.0026,0.0040,0.0046,0.0029
2071,0.0223,0.0098,0.0123,0.0038,0.0028,0.0045,0.0053,0.0027
2072,0.0215,0.0119,0.0134,0.0037,0.0035,0.0074,0.0078,0.0025
2073,0.0223,0.0098,0.0124,0.0037,0.0027,0.0044,0.0053,0.0023
2074,0.0223,0.0103,0.0125,0.0046,0.0028,0.0051,0.0056,0.0029
2075,0.0239,0.0139,0.0179,0.0068,0.0044,0.0079,0.0099,0.0046
2076,0.0224,0.0118,0.0135,0.0075,0.0040,0.0061,0.0058,0.0049
2077,0.0216,0.0292,0.0283,0.0207,0.0045,0.0191,0.0176,0.0135
2078,0.0224,0.0305,0.0238,0.0179,0.0036,0.0135,0.0115,0.0095
2079,0.0240,0.0156,0.0177,0.0148,0.0046,0.0100,0.0103,0.0103
2080,0.0223,0.0121,0.0144,0.0018,0.0028,0.0070,0.0077,0.0011
2081,0.0223,0.0095,0.0114,0.0016,0.0030,0.0038,0.0037,0.0007
2082,0.0239,0.0118,0.0148,0.0022,0.0046,0.0064,0.0069,0.0015
2083,0.0214,0.0093,0.0100,0.0023,0.0032,0.0045,0.0042,0.0014
2084,0.0223,0.0095,0.0114,0.0016,0.0030,0.0038,0.0037,0.0007
2085,0.0239,0.0118,0.0148,0.0022,0.0046,0.0064,0.0069,0.0015
2086,0.0223,0.0095,0.0114,0.0016,0.0030,0.0038,0.0037,0.0007
2087,0.0223,0.0095,0.0114,0.0016,0.0030,0.0038,0.0037,0.0007
2088,0.0214,0.0093,0.0100,0.0023,0.0032,0.0045,0.0042,0.0014
2089,0.0218,0.0290,0.0239,0.0123,0.0049,0.0135,0.0127,0.0066
2090,0.0223,0.0095,0.0114,0.0016,0.0030,0.0038,0.0037,0.0007
2091,0.0223,0.0095,0.0114,0.0016,0.0030,0.0038,0.0037,0.0007
2092,0.0239,0.0109,0.0143,0.0022,0.0041,0.0048,0.0053,0.0014
2093,0.0223,0.0095,0.0114,0.0016,0.0030,0.0038,0.0037,0.0007
2094,0.0214,0.0093,0.0100,0.0023,0.0032,0.0045,0.0042,0.0014
2095,0.0239,0.0118,0.0148,0.0022,0.0046,0.0064,0.0069,0.0015
2096,0.0223,0.0095,0.0114,0.0016,0.0030,0.0038,0.0037,0.0007
2097,0.0223,0.0095,0.0114,0.0016,0.0030,0.0038,0.0037,0.0007
2098,0.0239,0.0118,0.0148,0.0022,0.0046,0.0064,0.0069,0.0015
2099,0.0214,0.0093,0.0100,0.0023,0.0032,0.0045,0.0042,0.0014
Total Error Summary
Vdc  MAE=  0.0036 RMSE=  0.0225
Idc  MAE=  0.0071 RMSE=  0.0149
Id   MAE=  0.0070 RMSE=  0.0153
Iq   MAE=  0.0026 RMSE=  0.0057
